# File created by shivutils (I.Shivvers)
# wl(A)   flm    er(optional)
3442.00   0.57089865   0.16466013
3444.00   0.20230122   0.15705332
3446.00   0.24897224   0.16197702
3448.00   0.64804626   0.16904077
3450.00   0.75875092   0.18087628
3452.00   0.32385647   0.18515818
3454.00   0.44341439   0.18192223
3456.00   0.60997909   0.18191291
3458.00   -0.28721696   0.18045822
3460.00   -0.25376511   0.17639980
3462.00   -0.18870640   0.17632148
3464.00   0.15759501   0.16947696
3466.00   0.31434545   0.16499263
3468.00   0.45545828   0.17057475
3470.00   0.46638098   0.17444716
3472.00   0.80655032   0.17220618
3474.00   0.80993271   0.17478968
3476.00   0.45366600   0.17857270
3478.00   0.42573509   0.18838686
3480.00   0.68881220   0.20512924
3482.00   0.40748969   0.20066255
3484.00   0.73824430   0.20148034
3486.00   0.39144570   0.19472910
3488.00   0.42891219   0.19367155
3490.00   0.12612981   0.18861768
3492.00   0.69369769   0.19397555
3494.00   0.77026135   0.18639670
3496.00   0.49082294   0.18255439
3498.00   0.14130980   0.18106423
3500.00   0.56678420   0.17975083
3502.00   -0.02198490   0.17962860
3504.00   0.53800118   0.17771134
3506.00   0.23137890   0.17633542
3508.00   0.50846046   0.17769992
3510.00   0.45182836   0.18077585
3512.00   0.24019676   0.17516290
3514.00   0.00276066   0.17433693
3516.00   0.68120259   0.17582285
3518.00   0.61114198   0.17483246
3520.00   0.31524256   0.17101149
3522.00   0.41881081   0.17223620
3524.00   0.25010514   0.16966335
3526.00   0.66523135   0.17309049
3528.00   0.42198411   0.16829309
3530.00   0.22339448   0.16767977
3532.00   0.45949921   0.16833459
3534.00   0.31249076   0.17132026
3536.00   0.25146312   0.17273435
3538.00   0.52205372   0.17554557
3540.00   0.22016235   0.18515123
3542.00   0.14806561   0.19498827
3544.00   0.54553568   0.19767976
3546.00   0.77010983   0.19388662
3548.00   0.75690496   0.18581054
3550.00   1.13843107   0.18679087
3552.00   0.52097309   0.18434423
3554.00   0.72927320   0.18744481
3556.00   0.36675090   0.18270388
3558.00   0.25346279   0.18188210
3560.00   0.54534590   0.17572080
3562.00   0.64595145   0.16732526
3564.00   0.71849632   0.16383648
3566.00   0.66590512   0.16457160
3568.00   0.51818258   0.16191734
3570.00   0.30797696   0.16049676
3572.00   0.16334318   0.16063316
3574.00   0.40023807   0.16476116
3576.00   0.03130866   0.15998025
3578.00   0.15866055   0.15447032
3580.00   0.34597024   0.15445898
3582.00   0.02461872   0.15014929
3584.00   0.44900852   0.14359455
3586.00   0.36948517   0.14132710
3588.00   0.54704744   0.14638723
3590.00   0.25650522   0.15309185
3592.00   0.51748651   0.14880733
3594.00   0.34065548   0.14104120
3596.00   0.29656607   0.14511557
3598.00   0.06020767   0.13860117
3600.00   0.55579066   0.13953407
3602.00   0.04283733   0.13479833
3604.00   0.18857491   0.13581714
3606.00   0.22678177   0.13315366
3608.00   0.13944431   0.13074769
3610.00   0.46110210   0.13436942
3612.00   0.41994736   0.14409986
3614.00   -0.04501349   0.14864938
3616.00   0.60584784   0.14936346
3618.00   0.67564571   0.14563465
3620.00   0.64532989   0.13976079
3622.00   0.51263726   0.13952640
3624.00   0.59367746   0.13835731
3626.00   0.74207407   0.13612024
3628.00   0.24161759   0.13966689
3630.00   0.38076818   0.14955185
3632.00   0.27597123   0.14749965
3634.00   0.28790757   0.14471538
3636.00   0.68142128   0.14537650
3638.00   0.24450864   0.14011316
3640.00   0.51414949   0.14532483
3642.00   0.42066956   0.15534118
3644.00   0.37858456   0.15721555
3646.00   0.00230290   0.16909695
3648.00   1.00363004   0.23854125
3650.00   0.89569849   0.27469650
3652.00   0.81504411   0.24599941
3654.00   0.57949442   0.21397951
3656.00   0.23141845   0.19207817
3658.00   0.11155531   0.14743581
3660.00   0.07017665   0.15623099
3662.00   0.84446800   0.18710819
3664.00   0.19274102   0.17415234
3666.00   0.56370199   0.13603105
3668.00   0.51287240   0.12089837
3670.00   0.07997067   0.11385106
3672.00   0.29515573   0.11147243
3674.00   0.36121336   0.11033060
3676.00   0.45953217   0.10828234
3678.00   0.36944234   0.10529363
3680.00   0.22791426   0.10254325
3682.00   0.29645431   0.10194884
3684.00   0.43780822   0.10296610
3686.00   0.22035716   0.09946655
3688.00   0.16855781   0.10076333
3690.00   0.23520769   0.10215150
3692.00   -0.02183075   0.10243568
3694.00   0.56060106   0.10375096
3696.00   0.33354264   0.10114866
3698.00   0.12803780   0.10569876
3700.00   0.54026574   0.10701188
3702.00   0.52273333   0.10820819
3704.00   0.44649491   0.10581895
3706.00   0.01202240   0.10150728
3708.00   0.16015421   0.09959208
3710.00   0.31569004   0.09915518
3712.00   0.39365944   0.10030019
3714.00   0.46191871   0.09932912
3716.00   0.39999416   0.09689117
3718.00   0.13728520   0.09779442
3720.00   0.45065963   0.09896174
3722.00   0.06565442   0.09543755
3724.00   0.33364940   0.09333329
3726.00   0.26782796   0.09426049
3728.00   0.39647380   0.09918799
3730.00   0.15330334   0.09783714
3732.00   0.13521490   0.09932169
3734.00   0.15891518   0.09834126
3736.00   0.48858911   0.10023036
3738.00   0.39596471   0.10159907
3740.00   0.13216050   0.10045534
3742.00   0.14537703   0.09738202
3744.00   0.29791075   0.09533124
3746.00   0.45777154   0.09322233
3748.00   0.18736440   0.09059256
3750.00   0.52765948   0.09184283
3752.00   0.37813985   0.09071347
3754.00   0.35794947   0.08932534
3756.00   0.35709316   0.08784977
3758.00   0.17481276   0.08507949
3760.00   0.44379196   0.08731238
3762.00   0.50751781   0.08446591
3764.00   0.30364624   0.08196574
3766.00   0.32260737   0.08164949
3768.00   0.21867329   0.07990190
3770.00   0.19180579   0.08345784
3772.00   0.32940558   0.08311678
3774.00   0.25750518   0.08241808
3776.00   0.47975537   0.08433042
3778.00   0.46625549   0.08081096
3780.00   0.43693155   0.08183192
3782.00   0.26706272   0.08051024
3784.00   0.34498945   0.08112635
3786.00   0.24940279   0.07782072
3788.00   0.37481683   0.08020721
3790.00   0.14729041   0.08170360
3792.00   0.40562266   0.08274294
3794.00   0.46748039   0.08078422
3796.00   0.43595102   0.07763463
3798.00   0.34340099   0.07649487
3800.00   0.21146624   0.07605053
3802.00   0.12190348   0.07758206
3804.00   0.41120872   0.07874038
3806.00   0.38007155   0.07422388
3808.00   0.28263479   0.07274683
3810.00   0.36073226   0.07540968
3812.00   0.33476040   0.07643566
3814.00   0.23829478   0.07599608
3816.00   0.26793116   0.07580203
3818.00   0.46235016   0.07663604
3820.00   0.29956961   0.07649206
3822.00   0.25496161   0.07522788
3824.00   0.27367380   0.07427645
3826.00   0.32232499   0.07871821
3828.00   0.28933424   0.08319016
3830.00   0.32726753   0.08493575
3832.00   0.25569344   0.08315227
3834.00   0.38916647   0.08014789
3836.00   0.34639460   0.08008675
3838.00   0.37156722   0.07997894
3840.00   0.41240519   0.08008982
3842.00   0.37047720   0.07861880
3844.00   0.45678455   0.07710111
3846.00   0.36638507   0.07469513
3848.00   0.47053918   0.07669637
3850.00   0.79676396   0.07948606
3852.00   1.04957259   0.08295874
3854.00   1.02632523   0.07945252
3856.00   0.60829824   0.07218936
3858.00   0.23060168   0.06719620
3860.00   0.22694579   0.06821132
3862.00   0.37552738   0.07178964
3864.00   0.35489246   0.07082121
3866.00   0.37443465   0.06790727
3868.00   0.20989968   0.06737821
3870.00   0.29073748   0.06680336
3872.00   0.31327027   0.07058423
3874.00   0.30666566   0.07388744
3876.00   0.45059904   0.07208087
3878.00   0.45806080   0.06798548
3880.00   0.30058530   0.06599405
3882.00   0.41473389   0.06488186
3884.00   0.35993510   0.06418815
3886.00   0.39486083   0.06445066
3888.00   0.30333766   0.06454010
3890.00   0.36541051   0.06355272
3892.00   0.39081573   0.06358343
3894.00   0.33302143   0.06711610
3896.00   0.27121669   0.06587850
3898.00   0.34508422   0.06557500
3900.00   0.11701804   0.06677884
3902.00   0.27789250   0.06937307
3904.00   0.31788936   0.07707789
3906.00   0.56379986   0.09171589
3908.00   0.42444536   0.09759089
3910.00   0.50247914   0.09877107
3912.00   0.45729646   0.09793484
3914.00   0.34219369   0.08795122
3916.00   0.30375874   0.07883036
3918.00   0.27663127   0.07311016
3920.00   0.52025509   0.07053925
3922.00   0.42022690   0.06756246
3924.00   0.20065749   0.06547818
3926.00   0.11758818   0.06396066
3928.00   0.26482454   0.06345926
3930.00   0.32121670   0.06693410
3932.00   0.43208534   0.07366110
3934.00   0.37194887   0.07306204
3936.00   0.40209445   0.06503459
3938.00   0.24459864   0.06378586
3940.00   0.45902866   0.06734692
3942.00   0.32234409   0.07286178
3944.00   0.30297878   0.07574555
3946.00   0.18544856   0.07029073
3948.00   0.32183316   0.06650612
3950.00   0.35032165   0.06521104
3952.00   0.39420348   0.06371102
3954.00   0.39363709   0.06283603
3956.00   0.39110774   0.06233589
3958.00   0.29812089   0.06442370
3960.00   0.43038681   0.07210761
3962.00   0.30600736   0.07089539
3964.00   0.21619418   0.06241330
3966.00   0.35017937   0.05916180
3968.00   0.38718855   0.05895493
3970.00   0.39641485   0.05964564
3972.00   0.43192959   0.06230786
3974.00   0.24348821   0.06116374
3976.00   0.41496658   0.06158591
3978.00   0.45859694   0.06057636
3980.00   0.44614950   0.06074529
3982.00   0.50782627   0.05999059
3984.00   0.32441139   0.05916063
3986.00   0.43725139   0.05938519
3988.00   0.56037694   0.06114072
3990.00   0.30278304   0.06059003
3992.00   0.38332966   0.05970676
3994.00   0.46708414   0.06572615
3996.00   0.42858484   0.06978829
3998.00   0.50609797   0.06887314
4000.00   0.49704152   0.06242683
4002.00   0.36150309   0.05981905
4004.00   0.39015707   0.05944134
4006.00   0.46158850   0.06140777
4008.00   0.34788269   0.06234587
4010.00   0.40338627   0.06418975
4012.00   0.27628478   0.06296796
4014.00   0.25975168   0.06103152
4016.00   0.38759500   0.06409089
4018.00   0.38597631   0.07599960
4020.00   0.47284582   0.08667706
4022.00   0.25563794   0.08947120
4024.00   0.31351870   0.08589245
4026.00   0.43594447   0.07699044
4028.00   0.35987711   0.07082598
4030.00   0.38521406   0.07077676
4032.00   0.43282905   0.06870999
4034.00   0.25380510   0.06540956
4036.00   0.39440268   0.06516921
4038.00   0.42723584   0.06483360
4040.00   0.36335656   0.06504693
4042.00   0.21872599   0.07697951
4044.00   0.24275444   0.14443830
4046.00   0.34543747   0.17925124
4048.00   0.81268716   0.15337615
4050.00   0.20481801   0.09392370
4052.00   0.46038333   0.07530059
4054.00   0.60391283   0.07614653
4056.00   0.29945663   0.07129968
4058.00   0.39353427   0.06532948
4060.00   0.34906965   0.06170627
4062.00   0.43069553   0.06152818
4064.00   0.36111793   0.06143451
4066.00   0.43040797   0.06152335
4068.00   0.27150828   0.05969577
4070.00   0.46268585   0.05934173
4072.00   0.45527366   0.05783276
4074.00   0.44478318   0.06441934
4076.00   0.43851018   0.07973474
4078.00   0.70959753   0.08483493
4080.00   0.33343336   0.07623350
4082.00   0.31392878   0.07093865
4084.00   0.54923898   0.07057211
4086.00   0.51744574   0.06782191
4088.00   0.44272584   0.06267481
4090.00   0.28661522   0.05579897
4092.00   0.45267686   0.05537859
4094.00   0.31212544   0.05476014
4096.00   0.18312515   0.05410827
4098.00   0.39139411   0.05494465
4100.00   0.43185616   0.05508682
4102.00   0.28032330   0.05223643
4104.00   0.42403907   0.05202511
4106.00   0.40393898   0.05237335
4108.00   0.43848839   0.05286457
4110.00   0.53333926   0.05387931
4112.00   0.42590460   0.05316649
4114.00   0.41903698   0.05407692
4116.00   0.53007090   0.05401405
4118.00   0.50385368   0.05312925
4120.00   0.38330543   0.05109100
4122.00   0.50246811   0.05200337
4124.00   0.45106238   0.05336732
4126.00   0.49459627   0.05379174
4128.00   0.41989896   0.05408785
4130.00   0.26014048   0.05659738
4132.00   0.59311861   0.06081049
4134.00   0.41307530   0.05936017
4136.00   0.50811815   0.05618370
4138.00   0.44169790   0.05823500
4140.00   0.45893088   0.06010562
4142.00   0.53774822   0.05719081
4144.00   0.52816558   0.05280475
4146.00   0.47944951   0.05278154
4148.00   0.50636905   0.05360662
4150.00   0.47857609   0.05836012
4152.00   0.53617990   0.06247822
4154.00   0.37368608   0.05902774
4156.00   0.53702199   0.05575507
4158.00   0.33205378   0.05396949
4160.00   0.32709181   0.05441804
4162.00   0.41606691   0.05981984
4164.00   0.55530089   0.06528614
4166.00   0.35027441   0.06411047
4168.00   0.46595755   0.05811210
4170.00   0.45119026   0.05468899
4172.00   0.53801543   0.05367279
4174.00   0.49714234   0.05231394
4176.00   0.54576272   0.05340839
4178.00   0.51765853   0.05380376
4180.00   0.39557347   0.05259025
4182.00   0.46162269   0.05126051
4184.00   0.45521855   0.05049631
4186.00   0.43328461   0.05073979
4188.00   0.50867021   0.05103259
4190.00   0.45522627   0.05043873
4192.00   0.50038874   0.05128749
4194.00   0.39984098   0.05084542
4196.00   0.50038797   0.04996674
4198.00   0.47479460   0.04855696
4200.00   0.50773573   0.04935709
4202.00   0.43150496   0.04887632
4204.00   0.44641027   0.04977527
4206.00   0.40393081   0.05084182
4208.00   0.39912835   0.05180560
4210.00   0.44037354   0.05305550
4212.00   0.40761316   0.05238314
4214.00   0.45173225   0.05133225
4216.00   0.34274900   0.05089602
4218.00   0.44095024   0.05104749
4220.00   0.48203731   0.05127676
4222.00   0.40705314   0.05038987
4224.00   0.36275721   0.05050047
4226.00   0.43006912   0.05046414
4228.00   0.47124705   0.05084722
4230.00   0.44636482   0.05204136
4232.00   0.40885785   0.05331765
4234.00   0.21903074   0.05258995
4236.00   0.41436231   0.05505981
4238.00   0.53072757   0.05575850
4240.00   0.36945683   0.05259173
4242.00   0.38183975   0.05132029
4244.00   0.37209448   0.06096265
4246.00   0.42376417   0.06840182
4248.00   0.28276595   0.06468420
4250.00   0.40872541   0.05606494
4252.00   0.57011819   0.05308117
4254.00   0.40100268   0.05246580
4256.00   0.56732506   0.05439747
4258.00   0.46851468   0.05437737
4260.00   0.38363141   0.05217176
4262.00   0.41410068   0.05193257
4264.00   0.47991481   0.05078834
4266.00   0.53314441   0.05085726
4268.00   0.42190239   0.05045481
4270.00   0.30708158   0.05055875
4272.00   0.41731834   0.05143102
4274.00   0.32474294   0.05138443
4276.00   0.36011007   0.05152290
4278.00   0.37939841   0.05215530
4280.00   0.54194254   0.05322511
4282.00   0.39192104   0.05295705
4284.00   0.36465693   0.05277348
4286.00   0.40320748   0.05205420
4288.00   0.40246242   0.05123346
4290.00   0.39560908   0.05163582
4292.00   0.39697614   0.05198495
4294.00   0.36503547   0.05166893
4296.00   0.41406250   0.05189350
4298.00   0.46235126   0.05158171
4300.00   0.37201867   0.05070978
4302.00   0.53214961   0.05117607
4304.00   0.47349295   0.05179641
4306.00   0.45555007   0.05264600
4308.00   0.42585459   0.05256028
4310.00   0.35186324   0.05433657
4312.00   0.43398511   0.06086114
4314.00   0.51543808   0.06318881
4316.00   0.44160315   0.05841662
4318.00   0.36077929   0.05882357
4320.00   0.54636174   0.06044989
4322.00   0.49315727   0.06000338
4324.00   0.57434887   0.05887107
4326.00   0.31811222   0.05952523
4328.00   0.26389712   0.05592245
4330.00   0.43672255   0.05251779
4332.00   0.46627694   0.05240799
4334.00   0.46875045   0.05288245
4336.00   0.34446502   0.05396117
4338.00   0.37829217   0.05562440
4340.00   0.45149612   0.05662293
4342.00   0.49192491   0.05629999
4344.00   0.44915381   0.05962997
4346.00   0.42319548   0.06298412
4348.00   0.45075211   0.06357556
4350.00   0.32051080   0.06020529
4352.00   0.42534983   0.06004626
4354.00   0.10146628   0.08812907
4356.00   0.47623584   0.15328480
4358.00   0.81196922   0.17736086
4360.00   0.58406311   0.14580938
4362.00   0.46352571   0.09925938
4364.00   0.57455713   0.07087971
4366.00   0.40997797   0.06355978
4368.00   0.44749874   0.06109792
4370.00   0.40598798   0.06077109
4372.00   0.55206007   0.06400724
4374.00   0.22030458   0.06460563
4376.00   0.37452668   0.06222568
4378.00   0.29509723   0.05858411
4380.00   0.45073488   0.05755980
4382.00   0.48669633   0.05701880
4384.00   0.60216373   0.05674410
4386.00   0.50931579   0.05592271
4388.00   0.54271203   0.05620167
4390.00   0.57752085   0.05711823
4392.00   0.57478350   0.05676503
4394.00   0.35578367   0.05569053
4396.00   0.37425652   0.05572424
4398.00   0.34107301   0.05806706
4400.00   0.37524936   0.06015424
4402.00   0.55063581   0.05969450
4404.00   0.43505961   0.05745410
4406.00   0.45435533   0.05707391
4408.00   0.48281285   0.05679216
4410.00   0.59518129   0.05760881
4412.00   0.54797125   0.05875930
4414.00   0.61034107   0.06038848
4416.00   0.54076928   0.05990913
4418.00   0.35210106   0.05812098
4420.00   0.42072073   0.05713836
4422.00   0.60925174   0.05709299
4424.00   0.57068312   0.05698385
4426.00   0.34010199   0.05611164
4428.00   0.50175655   0.05623910
4430.00   0.44982839   0.05597744
4432.00   0.37884882   0.05616793
4434.00   0.31750649   0.05526987
4436.00   0.39955500   0.05543714
4438.00   0.50277042   0.05580919
4440.00   0.41074738   0.05558840
4442.00   0.36888731   0.05465193
4444.00   0.27838352   0.05471188
4446.00   0.38666958   0.05504875
4448.00   0.41016498   0.05471989
4450.00   0.34800535   0.05420694
4452.00   0.27299443   0.05372229
4454.00   0.35592040   0.05385401
4456.00   0.48645326   0.05427825
4458.00   0.38830760   0.05419629
4460.00   0.47591287   0.05405928
4462.00   0.36729845   0.05383742
4464.00   0.41565624   0.05346335
4466.00   0.27901572   0.05286717
4468.00   0.40271974   0.05271775
4470.00   0.37561372   0.05214301
4472.00   0.31183636   0.05222783
4474.00   0.44631720   0.05266188
4476.00   0.41442618   0.05262856
4478.00   0.37848270   0.05193882
4480.00   0.47805756   0.05208854
4482.00   0.39697608   0.05223192
4484.00   0.54834914   0.05320649
4486.00   0.61206663   0.05331304
4488.00   0.50946325   0.05275621
4490.00   0.50279748   0.05283097
4492.00   0.32810265   0.05291861
4494.00   0.36187688   0.05292718
4496.00   0.34141257   0.05307261
4498.00   0.33924383   0.05263533
4500.00   0.39775923   0.05305843
4502.00   0.26303589   0.05186889
4504.00   0.37985721   0.05169726
4506.00   0.34382564   0.05118121
4508.00   0.39425370   0.05084465
4510.00   0.36726931   0.05057996
4512.00   0.32451779   0.04982918
4514.00   0.25685415   0.04998040
4516.00   0.51917094   0.05009871
4518.00   0.41522127   0.04938823
4520.00   0.50629395   0.04986529
4522.00   0.38294151   0.04925250
4524.00   0.37684190   0.04869679
4526.00   0.36454216   0.04881689
4528.00   0.54627562   0.04920638
4530.00   0.44249091   0.04913516
4532.00   0.42716384   0.04887404
4534.00   0.29474518   0.04854005
4536.00   0.30183595   0.04818511
4538.00   0.48527509   0.04834589
4540.00   0.38937631   0.04857262
4542.00   0.39048091   0.04930896
4544.00   0.32647064   0.04928828
4546.00   0.25266424   0.04865169
4548.00   0.35002041   0.04791127
4550.00   0.34909090   0.04691656
4552.00   0.42674112   0.04684826
4554.00   0.45738062   0.04741403
4556.00   0.33974600   0.04735714
4558.00   0.28655517   0.04673400
4560.00   0.39438397   0.04666846
4562.00   0.43547884   0.04596686
4564.00   0.41247621   0.04558524
4566.00   0.33319995   0.04529697
4568.00   0.48306730   0.04543828
4570.00   0.46583518   0.04540375
4572.00   0.35089529   0.04552206
4574.00   0.49023530   0.04613020
4576.00   0.53236693   0.04551516
4578.00   0.36668837   0.04449541
4580.00   0.38450661   0.04387254
4582.00   0.39105943   0.04315877
4584.00   0.34189802   0.04275508
4586.00   0.43493262   0.04297891
4588.00   0.56389534   0.04342762
4590.00   0.37609190   0.04282093
4592.00   0.43853492   0.04339903
4594.00   0.41338003   0.04313191
4596.00   0.40649256   0.04308915
4598.00   0.46342400   0.04276285
4600.00   0.42703065   0.04183492
4602.00   0.39154893   0.04158543
4604.00   0.45127392   0.04144264
4606.00   0.37375441   0.04172322
4608.00   0.42526668   0.04222091
4610.00   0.43145701   0.04188133
4612.00   0.43508953   0.04166244
4614.00   0.50784719   0.04113934
4616.00   0.41327202   0.04021668
4618.00   0.41644633   0.04036172
4620.00   0.40657216   0.04013806
4622.00   0.32892632   0.03994210
4624.00   0.40118131   0.03997998
4626.00   0.41688618   0.04003157
4628.00   0.40208134   0.03988856
4630.00   0.50108844   0.04026987
4632.00   0.50590330   0.04012027
4634.00   0.36578086   0.03948029
4636.00   0.40878502   0.03938637
4638.00   0.50405669   0.03979422
4640.00   0.40671724   0.03975344
4642.00   0.34091732   0.03914423
4644.00   0.37258023   0.03888430
4646.00   0.46183991   0.03948637
4648.00   0.41144156   0.03950079
4650.00   0.42314455   0.03977861
4652.00   0.49448243   0.04057370
4654.00   0.47248435   0.04073836
4656.00   0.41502991   0.04154415
4658.00   0.37542808   0.04208699
4660.00   0.45127642   0.04300226
4662.00   0.38084635   0.04409633
4664.00   0.46605051   0.04566858
4666.00   0.45564666   0.04692002
4668.00   0.42912257   0.04783344
4670.00   0.33978429   0.04807693
4672.00   0.44914198   0.04711996
4674.00   0.53208369   0.04622636
4676.00   0.47309014   0.04456943
4678.00   0.49180275   0.04375513
4680.00   0.43401629   0.04258138
4682.00   0.42363814   0.04160662
4684.00   0.45426089   0.04103629
4686.00   0.49677408   0.04062084
4688.00   0.47901437   0.04015579
4690.00   0.44568712   0.03982493
4692.00   0.55278122   0.04004904
4694.00   0.44649094   0.03910601
4696.00   0.49241170   0.03857017
4698.00   0.53552985   0.03843595
4700.00   0.44932839   0.03795671
4702.00   0.40928251   0.03798915
4704.00   0.45864013   0.03908782
4706.00   0.46298632   0.03932564
4708.00   0.52881581   0.04028518
4710.00   0.43361184   0.03995875
4712.00   0.47929135   0.03946107
4714.00   0.48232251   0.03896722
4716.00   0.42115805   0.03836587
4718.00   0.43957457   0.03748083
4720.00   0.54130936   0.03776489
4722.00   0.57563341   0.03796965
4724.00   0.49725714   0.03775085
4726.00   0.45686281   0.04087699
4728.00   0.52612013   0.04315217
4730.00   0.49791923   0.04390699
4732.00   0.45099691   0.04402615
4734.00   0.37771919   0.04524380
4736.00   0.46985134   0.04628388
4738.00   0.43970251   0.04824003
4740.00   0.59872931   0.05006715
4742.00   0.56272715   0.05106516
4744.00   0.59298164   0.04860980
4746.00   0.41686282   0.04325468
4748.00   0.50739247   0.04062400
4750.00   0.44351554   0.03996299
4752.00   0.42665309   0.04034692
4754.00   0.51118821   0.04005397
4756.00   0.51497364   0.03784548
4758.00   0.49664336   0.03598395
4760.00   0.51198173   0.03503240
4762.00   0.53658712   0.03494973
4764.00   0.60534918   0.03477405
4766.00   0.55967087   0.03521743
4768.00   0.50740707   0.03371350
4770.00   0.50851709   0.03313709
4772.00   0.54950267   0.03302911
4774.00   0.51850897   0.03352589
4776.00   0.54148740   0.03543970
4778.00   0.50382626   0.03690501
4780.00   0.49705189   0.03629573
4782.00   0.54835540   0.03525563
4784.00   0.53598601   0.03434137
4786.00   0.38680232   0.03294114
4788.00   0.43198115   0.03348617
4790.00   0.50703955   0.03424296
4792.00   0.55051386   0.03421876
4794.00   0.54910702   0.03380484
4796.00   0.46733361   0.03276138
4798.00   0.54117829   0.03303470
4800.00   0.51828325   0.03290636
4802.00   0.44523376   0.03246186
4804.00   0.41484314   0.03268255
4806.00   0.47321549   0.03312123
4808.00   0.48454803   0.03356510
4810.00   0.48484355   0.03341803
4812.00   0.38508952   0.03297210
4814.00   0.45069602   0.03366962
4816.00   0.45205918   0.03381461
4818.00   0.43832654   0.03412507
4820.00   0.53815836   0.03519849
4822.00   0.41469765   0.03526028
4824.00   0.39155543   0.03583282
4826.00   0.43017733   0.03580215
4828.00   0.46405640   0.03587469
4830.00   0.50028390   0.03670477
4832.00   0.41897437   0.03647264
4834.00   0.53970420   0.03689258
4836.00   0.49932140   0.03737093
4838.00   0.41594064   0.03802801
4840.00   0.41374516   0.03836669
4842.00   0.44274917   0.03753837
4844.00   0.44008613   0.03681115
4846.00   0.41436714   0.03664197
4848.00   0.39679453   0.03694579
4850.00   0.38462704   0.03710320
4852.00   0.44767630   0.03737932
4854.00   0.43774244   0.03670606
4856.00   0.38621864   0.03580966
4858.00   0.35566714   0.03557285
4860.00   0.40271953   0.03622704
4862.00   0.53075314   0.03707216
4864.00   0.45436877   0.03703592
4866.00   0.43082380   0.03679871
4868.00   0.33247524   0.03625107
4870.00   0.43192977   0.03642160
4872.00   0.37754199   0.03642575
4874.00   0.46041718   0.03698253
4876.00   0.46100700   0.03739091
4878.00   0.38175425   0.03761246
4880.00   0.35725376   0.03690536
4882.00   0.33992097   0.03667501
4884.00   0.34061015   0.03610463
4886.00   0.44446516   0.03565426
4888.00   0.47099489   0.03582353
4890.00   0.46200770   0.03636241
4892.00   0.37830874   0.03610935
4894.00   0.40254655   0.03612594
4896.00   0.41157287   0.03574031
4898.00   0.36635774   0.03523226
4900.00   0.51083648   0.03554156
4902.00   0.32545078   0.03470666
4904.00   0.45584774   0.03535512
4906.00   0.38470960   0.03551144
4908.00   0.40387076   0.03625830
4910.00   0.33537489   0.03582694
4912.00   0.37761801   0.03599754
4914.00   0.46522492   0.03641470
4916.00   0.42162687   0.03619697
4918.00   0.33303511   0.03554140
4920.00   0.46565917   0.03599846
4922.00   0.38348487   0.03548082
4924.00   0.40070841   0.03463032
4926.00   0.33768743   0.03392748
4928.00   0.35723481   0.03379114
4930.00   0.44724378   0.03405398
4932.00   0.47974938   0.03422238
4934.00   0.43492612   0.03416504
4936.00   0.40945914   0.03466326
4938.00   0.41944909   0.03476135
4940.00   0.45216849   0.03516240
4942.00   0.42136225   0.03462503
4944.00   0.36611682   0.03412267
4946.00   0.36857045   0.03364734
4948.00   0.47926039   0.03392608
4950.00   0.30525258   0.03428581
4952.00   0.36137033   0.03581079
4954.00   0.48797980   0.03624311
4956.00   0.51198435   0.03559360
4958.00   0.40714633   0.03499585
4960.00   0.51164126   0.03534463
4962.00   0.40778863   0.03510234
4964.00   0.37049672   0.03563951
4966.00   0.46353042   0.03671987
4968.00   0.49283600   0.03712925
4970.00   0.39670253   0.03881405
4972.00   0.43432346   0.04107774
4974.00   0.44652951   0.04308680
4976.00   0.45768294   0.04591678
4978.00   0.42477703   0.04950137
4980.00   0.34710696   0.05260048
4982.00   0.47506529   0.05440798
4984.00   0.49437895   0.05385750
4986.00   0.38173464   0.05166711
4988.00   0.40956506   0.04905084
4990.00   0.43119833   0.04666979
4992.00   0.33697781   0.04418780
4994.00   0.41644958   0.04154630
4996.00   0.51126343   0.03994945
4998.00   0.45798293   0.03773113
5000.00   0.36752540   0.03649229
5002.00   0.36348945   0.03545257
5004.00   0.39309767   0.03475777
5006.00   0.31778806   0.03379468
5008.00   0.40261620   0.03380266
5010.00   0.41987854   0.03325426
5012.00   0.37084973   0.03294516
5014.00   0.34903085   0.03290942
5016.00   0.41456908   0.03362141
5018.00   0.45653009   0.03447876
5020.00   0.40645269   0.03483764
5022.00   0.51551080   0.03483668
5024.00   0.57092470   0.03437532
5026.00   0.55684036   0.03382433
5028.00   0.45549738   0.03370016
5030.00   0.36642459   0.03384921
5032.00   0.34141123   0.03318367
5034.00   0.31810388   0.03224713
5036.00   0.37244853   0.03196538
5038.00   0.31174308   0.03136810
5040.00   0.40265697   0.03141151
5042.00   0.42404336   0.03195237
5044.00   0.40441209   0.03227749
5046.00   0.36071146   0.03181624
5048.00   0.37645513   0.03167560
5050.00   0.31201181   0.03151765
5052.00   0.38161209   0.03163027
5054.00   0.40778956   0.03155733
5056.00   0.43033880   0.03158956
5058.00   0.39825079   0.03168098
5060.00   0.48217252   0.03282886
5062.00   0.47873709   0.03417856
5064.00   0.50028610   0.03550870
5066.00   0.43071249   0.03660735
5068.00   0.51509285   0.03839577
5070.00   0.43273893   0.03784690
5072.00   0.50484395   0.03707267
5074.00   0.47959968   0.03632382
5076.00   0.46092892   0.03538033
5078.00   0.48216248   0.03826540
5080.00   0.46159002   0.04319346
5082.00   0.49199736   0.04833989
5084.00   0.45878595   0.05090684
5086.00   0.43475604   0.05081392
5088.00   0.46559286   0.04684693
5090.00   0.39451873   0.04189147
5092.00   0.44993335   0.03816870
5094.00   0.44710505   0.03665107
5096.00   0.54061538   0.03839196
5098.00   0.49368659   0.03958414
5100.00   0.35341626   0.03886848
5102.00   0.35968882   0.03673297
5104.00   0.44951138   0.03520995
5106.00   0.60912716   0.03468833
5108.00   0.49814668   0.03390775
5110.00   0.40331933   0.03349484
5112.00   0.43236005   0.03389592
5114.00   0.41688040   0.03463269
5116.00   0.33704087   0.03435525
5118.00   0.40343973   0.03378884
5120.00   0.40827081   0.03310059
5122.00   0.48344731   0.03288464
5124.00   0.44570792   0.03250973
5126.00   0.44004527   0.03240710
5128.00   0.43939203   0.03218999
5130.00   0.37731680   0.03238618
5132.00   0.39458123   0.03252046
5134.00   0.44595554   0.03263722
5136.00   0.37752217   0.03271047
5138.00   0.45956099   0.03318339
5140.00   0.39928505   0.03297507
5142.00   0.45225745   0.03327803
5144.00   0.46564209   0.03372518
5146.00   0.39313310   0.03506538
5148.00   0.32096750   0.03621108
5150.00   0.41971308   0.03864651
5152.00   0.39505255   0.04033498
5154.00   0.36809394   0.04067754
5156.00   0.37254131   0.03927089
5158.00   0.47900793   0.03787325
5160.00   0.49369985   0.03656023
5162.00   0.43928641   0.03520988
5164.00   0.46760508   0.03401078
5166.00   0.40329868   0.03323437
5168.00   0.38362256   0.03281165
5170.00   0.44800082   0.03330768
5172.00   0.46665269   0.03398473
5174.00   0.56447476   0.03448781
5176.00   0.50612831   0.03436902
5178.00   0.44493404   0.03397544
5180.00   0.43478826   0.03348000
5182.00   0.40223023   0.03327303
5184.00   0.40545952   0.03311818
5186.00   0.46610820   0.03375091
5188.00   0.40979603   0.03379814
5190.00   0.44698399   0.03384916
5192.00   0.41196215   0.03406529
5194.00   0.36979926   0.03406170
5196.00   0.35615754   0.03450086
5198.00   0.37015408   0.03495720
5200.00   0.43216112   0.03527162
5202.00   0.36266842   0.03478761
5204.00   0.36882874   0.03434527
5206.00   0.32320660   0.03429669
5208.00   0.29641506   0.03552002
5210.00   0.50298840   0.03681313
5212.00   0.39548311   0.03597063
5214.00   0.28638557   0.03511812
5216.00   0.49201974   0.03606445
5218.00   0.39837512   0.03639957
5220.00   0.42198810   0.03656392
5222.00   0.38310367   0.03566141
5224.00   0.40349868   0.03555081
5226.00   0.39495781   0.03491575
5228.00   0.37398010   0.03493240
5230.00   0.36340833   0.03488791
5232.00   0.39687189   0.03511303
5234.00   0.31094924   0.03443784
5236.00   0.37574893   0.03542287
5238.00   0.43009949   0.03594973
5240.00   0.44154871   0.03588028
5242.00   0.43529451   0.03519429
5244.00   0.36703965   0.03482725
5246.00   0.43665281   0.03513400
5248.00   0.40879422   0.03477916
5250.00   0.38397151   0.03477945
5252.00   0.41252276   0.03513704
5254.00   0.37670034   0.03601734
5256.00   0.41360161   0.03735005
5258.00   0.44096723   0.03780852
5260.00   0.40480140   0.03721762
5262.00   0.44371372   0.03669824
5264.00   0.33324343   0.03572797
5266.00   0.39722604   0.03548232
5268.00   0.37995088   0.03533202
5270.00   0.32025087   0.03529760
5272.00   0.41758794   0.03558912
5274.00   0.39090890   0.03614086
5276.00   0.47315434   0.03639308
5278.00   0.35704255   0.03600456
5280.00   0.35390395   0.03577492
5282.00   0.31524351   0.03613255
5284.00   0.40484673   0.03761869
5286.00   0.34209019   0.03761395
5288.00   0.46116608   0.03738267
5290.00   0.41227823   0.03690739
5292.00   0.34500924   0.03662241
5294.00   0.44633955   0.03719421
5296.00   0.43109685   0.03698755
5298.00   0.34047431   0.03698529
5300.00   0.41537669   0.03754853
5302.00   0.42872608   0.03765798
5304.00   0.38399893   0.03739756
5306.00   0.44594109   0.03775891
5308.00   0.34121186   0.03759328
5310.00   0.36704770   0.03810707
5312.00   0.34981507   0.03810700
5314.00   0.41907132   0.03810289
5316.00   0.43402570   0.03807564
5318.00   0.46516714   0.03821969
5320.00   0.31150386   0.03774154
5322.00   0.34340912   0.03810966
5324.00   0.44081083   0.03859513
5326.00   0.46118307   0.03873853
5328.00   0.32402813   0.03882728
5330.00   0.41046688   0.03960289
5332.00   0.35326490   0.03948239
5334.00   0.32062441   0.03907855
5336.00   0.46814618   0.04014896
5338.00   0.39105862   0.04087135
5340.00   0.36647943   0.04141373
5342.00   0.28683406   0.04108061
5344.00   0.34987974   0.04119238
5346.00   0.40469563   0.04292056
5348.00   0.37507159   0.04425548
5350.00   0.40609145   0.04445427
5352.00   0.34127393   0.04483204
5354.00   0.47733858   0.04609834
5356.00   0.41380271   0.04573315
5358.00   0.50312036   0.04423571
5360.00   0.45011854   0.04288066
5362.00   0.31428134   0.04174896
5364.00   0.49364874   0.04175230
5366.00   0.34920609   0.04184156
5368.00   0.30828670   0.04024360
5370.00   0.36382815   0.04080676
5372.00   0.42068064   0.04244420
5374.00   0.36414212   0.04342805
5376.00   0.41449618   0.04360876
5378.00   0.33580792   0.04301833
5380.00   0.36671904   0.04301882
5382.00   0.50116730   0.04296854
5384.00   0.38751051   0.04303278
5386.00   0.45357928   0.04337506
5388.00   0.47104806   0.04435135
5390.00   0.40249154   0.04558954
5392.00   0.39127076   0.04625954
5394.00   0.39783084   0.04560402
5396.00   0.51510090   0.04644267
5398.00   0.44567722   0.04645970
5400.00   0.51078272   0.04702269
5402.00   0.45402217   0.02451577
5404.00   0.40896219   0.02485305
5406.00   0.38435835   0.02495880
5408.00   0.34839898   0.02433874
5410.00   0.34131771   0.02445735
5412.00   0.38120949   0.02588962
5414.00   0.43888152   0.02758156
5416.00   0.47014034   0.02817111
5418.00   0.49813750   0.02798165
5420.00   0.49598616   0.02847250
5422.00   0.44077963   0.02961052
5424.00   0.42591104   0.03007962
5426.00   0.46889371   0.02973412
5428.00   0.51832080   0.02913561
5430.00   0.52261204   0.02881972
5432.00   0.49856690   0.02859528
5434.00   0.50099862   0.02806679
5436.00   0.51171446   0.02655907
5438.00   0.53135562   0.02654395
5440.00   0.58165824   0.02859461
5442.00   0.61038435   0.03023345
5444.00   0.57017601   0.02926914
5446.00   0.48463944   0.02669362
5448.00   0.45874843   0.03045765
5450.00   0.47850981   0.03952362
5452.00   0.47055644   0.04372726
5454.00   0.45366293   0.04571691
5456.00   0.42569467   0.04745736
5458.00   0.38908765   0.04992376
5460.00   0.34011140   0.05218140
5462.00   0.25759721   0.05206505
5464.00   0.08176110   0.05041585
5466.00   0.05497928   0.04708103
5468.00   0.14589511   0.03945215
5470.00   0.23967674   0.03258773
5472.00   0.33205879   0.02891111
5474.00   0.42082578   0.02723571
5476.00   0.46118563   0.02579414
5478.00   0.45548946   0.02593694
5480.00   0.47880420   0.02577855
5482.00   0.51836413   0.02626492
5484.00   0.54257953   0.02636174
5486.00   0.55063385   0.02595188
5488.00   0.54848754   0.02541640
5490.00   0.53569603   0.02503566
5492.00   0.50674772   0.02458949
5494.00   0.50889945   0.02489906
5496.00   0.54294050   0.02636116
5498.00   0.55815029   0.02681416
5500.00   0.56927025   0.02656453
5502.00   0.56052303   0.02578480
5504.00   0.50478673   0.02409364
5506.00   0.41386330   0.02140520
5508.00   0.40348682   0.02109910
5510.00   0.46681687   0.02339485
5512.00   0.49574608   0.02407227
5514.00   0.51508600   0.02401328
5516.00   0.52755123   0.02372598
5518.00   0.53301585   0.02321253
5520.00   0.53164530   0.02252981
5522.00   0.52421808   0.02248426
5524.00   0.50674945   0.02321034
5526.00   0.49226546   0.02321409
5528.00   0.47270039   0.02276075
5530.00   0.45974007   0.02234649
5532.00   0.45708719   0.02213177
5534.00   0.45958278   0.02190406
5536.00   0.45988116   0.02133201
5538.00   0.45909294   0.02029200
5540.00   0.46568069   0.01986245
5542.00   0.46970540   0.01954128
5544.00   0.49278536   0.01990614
5546.00   0.56033325   0.02159258
5548.00   0.61719793   0.02302352
5550.00   0.58908200   0.02252175
5552.00   0.49110559   0.02045509
5554.00   0.45943820   0.01942610
5556.00   0.46146801   0.01854763
5558.00   0.46068451   0.01810692
5560.00   0.47505510   0.01760744
5562.00   0.47542202   0.01820792
5564.00   0.42620540   0.02035307
5566.00   0.34242269   0.02335533
5568.00   0.33508858   0.02807296
5570.00   0.39050096   0.03527719
5572.00   0.42912483   0.03886810
5574.00   0.47086847   0.04105924
5576.00   0.51228327   0.04192527
5578.00   0.56233305   0.04144005
5580.00   0.60979468   0.03962729
5582.00   0.59278405   0.03628099
5584.00   0.48458600   0.02839774
5586.00   0.45583442   0.02358641
5588.00   0.47402200   0.02133951
5590.00   0.48896304   0.01965328
5592.00   0.48938379   0.01825200
5594.00   0.48850626   0.01758818
5596.00   0.49751234   0.01733587
5598.00   0.51383793   0.01769405
5600.00   0.52907753   0.01853763
5602.00   0.55654395   0.02083606
5604.00   0.56469566   0.02154476
5606.00   0.53863859   0.02015993
5608.00   0.51194561   0.01812751
5610.00   0.52854323   0.01734951
5612.00   0.58039099   0.01718519
5614.00   0.58582580   0.01717848
5616.00   0.55942315   0.01760302
5618.00   0.53813219   0.01807180
5620.00   0.50772846   0.01900381
5622.00   0.48882711   0.01951726
5624.00   0.50384837   0.01875927
5626.00   0.54325444   0.01697783
5628.00   0.56038022   0.01643580
5630.00   0.56889820   0.01679151
5632.00   0.57620776   0.01689407
5634.00   0.58369064   0.01702561
5636.00   0.58347875   0.01713695
5638.00   0.56835550   0.01714870
5640.00   0.54467928   0.01713240
5642.00   0.53575784   0.01735339
5644.00   0.53579581   0.01786350
5646.00   0.53570563   0.01813159
5648.00   0.54047865   0.01831413
5650.00   0.54375029   0.01842844
5652.00   0.54451150   0.01843432
5654.00   0.54362053   0.01840180
5656.00   0.53982848   0.01848582
5658.00   0.52870965   0.01849894
5660.00   0.53214413   0.01899753
5662.00   0.55656272   0.01997673
5664.00   0.56331158   0.02083674
5666.00   0.53695256   0.02168158
5668.00   0.51178175   0.02237820
5670.00   0.53085667   0.02253874
5672.00   0.58304363   0.02202448
5674.00   0.61626261   0.02311041
5676.00   0.65413141   0.02453601
5678.00   0.67568845   0.02739958
5680.00   0.66848701   0.03261802
5682.00   0.66806889   0.03644275
5684.00   0.71227169   0.03691982
5686.00   0.78695130   0.03535842
5688.00   0.78900319   0.03402969
5690.00   0.73344445   0.03128159
5692.00   0.68523955   0.02958841
5694.00   0.61391002   0.02900720
5696.00   0.56038886   0.02833101
5698.00   0.54920328   0.02686796
5700.00   0.56292206   0.02500115
5702.00   0.56585026   0.02363109
5704.00   0.57564133   0.02250384
5706.00   0.57623661   0.02156783
5708.00   0.56683242   0.02100978
5710.00   0.56250197   0.02048754
5712.00   0.56699514   0.01989405
5714.00   0.57636809   0.01934992
5716.00   0.58800054   0.01901020
5718.00   0.60739315   0.01888898
5720.00   0.61509019   0.01872166
5722.00   0.61551756   0.01861869
5724.00   0.61321992   0.01850005
5726.00   0.61178786   0.01831781
5728.00   0.60377467   0.01817138
5730.00   0.57565457   0.01823939
5732.00   0.52392751   0.01856260
5734.00   0.51082104   0.01834860
5736.00   0.52792394   0.01720436
5738.00   0.53946400   0.01707156
5740.00   0.54946667   0.01845536
5742.00   0.55952168   0.01955223
5744.00   0.56920707   0.01903926
5746.00   0.57889885   0.01741417
5748.00   0.58528471   0.01691298
5750.00   0.58681834   0.01702712
5752.00   0.59210688   0.01712909
5754.00   0.60634112   0.01730214
5756.00   0.61166769   0.01767161
5758.00   0.59621233   0.01821192
5760.00   0.56852645   0.01893807
5762.00   0.55257922   0.02016016
5764.00   0.52407247   0.02222951
5766.00   0.53580683   0.02326740
5768.00   0.60544896   0.02389382
5770.00   0.64336455   0.02415454
5772.00   0.61546212   0.02410525
5774.00   0.56179762   0.02367565
5776.00   0.54527849   0.02257384
5778.00   0.54562938   0.01992756
5780.00   0.54579830   0.01936170
5782.00   0.54525489   0.02032982
5784.00   0.56073165   0.02152185
5786.00   0.61206228   0.02332843
5788.00   0.65945196   0.02489655
5790.00   0.64395404   0.02498626
5792.00   0.57897836   0.02396324
5794.00   0.53860635   0.02327467
5796.00   0.48570696   0.02219714
5798.00   0.46125463   0.02146230
5800.00   0.47152969   0.02111772
5802.00   0.49063548   0.02093088
5804.00   0.49992877   0.02075110
5806.00   0.50863683   0.02065826
5808.00   0.51216364   0.02057757
5810.00   0.50211823   0.02063369
5812.00   0.51045203   0.02050939
5814.00   0.55030805   0.02009814
5816.00   0.57174146   0.01982467
5818.00   0.53577864   0.01993055
5820.00   0.47040749   0.02026494
5822.00   0.47485587   0.02061188
5824.00   0.55413431   0.02127619
5826.00   0.57224149   0.02147165
5828.00   0.55372214   0.02132697
5830.00   0.53598428   0.02112037
5832.00   0.52682161   0.02084304
5834.00   0.52013189   0.02054818
5836.00   0.51790315   0.02055401
5838.00   0.51623231   0.02083763
5840.00   0.52810907   0.02099249
5842.00   0.56089413   0.02108949
5844.00   0.58180189   0.02128317
5846.00   0.59302658   0.02166243
5848.00   0.59120184   0.02204016
5850.00   0.56181699   0.02215411
5852.00   0.50196606   0.02204985
5854.00   0.46701160   0.02215640
5856.00   0.44771841   0.02208352
5858.00   0.41825503   0.02259869
5860.00   0.36146909   0.02395252
5862.00   0.32282925   0.02523316
5864.00   0.35012364   0.02585340
5866.00   0.42728239   0.02616379
5868.00   0.45674515   0.02591500
5870.00   0.46911052   0.02461370
5872.00   0.47139537   0.02403673
5874.00   0.45922747   0.02349529
5876.00   0.43995354   0.02389188
5878.00   0.41032386   0.02468259
5880.00   0.37418893   0.02636271
5882.00   0.37673104   0.03367678
5884.00   0.38874650   0.04448714
5886.00   0.45411479   0.05186313
5888.00   0.63581288   0.05915766
5890.00   0.73079032   0.06466335
5892.00   0.61893904   0.06806719
5894.00   0.44480774   0.07048060
5896.00   0.53199810   0.07370138
5898.00   0.92737597   0.08071798
5900.00   0.94194889   0.07653799
5902.00   0.62770808   0.05641857
5904.00   0.43910953   0.03684803
5906.00   0.44417641   0.02730880
5908.00   0.50807333   0.02493885
5910.00   0.51162708   0.02126352
5912.00   0.50317174   0.02263905
5914.00   0.49051744   0.02205071
5916.00   0.45578620   0.02149103
5918.00   0.44579390   0.02183672
5920.00   0.45893872   0.02297964
5922.00   0.48729047   0.02476401
5924.00   0.54074764   0.02768514
5926.00   0.62530553   0.03158655
5928.00   0.60047001   0.03104475
5930.00   0.43963432   0.02490742
5932.00   0.37778202   0.02180509
5934.00   0.39307737   0.02182555
5936.00   0.42432734   0.02245773
5938.00   0.44940752   0.02269960
5940.00   0.47969961   0.02307515
5942.00   0.48544133   0.02267398
5944.00   0.47071138   0.02109457
5946.00   0.45708019   0.02062239
5948.00   0.42871824   0.02103009
5950.00   0.41244513   0.02137969
5952.00   0.42163917   0.02145210
5954.00   0.44170269   0.02141896
5956.00   0.44376308   0.02123795
5958.00   0.43445992   0.02072722
5960.00   0.43086383   0.02065094
5962.00   0.42607683   0.02116164
5964.00   0.42503056   0.02116517
5966.00   0.42691317   0.02026601
5968.00   0.43328783   0.01913899
5970.00   0.45011199   0.01887578
5972.00   0.48266059   0.01924079
5974.00   0.48689693   0.01923318
5976.00   0.46556586   0.01917202
5978.00   0.45268548   0.01905258
5980.00   0.44220212   0.01882183
5982.00   0.43977332   0.01859326
5984.00   0.45869350   0.01841248
5986.00   0.49742094   0.01819948
5988.00   0.50053251   0.01866944
5990.00   0.46583483   0.02010900
5992.00   0.45905641   0.02069685
5994.00   0.47563484   0.02080915
5996.00   0.49577567   0.02051208
5998.00   0.51434398   0.01955303
6000.00   0.53346270   0.01801076
6002.00   0.52563643   0.01752386
6004.00   0.48089701   0.01799444
6006.00   0.46460998   0.01805593
6008.00   0.45707503   0.01800437
6010.00   0.46445036   0.01802442
6012.00   0.50006688   0.01827357
6014.00   0.54647207   0.01855609
6016.00   0.54987937   0.01834633
6018.00   0.51493740   0.01752860
6020.00   0.50222743   0.01726802
6022.00   0.48506033   0.01738032
6024.00   0.48733950   0.01742575
6026.00   0.52464855   0.01740484
6028.00   0.56860298   0.01730723
6030.00   0.57513112   0.01695564
6032.00   0.55854326   0.01621136
6034.00   0.53956902   0.01615086
6036.00   0.49419937   0.01683163
6038.00   0.47511244   0.01706880
6040.00   0.48898378   0.01681005
6042.00   0.51025325   0.01644132
6044.00   0.51762611   0.01623268
6046.00   0.52027982   0.01603624
6048.00   0.52487713   0.01614601
6050.00   0.52970010   0.01663760
6052.00   0.53318262   0.01694205
6054.00   0.53878897   0.01727894
6056.00   0.53875649   0.01738298
6058.00   0.52547431   0.01699809
6060.00   0.50344926   0.01625054
6062.00   0.49493691   0.01580962
6064.00   0.49260351   0.01540927
6066.00   0.49486181   0.01518839
6068.00   0.50566798   0.01506870
6070.00   0.51560473   0.01518740
6072.00   0.52240813   0.01578390
6074.00   0.52738482   0.01651720
6076.00   0.52840966   0.01644309
6078.00   0.53261262   0.01558415
6080.00   0.51596105   0.01519432
6082.00   0.46242267   0.01484960
6084.00   0.43814227   0.01471258
6086.00   0.46541634   0.01480191
6088.00   0.50609058   0.01509655
6090.00   0.50663447   0.01565718
6092.00   0.48053828   0.01667116
6094.00   0.47192109   0.01684245
6096.00   0.47197244   0.01616520
6098.00   0.46539876   0.01594848
6100.00   0.44758421   0.01604181
6102.00   0.43141583   0.01654799
6104.00   0.42934173   0.01781465
6106.00   0.43638614   0.01970556
6108.00   0.44560799   0.02050730
6110.00   0.45382452   0.02036399
6112.00   0.47833225   0.02092511
6114.00   0.53826869   0.02264769
6116.00   0.57966149   0.02356271
6118.00   0.56077731   0.02233835
6120.00   0.50450212   0.01950470
6122.00   0.48475796   0.01805658
6124.00   0.47931212   0.01708490
6126.00   0.47628379   0.01664434
6128.00   0.48895326   0.01721312
6130.00   0.49023831   0.01763838
6132.00   0.45931172   0.01751606
6134.00   0.41838357   0.01718504
6136.00   0.42956564   0.01702187
6138.00   0.50815779   0.01695365
6140.00   0.51105022   0.01673415
6142.00   0.45594415   0.01632732
6144.00   0.41435564   0.01602903
6146.00   0.39347771   0.01579788
6148.00   0.38429525   0.01574012
6150.00   0.39214650   0.01617578
6152.00   0.42522156   0.01712153
6154.00   0.43039018   0.01764970
6156.00   0.40272865   0.01814368
6158.00   0.40690506   0.01837945
6160.00   0.46105108   0.01816970
6162.00   0.51529807   0.01797392
6164.00   0.51946986   0.01843313
6166.00   0.49210396   0.01942755
6168.00   0.47136304   0.01909764
6170.00   0.41971478   0.01749827
6172.00   0.41568801   0.01616894
6174.00   0.48008722   0.01463006
6176.00   0.53016037   0.01337129
6178.00   0.50615400   0.01304667
6180.00   0.43943980   0.01344216
6182.00   0.41208455   0.01360399
6184.00   0.38974923   0.01409909
6186.00   0.39149573   0.01413592
6188.00   0.43581116   0.01369439
6190.00   0.46158731   0.01334533
6192.00   0.43565378   0.01332235
6194.00   0.38839063   0.01345968
6196.00   0.38665059   0.01361374
6198.00   0.42259708   0.01395990
6200.00   0.43432814   0.01404013
6202.00   0.44220728   0.01391172
6204.00   0.44107863   0.01380847
6206.00   0.42703998   0.01375835
6208.00   0.40662009   0.01373023
6210.00   0.39028466   0.01373697
6212.00   0.36969307   0.01378883
6214.00   0.36543053   0.01380902
6216.00   0.37428248   0.01389634
6218.00   0.38663533   0.01382798
6220.00   0.40858638   0.01345833
6222.00   0.42868105   0.01311490
6224.00   0.42978930   0.01315650
6226.00   0.41495776   0.01340976
6228.00   0.42454782   0.01400605
6230.00   0.45718116   0.01513315
6232.00   0.47566742   0.01589658
6234.00   0.48567396   0.01663606
6236.00   0.48840010   0.01698800
6238.00   0.48145643   0.01656786
6240.00   0.46594587   0.01553149
6242.00   0.45591500   0.01498290
6244.00   0.44674245   0.01464837
6246.00   0.43763214   0.01423938
6248.00   0.42852971   0.01373623
6250.00   0.42008576   0.01337390
6252.00   0.41186115   0.01321179
6254.00   0.40451926   0.01324580
6256.00   0.40149617   0.01366844
6258.00   0.40139088   0.01482726
6260.00   0.40468109   0.01508431
6262.00   0.41955310   0.01484659
6264.00   0.42267352   0.01443185
6266.00   0.40242562   0.01371058
6268.00   0.37697455   0.01287529
6270.00   0.37677351   0.01257341
6272.00   0.39262292   0.01265715
6274.00   0.41028634   0.01277870
6276.00   0.45173833   0.01326510
6278.00   0.46490866   0.01344768
6280.00   0.43816239   0.01320412
6282.00   0.40282655   0.01289591
6284.00   0.38962859   0.01291535
6286.00   0.38554886   0.01313438
6288.00   0.38596982   0.01319732
6290.00   0.40644193   0.01299721
6292.00   0.40311360   0.01323380
6294.00   0.36758879   0.01396671
6296.00   0.33633801   0.01471036
6298.00   0.33237332   0.01521510
6300.00   0.34392974   0.01562940
6302.00   0.37080067   0.01595452
6304.00   0.43921468   0.01644049
6306.00   0.46366915   0.01629768
6308.00   0.45750308   0.01547989
6310.00   0.43912011   0.01451587
6312.00   0.40852037   0.01346260
6314.00   0.36889705   0.01232446
6316.00   0.35260186   0.01205148
6318.00   0.35313445   0.01289808
6320.00   0.35159555   0.01297042
6322.00   0.35610926   0.01267134
6324.00   0.35969788   0.01246100
6326.00   0.36146089   0.01247440
6328.00   0.36224210   0.01253930
6330.00   0.36084205   0.01243710
6332.00   0.35437012   0.01218204
6334.00   0.35862181   0.01210167
6336.00   0.37431863   0.01219756
6338.00   0.38481992   0.01217088
6340.00   0.38927099   0.01191967
6342.00   0.39135981   0.01168226
6344.00   0.39300296   0.01174782
6346.00   0.39262563   0.01202640
6348.00   0.39595869   0.01222733
6350.00   0.41089281   0.01263140
6352.00   0.40707016   0.01265539
6354.00   0.37844828   0.01204224
6356.00   0.35012808   0.01158491
6358.00   0.33817255   0.01210641
6360.00   0.33439240   0.01318176
6362.00   0.34195873   0.01312267
6364.00   0.37500179   0.01206463
6366.00   0.38394362   0.01143011
6368.00   0.37348697   0.01086808
6370.00   0.36133617   0.01048607
6372.00   0.35213545   0.01041345
6374.00   0.34379691   0.01056318
6376.00   0.34585935   0.01064316
6378.00   0.36204547   0.01074255
6380.00   0.36744535   0.01091694
6382.00   0.36252639   0.01121791
6384.00   0.36647722   0.01144388
6386.00   0.39062086   0.01159094
6388.00   0.41823310   0.01165457
6390.00   0.41766438   0.01151499
6392.00   0.39520168   0.01100105
6394.00   0.37901768   0.01107717
6396.00   0.34937683   0.01174946
6398.00   0.33871013   0.01208998
6400.00   0.35461101   0.01211011
6402.00   0.37839860   0.01193163
6404.00   0.39173567   0.01152297
6406.00   0.40426055   0.01076007
6408.00   0.40357572   0.01042475
6410.00   0.37885830   0.01038304
6412.00   0.37612402   0.01034975
6414.00   0.40132877   0.01041288
6416.00   0.42495072   0.01046631
6418.00   0.42511287   0.01035817
6420.00   0.41201478   0.01014243
6422.00   0.40524781   0.01034829
6424.00   0.39312682   0.01123468
6426.00   0.39185187   0.01130946
6428.00   0.40268794   0.01058801
6430.00   0.41294023   0.00988937
6432.00   0.41873235   0.00966018
6434.00   0.42194897   0.00964698
6436.00   0.41619626   0.00956706
6438.00   0.39048627   0.00950883
6440.00   0.39006215   0.00952535
6442.00   0.40950063   0.00960893
6444.00   0.42687017   0.00973587
6446.00   0.44033498   0.00992104
6448.00   0.45015499   0.01013225
6450.00   0.44709444   0.01029933
6452.00   0.42905512   0.01050940
6454.00   0.42142820   0.01050373
6456.00   0.41660041   0.01012515
6458.00   0.41392797   0.01006616
6460.00   0.41522771   0.01050923
6462.00   0.41688079   0.01101290
6464.00   0.41313359   0.01116033
6466.00   0.40463999   0.01113947
6468.00   0.40418881   0.01100140
6470.00   0.41472054   0.01049902
6472.00   0.41439164   0.01031776
6474.00   0.39865807   0.01064025
6476.00   0.38503367   0.01084735
6478.00   0.38793471   0.01040803
6480.00   0.40107739   0.00948293
6482.00   0.40609005   0.00913578
6484.00   0.40789202   0.00902749
6486.00   0.41079384   0.00921840
6488.00   0.41597003   0.00983983
6490.00   0.41799313   0.01044379
6492.00   0.41225740   0.01091532
6494.00   0.40252888   0.01132517
6496.00   0.40249982   0.01147211
6498.00   0.41273487   0.01120984
6500.00   0.41461486   0.01132335
6502.00   0.40753651   0.01175920
6504.00   0.40805760   0.01201449
6506.00   0.42640087   0.01206173
6508.00   0.44850537   0.01190058
6510.00   0.44518051   0.01123915
6512.00   0.41759774   0.00963273
6514.00   0.40985596   0.00901594
6516.00   0.41100338   0.00907822
6518.00   0.41343349   0.00935309
6520.00   0.41791433   0.00995996
6522.00   0.42338106   0.01061579
6524.00   0.42829400   0.01095180
6526.00   0.43607032   0.01116841
6528.00   0.42822984   0.01116225
6530.00   0.39958552   0.01080708
6532.00   0.38439953   0.01059210
6534.00   0.37990043   0.01055647
6536.00   0.38210809   0.01047746
6538.00   0.39161327   0.01013339
6540.00   0.40900165   0.00957730
6542.00   0.41749904   0.00943989
6544.00   0.42405042   0.00961011
6546.00   0.42458934   0.00980509
6548.00   0.41618353   0.01017595
6550.00   0.40847683   0.01047310
6552.00   0.40782341   0.01057795
6554.00   0.40967774   0.01057740
6556.00   0.40155110   0.01057483
6558.00   0.37797618   0.01051764
6560.00   0.37247947   0.01045768
6562.00   0.37730974   0.01031577
6564.00   0.38740411   0.01026609
6566.00   0.40650362   0.01043516
6568.00   0.42804170   0.01064890
6570.00   0.43143106   0.01053164
6572.00   0.41738865   0.01002102
6574.00   0.41651827   0.00996493
6576.00   0.42239690   0.01031760
6578.00   0.42643982   0.01046878
6580.00   0.42660040   0.01034546
6582.00   0.42728099   0.01013076
6584.00   0.43396255   0.00997169
6586.00   0.44596273   0.00975233
6588.00   0.45279896   0.00981586
6590.00   0.45910704   0.01023399
6592.00   0.46098316   0.01043363
6594.00   0.45922187   0.01032242
6596.00   0.45312127   0.01029458
6598.00   0.43871304   0.01079906
6600.00   0.41609564   0.01165557
6602.00   0.41528919   0.01147424
6604.00   0.43690497   0.01010779
6606.00   0.44643062   0.00938631
6608.00   0.44828954   0.00914897
6610.00   0.44956514   0.00905391
6612.00   0.45116419   0.00897021
6614.00   0.45316681   0.00897505
6616.00   0.46707073   0.00901597
6618.00   0.50409502   0.00912631
6620.00   0.51278251   0.00925334
6622.00   0.49827546   0.00951579
6624.00   0.48595002   0.00962520
6626.00   0.48245865   0.00943051
6628.00   0.48164192   0.00911516
6630.00   0.47959682   0.00908919
6632.00   0.47825551   0.00927943
6634.00   0.47582424   0.00935261
6636.00   0.46963602   0.00947166
6638.00   0.46899298   0.00946115
6640.00   0.47695065   0.00922140
6642.00   0.48733434   0.00894052
6644.00   0.49264717   0.00890674
6646.00   0.49615914   0.00904099
6648.00   0.49711576   0.00911528
6650.00   0.49271378   0.00924359
6652.00   0.49224788   0.00929878
6654.00   0.49677387   0.00927959
6656.00   0.50146377   0.00922487
6658.00   0.50248879   0.00915030
6660.00   0.50150287   0.00904104
6662.00   0.50089049   0.00899268
6664.00   0.50085419   0.00897857
6666.00   0.49817997   0.00898366
6668.00   0.49196348   0.00900982
6670.00   0.48609877   0.00905981
6672.00   0.48134309   0.00914958
6674.00   0.47757709   0.00926456
6676.00   0.48197198   0.00930804
6678.00   0.49714145   0.00938310
6680.00   0.50580209   0.00926295
6682.00   0.51381803   0.00874325
6684.00   0.51824772   0.00851611
6686.00   0.51916277   0.00889714
6688.00   0.51594025   0.00953179
6690.00   0.50427830   0.00994324
6692.00   0.47758710   0.01047325
6694.00   0.46911821   0.01051542
6696.00   0.46969676   0.01000494
6698.00   0.47660160   0.00967154
6700.00   0.49519324   0.00960066
6702.00   0.51524442   0.00966495
6704.00   0.52031893   0.00981025
6706.00   0.51801312   0.01004163
6708.00   0.50389934   0.01042417
6710.00   0.46421224   0.01120198
6712.00   0.44510248   0.01150506
6714.00   0.44556484   0.01137544
6716.00   0.45654336   0.01100082
6718.00   0.47691995   0.01040718
6720.00   0.51013160   0.00946315
6722.00   0.51792485   0.00898112
6724.00   0.49890816   0.00880709
6726.00   0.49836800   0.00873282
6728.00   0.51754749   0.00886999
6730.00   0.53117108   0.00905521
6732.00   0.52370197   0.00924445
6734.00   0.50463080   0.00945055
6736.00   0.49641207   0.00939730
6738.00   0.48684636   0.00904433
6740.00   0.49008411   0.00884008
6742.00   0.51033711   0.00860819
6744.00   0.52597231   0.00850308
6746.00   0.53040379   0.00864098
6748.00   0.52936250   0.00888300
6750.00   0.52711135   0.00891955
6752.00   0.51992583   0.00883723
6754.00   0.51613593   0.00876796
6756.00   0.50871402   0.00863992
6758.00   0.51056725   0.00854114
6760.00   0.52596956   0.00840384
6762.00   0.54696286   0.00835870
6764.00   0.56406868   0.00868615
6766.00   0.58376718   0.00938706
6768.00   0.59150225   0.00961373
6770.00   0.57002556   0.00947741
6772.00   0.58557564   0.00952665
6774.00   0.64159679   0.00974291
6776.00   0.71551782   0.01003193
6778.00   0.80437648   0.01040536
6780.00   0.92137712   0.01089313
6782.00   0.92562413   0.01094336
6784.00   0.82515645   0.01064944
6786.00   0.74372095   0.01032048
6788.00   0.64057714   0.00980765
6790.00   0.55774069   0.00928817
6792.00   0.52529699   0.00885476
6794.00   0.52593511   0.00847304
6796.00   0.53133047   0.00839938
6798.00   0.56563932   0.00879505
6800.00   0.58177555   0.00885906
6802.00   0.59383249   0.00872702
6804.00   0.59760404   0.00861392
6806.00   0.59091043   0.00851548
6808.00   0.57593060   0.00847865
6810.00   0.55607772   0.00881911
6812.00   0.52186507   0.00970037
6814.00   0.50502110   0.00988611
6816.00   0.49984303   0.00955979
6818.00   0.49522996   0.00934353
6820.00   0.49046102   0.00917195
6822.00   0.48660964   0.00920041
6824.00   0.48199758   0.00988069
6826.00   0.47412252   0.01110120
6828.00   0.48047012   0.01186803
6830.00   0.51082271   0.01285501
6832.00   0.51898736   0.01309600
6834.00   0.49852654   0.01241764
6836.00   0.47308096   0.01141620
6838.00   0.46128520   0.01069076
6840.00   0.45380548   0.00995933
6842.00   0.45909259   0.00938899
6844.00   0.49256182   0.00901610
6846.00   0.49648756   0.00865878
6848.00   0.46828550   0.00824232
6850.00   0.44038767   0.00805727
6852.00   0.43091068   0.00831253
6854.00   0.42988741   0.00887046
6856.00   0.42882693   0.00946993
6858.00   0.43545437   0.01028588
6860.00   0.43405256   0.01092616
6862.00   0.42098856   0.01160629
6864.00   0.41680372   0.01207074
6866.00   0.43334422   0.01226246
6868.00   0.45832387   0.01225807
6870.00   0.46351889   0.01208648
6872.00   0.45441893   0.01160749
6874.00   0.45033348   0.01126826
6876.00   0.44045430   0.01088706
6878.00   0.43895978   0.01059856
6880.00   0.45292899   0.01045196
6882.00   0.47000322   0.01038301
6884.00   0.47071713   0.01030967
6886.00   0.45940873   0.01029466
6888.00   0.45508534   0.01018740
6890.00   0.45095754   0.01000800
6892.00   0.44943780   0.00983129
6894.00   0.45519781   0.00965006
6896.00   0.45767525   0.00946490
6898.00   0.44313815   0.00926401
6900.00   0.41433242   0.00902771
6902.00   0.40648207   0.00899948
6904.00   0.41576308   0.00910003
6906.00   0.41748202   0.00933177
6908.00   0.41189688   0.00983927
6910.00   0.40908584   0.01022986
6912.00   0.41740307   0.01027033
6914.00   0.43221891   0.01010317
6916.00   0.43094352   0.00999181
6918.00   0.41970250   0.00977853
6920.00   0.40432698   0.00967374
6922.00   0.37321573   0.00971545
6924.00   0.35309425   0.00966821
6926.00   0.35501468   0.00938970
6928.00   0.36959887   0.00900616
6930.00   0.38367903   0.00885788
6932.00   0.39963916   0.00877433
6934.00   0.42686781   0.00895383
6936.00   0.48157328   0.00939498
6938.00   0.50994664   0.00987880
6940.00   0.49614036   0.01048773
6942.00   0.46562049   0.01104321
6944.00   0.45051351   0.01121096
6946.00   0.43421352   0.01112752
6948.00   0.43525526   0.01090943
6950.00   0.46022379   0.01039494
6952.00   0.47199830   0.00990259
6954.00   0.47198701   0.00932736
6956.00   0.46347532   0.00883284
6958.00   0.44385523   0.00872236
6960.00   0.41130388   0.00894538
6962.00   0.39388302   0.00893336
6964.00   0.38123262   0.00869209
6966.00   0.37687033   0.00879133
6968.00   0.38719794   0.00932156
6970.00   0.39533940   0.00978151
6972.00   0.38749623   0.00989003
6974.00   0.37089023   0.00981612
6976.00   0.37114719   0.00984914
6978.00   0.38720861   0.01000333
6980.00   0.39323452   0.00990018
6982.00   0.39624706   0.00950917
6984.00   0.39475203   0.00912940
6986.00   0.38748962   0.00885595
6988.00   0.37566984   0.00864445
6990.00   0.36193284   0.00858970
6992.00   0.33389270   0.00865445
6994.00   0.33314276   0.00886209
6996.00   0.36060655   0.00943190
6998.00   0.37864500   0.00968384
7000.00   0.37930727   0.00944056
7002.00   0.37396240   0.00899655
7004.00   0.37404984   0.00878798
7006.00   0.37689194   0.00866012
7008.00   0.37297264   0.00855353
7010.00   0.36345041   0.00851280
7012.00   0.35374337   0.00846789
7014.00   0.34121346   0.00840551
7016.00   0.33062720   0.00836440
7018.00   0.32785508   0.00839396
7020.00   0.33015218   0.00849067
7022.00   0.33863476   0.00848918
7024.00   0.35895580   0.00840803
7026.00   0.37225142   0.00835907
7028.00   0.38497889   0.00829117
7030.00   0.38917026   0.00828302
7032.00   0.37590665   0.00841497
7034.00   0.34957096   0.00864238
7036.00   0.33382320   0.00877191
7038.00   0.30778846   0.00890637
7040.00   0.31306005   0.00893565
7042.00   0.35740033   0.00882387
7044.00   0.39400795   0.00873689
7046.00   0.40343332   0.00876554
7048.00   0.40048271   0.00883258
7050.00   0.40284568   0.00877450
7052.00   0.40509084   0.00860290
7054.00   0.40330616   0.00848536
7056.00   0.39702624   0.00833950
7058.00   0.39082351   0.00825660
7060.00   0.38504335   0.00825463
7062.00   0.37947696   0.00831387
7064.00   0.37565854   0.00842084
7066.00   0.37551898   0.00857167
7068.00   0.36679688   0.00879638
7070.00   0.34210640   0.00919709
7072.00   0.33471662   0.00942011
7074.00   0.34926856   0.00943234
7076.00   0.37163168   0.00937709
7078.00   0.39135587   0.00939454
7080.00   0.41639337   0.00944784
7082.00   0.41928563   0.00932939
7084.00   0.40343121   0.00893152
7086.00   0.38623586   0.00878125
7088.00   0.35363594   0.00895150
7090.00   0.33241698   0.00909085
7092.00   0.34758717   0.00895412
7094.00   0.38728780   0.00865536
7096.00   0.40246445   0.00849606
7098.00   0.40958709   0.00839391
7100.00   0.41008648   0.00828962
7102.00   0.39825886   0.00821376
7104.00   0.38802409   0.00812585
7106.00   0.38639244   0.00796174
7108.00   0.38784483   0.00778512
7110.00   0.38235900   0.00786242
7112.00   0.37018672   0.00823981
7114.00   0.36336836   0.00839217
7116.00   0.35687009   0.00842855
7118.00   0.35474232   0.00849613
7120.00   0.35806206   0.00858501
7122.00   0.36540148   0.00872388
7124.00   0.37615025   0.00904124
7126.00   0.39687887   0.00958628
7128.00   0.39792809   0.00980838
7130.00   0.37869129   0.00994417
7132.00   0.36819196   0.00984787
7134.00   0.36900884   0.00936521
7136.00   0.37248629   0.00878381
7138.00   0.37137416   0.00850554
7140.00   0.36804032   0.00837518
7142.00   0.36874458   0.00842637
7144.00   0.37360048   0.00890615
7146.00   0.37591541   0.00899792
7148.00   0.37738952   0.00863166
7150.00   0.37641865   0.00826790
7152.00   0.36869788   0.00824085
7154.00   0.35574308   0.00839395
7156.00   0.36148036   0.00869525
7158.00   0.39168939   0.00934311
7160.00   0.40080163   0.00965080
7162.00   0.39652321   0.00981217
7164.00   0.38635933   0.00980096
7166.00   0.36773494   0.00952005
7168.00   0.34476057   0.00904910
7170.00   0.34539896   0.00882685
7172.00   0.38026711   0.00872583
7174.00   0.37743545   0.00867488
7176.00   0.33995399   0.00870098
7178.00   0.31849304   0.00879334
7180.00   0.32467571   0.00899201
7182.00   0.34485516   0.00922117
7184.00   0.36909413   0.00932279
7186.00   0.41289610   0.00938096
7188.00   0.42339924   0.00931361
7190.00   0.40787023   0.00905233
7192.00   0.39307919   0.00886172
7194.00   0.37418374   0.00877010
7196.00   0.35850561   0.00870494
7198.00   0.36158538   0.00859509
7200.00   0.38142487   0.00844223
7202.00   0.38308901   0.00845541
7204.00   0.37267059   0.00869487
7206.00   0.36639899   0.00876163
7208.00   0.36055645   0.00861114
7210.00   0.35831600   0.00848672
7212.00   0.36531407   0.00859492
7214.00   0.37951738   0.00884104
7216.00   0.37938607   0.00890054
7218.00   0.36248183   0.00886228
7220.00   0.36060956   0.00880637
7222.00   0.37405962   0.00862033
7224.00   0.38356194   0.00854230
7226.00   0.37708771   0.00854139
7228.00   0.36413637   0.00869904
7230.00   0.37050763   0.00970777
7232.00   0.41156808   0.01084688
7234.00   0.40331185   0.01292721
7236.00   0.34603736   0.01613201
7238.00   0.30740687   0.01819679
7240.00   0.30744827   0.01927339
7242.00   0.32199022   0.01966011
7244.00   0.32122126   0.01894435
7246.00   0.31680965   0.01661641
7248.00   0.30869475   0.01495803
7250.00   0.28358361   0.01299514
7252.00   0.28049499   0.01143023
7254.00   0.30898425   0.01068655
7256.00   0.34670889   0.01037668
7258.00   0.37188414   0.00985749
7260.00   0.39811629   0.00929566
7262.00   0.39573839   0.00954907
7264.00   0.35154286   0.01054817
7266.00   0.33590588   0.01147223
7268.00   0.35179260   0.01241774
7270.00   0.36984903   0.01338946
7272.00   0.37145311   0.01437111
7274.00   0.36588615   0.01536958
7276.00   0.35017514   0.01630203
7278.00   0.31173429   0.01789739
7280.00   0.29455015   0.01792432
7282.00   0.29108131   0.01613088
7284.00   0.29573315   0.01424559
7286.00   0.30918705   0.01341876
7288.00   0.32999521   0.01310361
7290.00   0.34355035   0.01258776
7292.00   0.36243671   0.01215743
7294.00   0.36197272   0.01175211
7296.00   0.33996028   0.01138526
7298.00   0.32216519   0.01108971
7300.00   0.31645513   0.01079912
7302.00   0.31381589   0.01063596
7304.00   0.30230570   0.01090990
7306.00   0.27993360   0.01138460
7308.00   0.27540845   0.01242221
7310.00   0.27298135   0.01441749
7312.00   0.29286104   0.01545334
7314.00   0.35361114   0.01560479
7316.00   0.41701797   0.01524186
7318.00   0.43035507   0.01441995
7320.00   0.40896812   0.01271830
7322.00   0.40056801   0.01198329
7324.00   0.38922480   0.01205367
7326.00   0.37670249   0.01194368
7328.00   0.36373377   0.01164319
7330.00   0.34810913   0.01147030
7332.00   0.32459754   0.01160942
7334.00   0.29401439   0.01195515
7336.00   0.28924161   0.01269733
7338.00   0.30628836   0.01423297
7340.00   0.32210842   0.01482163
7342.00   0.34816825   0.01494485
7344.00   0.36801752   0.01456042
7346.00   0.37093031   0.01329509
7348.00   0.36435506   0.01120982
7350.00   0.36598739   0.01018825
7352.00   0.37335566   0.00979989
7354.00   0.37336892   0.00993923
7356.00   0.36451355   0.01109001
7358.00   0.36115575   0.01189847
7360.00   0.37080446   0.01205178
7362.00   0.38388526   0.01201961
7364.00   0.38154709   0.01243238
7366.00   0.36718628   0.01328970
7368.00   0.35720503   0.01345477
7370.00   0.34037882   0.01332579
7372.00   0.33472320   0.01281461
7374.00   0.34512958   0.01154826
7376.00   0.36120781   0.01000074
7378.00   0.37156096   0.00928613
7380.00   0.38217446   0.00919356
7382.00   0.38560826   0.00911775
7384.00   0.38350108   0.00942102
7386.00   0.37814218   0.00961457
7388.00   0.36469546   0.00965603
7390.00   0.35349974   0.00978904
7392.00   0.35541865   0.01018746
7394.00   0.36641711   0.01074822
7396.00   0.36708042   0.01135489
7398.00   0.37005001   0.01221139
7400.00   0.35575530   0.01272645
7402.00   0.31438050   0.01326603
7404.00   0.28090626   0.01331193
7406.00   0.27239242   0.01237683
7408.00   0.27866244   0.01062866
7410.00   0.29476413   0.00955032
7412.00   0.33186167   0.00863782
7414.00   0.35843575   0.00813631
7416.00   0.38914701   0.00836641
7418.00   0.40824553   0.00853001
7420.00   0.40710667   0.00828941
7422.00   0.39631322   0.00803384
7424.00   0.39725724   0.00850255
7426.00   0.40395677   0.00953659
7428.00   0.40722138   0.01027770
7430.00   0.41674784   0.01128296
7432.00   0.41260102   0.01172185
7434.00   0.38252184   0.01146289
7436.00   0.35079104   0.01088757
7438.00   0.35288814   0.01043782
7440.00   0.38124815   0.00987570
7442.00   0.39100298   0.00945925
7444.00   0.39656487   0.00916012
7446.00   0.39769843   0.00885739
7448.00   0.38877681   0.00852144
7450.00   0.38252369   0.00825453
7452.00   0.39272517   0.00814443
7454.00   0.41464904   0.00815711
7456.00   0.42198205   0.00832543
7458.00   0.42455861   0.00870903
7460.00   0.41919574   0.00904027
7462.00   0.40134361   0.00936525
7464.00   0.38397831   0.00970272
7466.00   0.37437668   0.01000181
7468.00   0.36814213   0.01030813
7470.00   0.35961303   0.01094439
7472.00   0.34847143   0.01216441
7474.00   0.34252053   0.01256528
7476.00   0.33897766   0.01249082
7478.00   0.33954093   0.01222251
7480.00   0.34519345   0.01165741
7482.00   0.35477480   0.01094439
7484.00   0.36600247   0.01087337
7486.00   0.38134313   0.01155604
7488.00   0.39435610   0.01140173
7490.00   0.41313067   0.01063063
7492.00   0.42001367   0.00991458
7494.00   0.40685791   0.00925634
7496.00   0.38938570   0.00868179
7498.00   0.39025879   0.00846712
7500.00   0.40463939   0.00866310
7502.00   0.40545729   0.00851105
7504.00   0.39583063   0.00807247
7506.00   0.39248022   0.00786430
7508.00   0.39479345   0.00787442
7510.00   0.40005803   0.00803789
7512.00   0.40886584   0.00827865
7514.00   0.42237967   0.00858323
7516.00   0.42177677   0.00940272
7518.00   0.40725461   0.01075593
7520.00   0.39827436   0.01171238
7522.00   0.39217463   0.01274536
7524.00   0.38603503   0.01329421
7526.00   0.37725645   0.01298199
7528.00   0.36763740   0.01204434
7530.00   0.36721015   0.01136192
7532.00   0.37233818   0.01046027
7534.00   0.38329822   0.00982314
7536.00   0.40902054   0.00942877
7538.00   0.42530707   0.00910221
7540.00   0.42208606   0.00873549
7542.00   0.40961599   0.00845913
7544.00   0.40466696   0.00858088
7546.00   0.39939064   0.00914621
7548.00   0.39966738   0.00946871
7550.00   0.41106138   0.00993298
7552.00   0.41250727   0.01004714
7554.00   0.39765596   0.00959770
7556.00   0.37828955   0.00896384
7558.00   0.36901090   0.00877046
7560.00   0.36331189   0.00877577
7562.00   0.36388341   0.00902852
7564.00   0.37335294   0.00939646
7566.00   0.38117757   0.01014624
7568.00   0.38920248   0.01158110
7570.00   0.39572713   0.01270712
7572.00   0.39855784   0.01282667
7574.00   0.39896855   0.01230427
7576.00   0.39392081   0.01176676
7578.00   0.37887529   0.01047294
7580.00   0.37148079   0.00993357
7582.00   0.36696386   0.01025527
7584.00   0.36877531   0.01067793
7586.00   0.38261199   0.01079628
7588.00   0.40475637   0.01085241
7590.00   0.41204640   0.01122562
7592.00   0.40393460   0.01087377
7594.00   0.40937194   0.01269728
7596.00   0.42727983   0.01449813
7598.00   0.43999040   0.01836809
7600.00   0.44800803   0.02518465
7602.00   0.44745797   0.03140217
7604.00   0.41125235   0.03254000
7606.00   0.31133199   0.03033232
7608.00   0.29563734   0.02820412
7610.00   0.35031804   0.02360661
7612.00   0.38728759   0.01937907
7614.00   0.39578694   0.01641741
7616.00   0.39359745   0.01441355
7618.00   0.38857955   0.01336672
7620.00   0.37161282   0.01391193
7622.00   0.37495711   0.01472010
7624.00   0.40130943   0.01686471
7626.00   0.41177747   0.01792147
7628.00   0.40172738   0.01812412
7630.00   0.38930383   0.01784921
7632.00   0.39139944   0.01715450
7634.00   0.40260616   0.01585634
7636.00   0.39742801   0.01486157
7638.00   0.37595505   0.01366305
7640.00   0.36470580   0.01291883
7642.00   0.36349177   0.01287293
7644.00   0.36080170   0.01283492
7646.00   0.34817192   0.01230820
7648.00   0.33048582   0.01153347
7650.00   0.32626420   0.01125746
7652.00   0.33247840   0.01127297
7654.00   0.33763602   0.01149734
7656.00   0.34506938   0.01223172
7658.00   0.35387337   0.01267192
7660.00   0.36455745   0.01256516
7662.00   0.37622592   0.01215529
7664.00   0.38475671   0.01174354
7666.00   0.38864172   0.01116245
7668.00   0.39944530   0.01054012
7670.00   0.42361569   0.00960098
7672.00   0.43293965   0.00893649
7674.00   0.42088258   0.00871056
7676.00   0.39821911   0.00880583
7678.00   0.37437046   0.00916721
7680.00   0.33452249   0.00996349
7682.00   0.33672041   0.01021500
7684.00   0.38629782   0.01016480
7686.00   0.41230747   0.01009374
7688.00   0.41316313   0.00990722
7690.00   0.40559477   0.00975295
7692.00   0.39926878   0.00985563
7694.00   0.38875809   0.01015082
7696.00   0.38444126   0.01022679
7698.00   0.38338992   0.01006103
7700.00   0.38401803   0.01016390
7702.00   0.38218209   0.01022673
7704.00   0.38861960   0.01075795
7706.00   0.41707128   0.01203802
7708.00   0.45982617   0.01370014
7710.00   0.46294719   0.01527337
7712.00   0.42489719   0.01741920
7714.00   0.41293362   0.01840507
7716.00   0.41840145   0.01890170
7718.00   0.41886836   0.01874433
7720.00   0.40112299   0.01757089
7722.00   0.37842843   0.01561539
7724.00   0.38356841   0.01426706
7726.00   0.41797465   0.01310093
7728.00   0.43095079   0.01197718
7730.00   0.43984646   0.01095242
7732.00   0.43864718   0.01011907
7734.00   0.42143971   0.00950656
7736.00   0.39849174   0.00920208
7738.00   0.38715351   0.00930270
7740.00   0.37878135   0.00963067
7742.00   0.38172120   0.01082530
7744.00   0.40620118   0.01285927
7746.00   0.41377673   0.01441361
7748.00   0.40016216   0.01590454
7750.00   0.38101646   0.01695770
7752.00   0.36702898   0.01708693
7754.00   0.35047901   0.01650074
7756.00   0.35852984   0.01592934
7758.00   0.40751037   0.01493630
7760.00   0.41794100   0.01399775
7762.00   0.38443965   0.01297734
7764.00   0.35283950   0.01197327
7766.00   0.35341853   0.01104581
7768.00   0.37032306   0.01018345
7770.00   0.37092409   0.00982530
7772.00   0.35906994   0.01010999
7774.00   0.35942239   0.01028933
7776.00   0.37048370   0.01064290
7778.00   0.38002819   0.01090977
7780.00   0.38880101   0.01086362
7782.00   0.39355987   0.01075298
7784.00   0.36960089   0.01132571
7786.00   0.29119673   0.01236723
7788.00   0.28543505   0.01335757
7790.00   0.34386718   0.01491115
7792.00   0.38324445   0.01563716
7794.00   0.38567102   0.01530177
7796.00   0.37675166   0.01440172
7798.00   0.38245291   0.01352054
7800.00   0.39531687   0.01209192
7802.00   0.40063754   0.01143920
7804.00   0.40424874   0.01140589
7806.00   0.40246874   0.01152144
7808.00   0.39190575   0.01185985
7810.00   0.38029027   0.01231228
7812.00   0.37603235   0.01266977
7814.00   0.37555423   0.01295679
7816.00   0.37736925   0.01376484
7818.00   0.37910479   0.01541511
7820.00   0.38972300   0.01604592
7822.00   0.41736749   0.01583783
7824.00   0.43904760   0.01533009
7826.00   0.43838441   0.01480724
7828.00   0.42372069   0.01409858
7830.00   0.40837070   0.01317256
7832.00   0.37874284   0.01137601
7834.00   0.36429039   0.01061483
7836.00   0.35680991   0.01096613
7838.00   0.35896018   0.01143106
7840.00   0.37351820   0.01150871
7842.00   0.39774016   0.01164448
7844.00   0.42369974   0.01276069
7846.00   0.47515595   0.01486391
7848.00   0.47759715   0.01599181
7850.00   0.43255961   0.01689410
7852.00   0.39798087   0.01744464
7854.00   0.38428211   0.01769974
7856.00   0.37840703   0.01761788
7858.00   0.37236497   0.01694206
7860.00   0.36960447   0.01521517
7862.00   0.36885774   0.01472101
7864.00   0.37390324   0.01536723
7866.00   0.37469926   0.01554663
7868.00   0.36639917   0.01515365
7870.00   0.36046660   0.01463115
7872.00   0.37314159   0.01433581
7874.00   0.40365127   0.01410480
7876.00   0.39949584   0.01405389
7878.00   0.35813084   0.01419525
7880.00   0.34104928   0.01438070
7882.00   0.34566391   0.01478195
7884.00   0.35500163   0.01503600
7886.00   0.36199665   0.01483288
7888.00   0.37056822   0.01431181
7890.00   0.36455825   0.01407347
7892.00   0.33557108   0.01427589
7894.00   0.32923579   0.01374598
7896.00   0.33355984   0.01203580
7898.00   0.35144183   0.01069833
7900.00   0.39161637   0.01077846
7902.00   0.44461301   0.01168764
7904.00   0.47133291   0.01266882
7906.00   0.47911885   0.01405951
7908.00   0.49254850   0.01527462
7910.00   0.51604724   0.01650549
7912.00   0.51692146   0.01770174
7914.00   0.47801054   0.01923086
7916.00   0.42517450   0.02045359
7918.00   0.40312588   0.02008869
7920.00   0.39441636   0.01804675
7922.00   0.39784852   0.01691772
7924.00   0.42643768   0.01583068
7926.00   0.44281501   0.01509245
7928.00   0.44450176   0.01506642
7930.00   0.44086498   0.01510202
7932.00   0.43878126   0.01430706
7934.00   0.43576780   0.01278572
7936.00   0.42774945   0.01193172
7938.00   0.41415644   0.01144591
7940.00   0.40088633   0.01109962
7942.00   0.37889212   0.01090229
7944.00   0.36733538   0.01097247
7946.00   0.38755858   0.01151279
7948.00   0.43053594   0.01239703
7950.00   0.43407115   0.01250035
7952.00   0.40803617   0.01178905
7954.00   0.38977447   0.01169697
7956.00   0.36740300   0.01180911
7958.00   0.34915987   0.01234967
7960.00   0.33566374   0.01363350
7962.00   0.32799971   0.01515552
7964.00   0.34291255   0.01560154
7966.00   0.39221582   0.01543877
7968.00   0.41404670   0.01505015
7970.00   0.42911091   0.01392545
7972.00   0.43083334   0.01301575
7974.00   0.41117275   0.01264900
7976.00   0.38276044   0.01254097
7978.00   0.37084746   0.01235706
7980.00   0.35818776   0.01211217
7982.00   0.37808454   0.01235271
7984.00   0.44347352   0.01260062
7986.00   0.48595312   0.01368309
7988.00   0.50862581   0.01601136
7990.00   0.51167631   0.01806823
7992.00   0.47957283   0.01870761
7994.00   0.40714142   0.01864598
7996.00   0.38185927   0.01784533
7998.00   0.38256872   0.01542400
8000.00   0.38694206   0.01352020
8002.00   0.40672421   0.01192467
8004.00   0.42207944   0.01075566
8006.00   0.41343468   0.01043702
8008.00   0.38934842   0.01094612
8010.00   0.38225761   0.01135770
8012.00   0.38172445   0.01217120
8014.00   0.38566256   0.01268155
8016.00   0.39985642   0.01292978
8018.00   0.41069469   0.01328243
8020.00   0.41067189   0.01395101
8022.00   0.40528134   0.01472803
8024.00   0.40531364   0.01513389
8026.00   0.41073462   0.01566296
8028.00   0.40836826   0.01531921
8030.00   0.39540970   0.01386735
8032.00   0.39033371   0.01251999
8034.00   0.39969051   0.01156404
8036.00   0.41513902   0.01089916
8038.00   0.42520514   0.01089843
8040.00   0.44076407   0.01189826
8042.00   0.43346870   0.01184625
8044.00   0.39430377   0.01090851
8046.00   0.37530729   0.01041065
8048.00   0.38322842   0.01051178
8050.00   0.40042469   0.01090469
8052.00   0.41288307   0.01143577
8054.00   0.42994276   0.01222644
8056.00   0.42844772   0.01264448
8058.00   0.40053430   0.01302588
8060.00   0.39356998   0.01304543
8062.00   0.41331208   0.01262723
8064.00   0.43135649   0.01203209
8066.00   0.42468193   0.01140007
8068.00   0.40317899   0.01061101
8070.00   0.39856985   0.01025359
8072.00   0.40538606   0.01026345
8074.00   0.40641519   0.01033263
8076.00   0.40581492   0.01078539
8078.00   0.40268859   0.01095629
8080.00   0.39415962   0.01038442
8082.00   0.38289976   0.00935077
8084.00   0.38215941   0.00905958
8086.00   0.39515871   0.00935293
8088.00   0.39486405   0.00947346
8090.00   0.38587171   0.00961150
8092.00   0.37715593   0.00984268
8094.00   0.36842823   0.01018519
8096.00   0.36137912   0.01060039
8098.00   0.36478335   0.01107607
8100.00   0.37907732   0.01186900
8102.00   0.38763574   0.01184391
8104.00   0.40156570   0.01093780
8106.00   0.40336663   0.01032163
8108.00   0.38656640   0.01013645
8110.00   0.36509681   0.01015405
8112.00   0.35506520   0.01030074
8114.00   0.34872422   0.01072624
8116.00   0.35194150   0.01059239
8118.00   0.37405691   0.00986120
8120.00   0.38053873   0.00941687
8122.00   0.36549759   0.00921151
8124.00   0.35277656   0.00916522
8126.00   0.36323506   0.00926854
8128.00   0.38851902   0.00952555
8130.00   0.39522162   0.00986327
8132.00   0.38938427   0.01048857
8134.00   0.38800547   0.01076365
8136.00   0.38728383   0.01059960
8138.00   0.38758245   0.01062337
8140.00   0.39339536   0.01128862
8142.00   0.40055272   0.01218852
8144.00   0.38439962   0.01227538
8146.00   0.33481213   0.01159710
8148.00   0.31568807   0.01133949
8150.00   0.31252944   0.01124262
8152.00   0.31502721   0.01111375
8154.00   0.32166648   0.01086142
8156.00   0.33330667   0.01059183
8158.00   0.34770471   0.01051336
8160.00   0.36952111   0.01055823
8162.00   0.38273820   0.01069346
8164.00   0.39133489   0.01094536
8166.00   0.39800468   0.01124913
8168.00   0.40307832   0.01146263
8170.00   0.40579268   0.01185994
8172.00   0.40341014   0.01276333
8174.00   0.39161748   0.01391236
8176.00   0.40529686   0.01544918
8178.00   0.45008963   0.01771267
8180.00   0.47444829   0.01911533
8182.00   0.47654814   0.01971332
8184.00   0.47500631   0.02024355
8186.00   0.48616648   0.02131754
8188.00   0.50449371   0.02267560
8190.00   0.49225613   0.02292290
8192.00   0.45062330   0.02213380
8194.00   0.41671735   0.02170574
8196.00   0.38519850   0.02167109
8198.00   0.34997004   0.02123111
8200.00   0.30062938   0.01976601
8202.00   0.24587239   0.01749356
8204.00   0.23679052   0.01580231
8206.00   0.27977097   0.01408818
8208.00   0.29209194   0.01291871
8210.00   0.29353625   0.01262286
8212.00   0.29349023   0.01236144
8214.00   0.29076371   0.01185560
8216.00   0.28857720   0.01136571
8218.00   0.30144584   0.01119079
8220.00   0.33156204   0.01135621
8222.00   0.34692839   0.01135730
8224.00   0.35097069   0.01122618
8226.00   0.36203101   0.01131579
8228.00   0.38856831   0.01185489
8230.00   0.41373798   0.01235579
8232.00   0.41409752   0.01214434
8234.00   0.39536539   0.01123622
8236.00   0.38270241   0.01116901
8238.00   0.36718056   0.01202071
8240.00   0.35151836   0.01208117
8242.00   0.32784319   0.01102523
8244.00   0.31315041   0.00993310
8246.00   0.32866231   0.01012632
8248.00   0.36851662   0.01113205
8250.00   0.37189519   0.01111509
8252.00   0.35208365   0.01038723
8254.00   0.33194500   0.00992112
8256.00   0.29733720   0.00951700
8258.00   0.27196556   0.00921229
8260.00   0.26846024   0.00899683
8262.00   0.27952704   0.00890529
8264.00   0.30296668   0.00931711
8266.00   0.36910927   0.01030320
8268.00   0.37914407   0.01096156
8270.00   0.34312084   0.01050180
8272.00   0.30750796   0.01180611
8274.00   0.27798355   0.01569272
8276.00   0.25383309   0.01959690
8278.00   0.26160327   0.02118388
8280.00   0.31748530   0.02156739
8282.00   0.31540936   0.02221051
8284.00   0.26408529   0.02285312
8286.00   0.23135161   0.02304211
8288.00   0.22163263   0.02243664
8290.00   0.22595452   0.02168490
8292.00   0.24782385   0.02194264
8294.00   0.29708019   0.02313210
8296.00   0.30731928   0.02281832
8298.00   0.27858043   0.02136963
8300.00   0.27499476   0.01984501
8302.00   0.30119455   0.01776643
8304.00   0.33127925   0.01570331
8306.00   0.34630978   0.01470749
8308.00   0.35514560   0.01461566
8310.00   0.35800830   0.01425489
8312.00   0.34914088   0.01428491
8314.00   0.34666955   0.01390248
8316.00   0.35319069   0.01293066
8318.00   0.35341981   0.01208661
8320.00   0.33469838   0.01199982
8322.00   0.30525103   0.01233542
8324.00   0.29885906   0.01200237
8326.00   0.31824762   0.01091504
8328.00   0.31445903   0.01051298
8330.00   0.29962018   0.00944808
8332.00   0.27674600   0.01044265
8334.00   0.24239017   0.01383424
8336.00   0.20195501   0.01774373
8338.00   0.17302360   0.02120525
8340.00   0.13553034   0.02558373
8342.00   0.14232519   0.02724895
8344.00   0.19907053   0.02767389
8346.00   0.24360253   0.02715230
8348.00   0.27186540   0.02517734
8350.00   0.29093105   0.02233471
8352.00   0.29804751   0.02011908
8354.00   0.29259729   0.01780725
8356.00   0.28450879   0.01617881
8358.00   0.26143757   0.01554864
8360.00   0.25122988   0.01493535
8362.00   0.25570747   0.01453925
8364.00   0.26461145   0.01420358
8366.00   0.27091572   0.01361446
8368.00   0.27833688   0.01285213
8370.00   0.28145894   0.01242371
8372.00   0.27945504   0.01205935
8374.00   0.28068823   0.01217176
8376.00   0.28541273   0.01291234
8378.00   0.28907737   0.01364666
8380.00   0.28894183   0.01415938
8382.00   0.28659186   0.01458082
8384.00   0.28516784   0.01450775
8386.00   0.27079022   0.01305626
8388.00   0.28589252   0.01361208
8390.00   0.33834335   0.01548970
8392.00   0.37703922   0.01757181
8394.00   0.38471347   0.02001648
8396.00   0.37624025   0.02233235
8398.00   0.36545244   0.02301675
8400.00   0.33461192   0.02275200
8402.00   0.33208457   0.02183393
8404.00   0.36108029   0.01934069
8406.00   0.37073618   0.01706502
8408.00   0.34383956   0.01506481
8410.00   0.31098452   0.01362386
8412.00   0.31626615   0.01416491
8414.00   0.35469675   0.01677886
8416.00   0.35479492   0.01736756
8418.00   0.33541629   0.01664249
8420.00   0.30781484   0.01673065
8422.00   0.25844398   0.01719851
8424.00   0.21457879   0.01848727
8426.00   0.20713405   0.02155127
8428.00   0.22477637   0.02581232
8430.00   0.23665242   0.02625829
8432.00   0.25703737   0.02395621
8434.00   0.27314496   0.02154910
8436.00   0.29183379   0.01734407
8438.00   0.30210847   0.01283532
8440.00   0.29100645   0.01066889
8442.00   0.26624376   0.01077256
8444.00   0.27260387   0.01103800
8446.00   0.31770799   0.01289669
8448.00   0.32429895   0.01381199
8450.00   0.28919697   0.01437287
8452.00   0.27421862   0.01496786
8454.00   0.30437824   0.01535579
8456.00   0.35721704   0.01592494
8458.00   0.40075955   0.01811495
8460.00   0.47872928   0.02197832
8462.00   0.47102889   0.02360265
8464.00   0.36926097   0.02492169
8466.00   0.30000770   0.02473505
8468.00   0.28724974   0.02212960
8470.00   0.29251420   0.01800749
8472.00   0.27777436   0.01495396
8474.00   0.25229314   0.01180699
8476.00   0.24886179   0.00972725
8478.00   0.26429260   0.00995673
8480.00   0.27714637   0.01007706
8482.00   0.29546961   0.01015269
8484.00   0.30586988   0.01051986
8486.00   0.28900188   0.01128568
8488.00   0.24971072   0.01235646
8490.00   0.22740224   0.01333012
8492.00   0.20427671   0.01440135
8494.00   0.19540520   0.01534020
8496.00   0.21225528   0.01615318
8498.00   0.22051357   0.01697955
8500.00   0.19016407   0.01807545
8502.00   0.13769023   0.01925875
8504.00   0.13581322   0.01922222
8506.00   0.16672939   0.01812868
8508.00   0.20538804   0.01694872
8510.00   0.28260574   0.01496012
8512.00   0.33384076   0.01299850
8514.00   0.32765865   0.01153660
8516.00   0.29275674   0.01042383
8518.00   0.28329441   0.00966273
8520.00   0.27895367   0.00959220
8522.00   0.28023332   0.00948691
8524.00   0.29530564   0.00975741
8526.00   0.30064774   0.00988780
8528.00   0.29005563   0.00966956
8530.00   0.27330843   0.00945211
8532.00   0.26102638   0.00980529
8534.00   0.24323624   0.01057019
8536.00   0.24897191   0.01117207
8538.00   0.28348774   0.01170271
8540.00   0.30380982   0.01241347
8542.00   0.31374753   0.01356148
8544.00   0.31236988   0.01445679
8546.00   0.28765127   0.01446048
8548.00   0.23646198   0.01380985
8550.00   0.23820762   0.01335088
8552.00   0.29847005   0.01270915
8554.00   0.31750390   0.01213597
8556.00   0.29888749   0.01146339
8558.00   0.27517569   0.01100114
8560.00   0.26410368   0.01117984
8562.00   0.25636965   0.01177788
8564.00   0.24649514   0.01142845
8566.00   0.23266454   0.00980033
8568.00   0.22711389   0.00929232
8570.00   0.22566156   0.00985473
8572.00   0.23128073   0.01031091
8574.00   0.25168619   0.01023981
8576.00   0.27773261   0.01000687
8578.00   0.27510226   0.01014124
8580.00   0.23892437   0.01052907
8582.00   0.23321912   0.01083872
8584.00   0.24431297   0.01107153
8586.00   0.25678071   0.01149510
8588.00   0.27245796   0.01233461
8590.00   0.28700244   0.01313314
8592.00   0.28578952   0.01318569
8594.00   0.26823524   0.01260481
8596.00   0.26629901   0.01237087
8598.00   0.27574992   0.01229083
8600.00   0.27942273   0.01203764
8602.00   0.27721435   0.01131862
8604.00   0.27190644   0.01074821
8606.00   0.26235870   0.01111457
8608.00   0.24567024   0.01206809
8610.00   0.25150403   0.01322417
8612.00   0.28629076   0.01478135
8614.00   0.29941028   0.01615404
8616.00   0.29235569   0.01741614
8618.00   0.28149408   0.01868687
8620.00   0.27326483   0.02013985
8622.00   0.26413006   0.02166515
8624.00   0.27273455   0.02234789
8626.00   0.30993149   0.02225513
8628.00   0.31899050   0.02247441
8630.00   0.30294767   0.02310382
8632.00   0.28996000   0.02319187
8634.00   0.28990236   0.02223189
8636.00   0.29600960   0.02056175
8638.00   0.30656651   0.01911439
8640.00   0.34032571   0.01666307
8642.00   0.33254591   0.01621222
8644.00   0.27606159   0.01777833
8646.00   0.24498917   0.01909799
8648.00   0.26158249   0.01980829
8650.00   0.29378930   0.02052174
8652.00   0.30019522   0.02184809
8654.00   0.30161735   0.02394240
8656.00   0.27731284   0.02448332
8658.00   0.20486104   0.02399307
8660.00   0.16996810   0.02333446
8662.00   0.17874475   0.02225945
8664.00   0.20719369   0.02109221
8666.00   0.24137548   0.02044335
8668.00   0.29368514   0.02012503
8670.00   0.31303674   0.01984101
8672.00   0.30981210   0.02005881
8674.00   0.30369365   0.01965009
8676.00   0.28992406   0.01827274
8678.00   0.27239594   0.01699301
8680.00   0.25378761   0.01690733
8682.00   0.23260720   0.01756267
8684.00   0.21521282   0.01719630
8686.00   0.18966013   0.01611250
8688.00   0.18781640   0.01515034
8690.00   0.21127097   0.01385677
8692.00   0.23621866   0.01279932
8694.00   0.25788793   0.01239153
8696.00   0.27737242   0.01243220
8698.00   0.27396935   0.01248079
8700.00   0.23293012   0.01299498
8702.00   0.23265171   0.01292674
8704.00   0.26095885   0.01244500
8706.00   0.28684327   0.01191904
8708.00   0.30801275   0.01133936
8710.00   0.32523626   0.01074948
8712.00   0.32809904   0.01042607
8714.00   0.31456929   0.01021365
8716.00   0.31340942   0.01044865
8718.00   0.31966284   0.01141133
8720.00   0.32158914   0.01186177
8722.00   0.31954896   0.01174158
8724.00   0.31411916   0.01142023
8726.00   0.30329013   0.01118155
8728.00   0.28584927   0.01085540
8730.00   0.27795896   0.01077275
8732.00   0.27496940   0.01105204
8734.00   0.27498499   0.01100565
8736.00   0.27975968   0.01045607
8738.00   0.28584680   0.01003412
8740.00   0.29115462   0.01034187
8742.00   0.29684284   0.01108195
8744.00   0.29913613   0.01127888
8746.00   0.30893034   0.01053473
8748.00   0.29496440   0.01129211
8750.00   0.24502070   0.01253079
8752.00   0.20933042   0.01478260
8754.00   0.21144995   0.01821375
8756.00   0.23444389   0.02187428
8758.00   0.25495201   0.02437075
8760.00   0.29961038   0.02687584
8762.00   0.30594534   0.02815406
8764.00   0.27435207   0.02854883
8766.00   0.25504935   0.02863229
8768.00   0.26060137   0.02829384
8770.00   0.27584979   0.02777356
8772.00   0.28437287   0.02794089
8774.00   0.28521234   0.02895094
8776.00   0.31209278   0.02851911
8778.00   0.37898692   0.02690645
8780.00   0.41407761   0.02523127
8782.00   0.41581070   0.02329414
8784.00   0.39414376   0.02129391
8786.00   0.34470776   0.01986781
8788.00   0.25581941   0.01893165
8790.00   0.22695310   0.01795355
8792.00   0.23476495   0.01750579
8794.00   0.25167161   0.01646757
8796.00   0.28926322   0.01429457
8798.00   0.32982549   0.01215030
8800.00   0.36045951   0.01153975
8802.00   0.38809556   0.01208064
8804.00   0.39854971   0.01264804
8806.00   0.38853449   0.01408737
8808.00   0.38443741   0.01466001
8810.00   0.37344655   0.01443529
8812.00   0.37306464   0.01443382
8814.00   0.40607068   0.01438967
8816.00   0.45150313   0.01476747
8818.00   0.42208782   0.01875854
8820.00   0.29929250   0.02504211
8822.00   0.25334835   0.02906213
8824.00   0.23200166   0.03361047
8826.00   0.24069406   0.03604144
8828.00   0.30209640   0.03602938
8830.00   0.38001189   0.03453192
8832.00   0.38509223   0.03249121
8834.00   0.31910017   0.02839313
8836.00   0.32886997   0.02603805
8838.00   0.40503603   0.02521693
8840.00   0.44238976   0.02390919
8842.00   0.42438927   0.02163000
8844.00   0.39243436   0.01917968
8846.00   0.38674343   0.01774857
8848.00   0.39236838   0.01718117
8850.00   0.39302835   0.01664194
8852.00   0.39126617   0.01687975
8854.00   0.39546221   0.01656603
8856.00   0.40925133   0.01513405
8858.00   0.42157325   0.01417439
8860.00   0.42698219   0.01544684
8862.00   0.42923671   0.01795827
8864.00   0.40419379   0.01894632
8866.00   0.33256036   0.01969236
8868.00   0.30327895   0.01957716
8870.00   0.30174783   0.01809659
8872.00   0.31514379   0.01674767
8874.00   0.34870914   0.01559975
8876.00   0.39533705   0.01501861
8878.00   0.39870507   0.01928297
8880.00   0.34343016   0.02793563
8882.00   0.35011134   0.03071128
8884.00   0.41234341   0.03155583
8886.00   0.45149761   0.03116797
8888.00   0.44751647   0.02915890
8890.00   0.42146021   0.02585335
8892.00   0.38948411   0.02296470
8894.00   0.33182362   0.01859341
8896.00   0.30676118   0.01746895
8898.00   0.30336159   0.02026444
8900.00   0.30128017   0.02201987
8902.00   0.29769626   0.02307826
8904.00   0.29941833   0.02355378
8906.00   0.31669545   0.02244220
8908.00   0.35496813   0.01878344
8910.00   0.34900954   0.02032689
8912.00   0.30447459   0.02570544
8914.00   0.26850662   0.02935495
8916.00   0.22865546   0.03320120
8918.00   0.19934094   0.03542390
8920.00   0.19624133   0.03428822
8922.00   0.21237020   0.03035351
8924.00   0.23618372   0.02716673
8926.00   0.27649048   0.02222653
8928.00   0.31750092   0.01857922
8930.00   0.37358567   0.01629351
8932.00   0.41698280   0.01536470
8934.00   0.42754373   0.01620994
8936.00   0.41987386   0.01837757
8938.00   0.43819523   0.01971840
8940.00   0.50918710   0.02137103
8942.00   0.48959506   0.02217390
8944.00   0.37090778   0.02195309
8946.00   0.28808260   0.02232494
8948.00   0.27804294   0.02363470
8950.00   0.30348662   0.02541380
8952.00   0.33378786   0.02747225
8954.00   0.40642506   0.03043962
8956.00   0.41320738   0.03155669
8958.00   0.36229050   0.03233571
8960.00   0.32621983   0.03133317
8962.00   0.30507433   0.02714076
8964.00   0.29571038   0.02114213
8966.00   0.30889446   0.01721326
8968.00   0.34624371   0.01450356
8970.00   0.36851403   0.01295803
8972.00   0.39610183   0.01455223
8974.00   0.40506420   0.01522132
8976.00   0.39323893   0.01498173
8978.00   0.37223333   0.01510699
8980.00   0.34831658   0.01639921
8982.00   0.31729868   0.01829201
8984.00   0.29851684   0.02044840
8986.00   0.26534140   0.02358769
8988.00   0.28235251   0.02527281
8990.00   0.37226722   0.02604218
8992.00   0.44412741   0.02645902
8994.00   0.44254929   0.02644663
8996.00   0.40391019   0.02615236
8998.00   0.41057834   0.02734575
9000.00   0.45659766   0.03110964
9002.00   0.46317384   0.03119780
9004.00   0.44716296   0.02853763
9006.00   0.42284608   0.02524857
9008.00   0.37931326   0.02125773
9010.00   0.33531448   0.01632470
9012.00   0.35430986   0.01365194
9014.00   0.44670877   0.01418321
9016.00   0.46941194   0.01369692
9018.00   0.45020491   0.01370024
9020.00   0.43503442   0.01373975
9022.00   0.42717457   0.01377425
9024.00   0.41918731   0.01389357
9026.00   0.40851685   0.01415312
9028.00   0.39586121   0.01455060
9030.00   0.38350049   0.01490550
9032.00   0.36316067   0.01526016
9034.00   0.35786656   0.01565601
9036.00   0.37107295   0.01607481
9038.00   0.38900501   0.01653788
9040.00   0.40511978   0.01697094
9042.00   0.42528221   0.01734584
9044.00   0.40962332   0.01853974
9046.00   0.34771487   0.02111787
9048.00   0.31577983   0.02189662
9050.00   0.29873016   0.02147132
9052.00   0.29563725   0.02033610
9054.00   0.31440485   0.01819569
9056.00   0.34866101   0.01486894
9058.00   0.35420239   0.01341059
9060.00   0.33103418   0.01390476
9062.00   0.33171770   0.01392563
9064.00   0.34463093   0.01425271
9066.00   0.36204615   0.01459914
9068.00   0.38464060   0.01490308
9070.00   0.41018400   0.01520809
9072.00   0.42829958   0.01548715
9074.00   0.44910601   0.01589714
9076.00   0.44778723   0.01585439
9078.00   0.41649219   0.01529343
9080.00   0.39955288   0.01489854
9082.00   0.40631980   0.01462912
9084.00   0.41864172   0.01459093
9086.00   0.41642287   0.01512898
9088.00   0.40632215   0.01616951
9090.00   0.39832151   0.01698976
9092.00   0.37700811   0.01801292
9094.00   0.37957418   0.01864455
9096.00   0.42340273   0.01885630
9098.00   0.46078387   0.01895056
9100.00   0.44678503   0.01927743
9102.00   0.39930257   0.01976847
9104.00   0.35911307   0.01910893
9106.00   0.28675708   0.01696534
9108.00   0.26458225   0.01535075
9110.00   0.29549068   0.01383422
9112.00   0.33216554   0.01266094
9114.00   0.35406643   0.01220971
9116.00   0.37215379   0.01238896
9118.00   0.37035948   0.01260157
9120.00   0.34233040   0.01298361
9122.00   0.32819811   0.01372339
9124.00   0.31516635   0.01516917
9126.00   0.30846113   0.01604887
9128.00   0.30626404   0.01597173
9130.00   0.31219101   0.01545123
9132.00   0.34240529   0.01537746
9134.00   0.40751094   0.01563508
9136.00   0.44159746   0.01536210
9138.00   0.47636747   0.01443206
9140.00   0.47823229   0.01387634
9142.00   0.42322066   0.01384301
9144.00   0.35607049   0.01415976
9146.00   0.34717774   0.01475795
9148.00   0.38048503   0.01561426
9150.00   0.38250488   0.01673674
9152.00   0.37187785   0.01862343
9154.00   0.36271170   0.01953396
9156.00   0.35120162   0.01949563
9158.00   0.34258908   0.01912269
9160.00   0.34607360   0.01893489
9162.00   0.36016780   0.01876116
9164.00   0.35225180   0.01773312
9166.00   0.32226866   0.01493343
9168.00   0.30492789   0.01356539
9170.00   0.28540832   0.01382643
9172.00   0.28391039   0.01449778
9174.00   0.32328594   0.01521583
9176.00   0.38915640   0.01610387
9178.00   0.40648302   0.01575449
9180.00   0.38961309   0.01378042
9182.00   0.37872031   0.01284224
9184.00   0.35415119   0.01250378
9186.00   0.33995003   0.01234417
9188.00   0.34803444   0.01222613
9190.00   0.36627585   0.01227290
9192.00   0.37108168   0.01259388
9194.00   0.36879826   0.01330770
9196.00   0.36923590   0.01370666
9198.00   0.37205148   0.01418990
9200.00   0.36976799   0.01426645
9202.00   0.36316136   0.01354524
9204.00   0.35059997   0.01269060
9206.00   0.32361060   0.01294889
9208.00   0.27125677   0.01385063
9210.00   0.27209467   0.01503586
9212.00   0.32479605   0.01719468
9214.00   0.35852695   0.01820692
9216.00   0.37931755   0.01800774
9218.00   0.38848019   0.01756259
9220.00   0.37572852   0.01771881
9222.00   0.34026307   0.01813519
9224.00   0.34153229   0.01826677
9226.00   0.37138388   0.01844972
9228.00   0.39318067   0.01820368
9230.00   0.42087600   0.01746030
9232.00   0.43686581   0.01652549
9234.00   0.42875844   0.01545090
9236.00   0.40339604   0.01416856
9238.00   0.36977750   0.01366096
9240.00   0.29852316   0.01408324
9242.00   0.27645093   0.01405041
9244.00   0.29761350   0.01373573
9246.00   0.31790781   0.01363294
9248.00   0.32910427   0.01393685
9250.00   0.33424976   0.01446281
9252.00   0.31011155   0.01499014
9254.00   0.23335882   0.01589344
9256.00   0.22508426   0.01602542
9258.00   0.27146873   0.01544615
9260.00   0.30820450   0.01500701
9262.00   0.33919132   0.01490222
9264.00   0.35461950   0.01485027
9266.00   0.31098634   0.01449881
9268.00   0.18950757   0.01370278
9270.00   0.18243653   0.01389682
9272.00   0.27074891   0.01518310
9274.00   0.32980987   0.01579461
9276.00   0.36358136   0.01557927
9278.00   0.38663992   0.01533847
9280.00   0.40226403   0.01580044
9282.00   0.40908626   0.01665054
9284.00   0.40590146   0.01738244
9286.00   0.37736017   0.01829082
9288.00   0.37314841   0.01894495
9290.00   0.40466604   0.01913988
9292.00   0.42287910   0.01962291
9294.00   0.38510773   0.02010170
9296.00   0.31475863   0.02074846
9298.00   0.32026473   0.02580747
9300.00   0.40193358   0.03142671
9302.00   0.43383583   0.03960937
9304.00   0.42286122   0.04982169
9306.00   0.43540671   0.05847931
9308.00   0.51685911   0.06604567
9310.00   0.62016326   0.07263459
9312.00   0.61957854   0.07605480
9314.00   0.52328879   0.07775868
9316.00   0.47459060   0.07742061
9318.00   0.41268843   0.07331351
9320.00   0.38783449   0.07042205
9322.00   0.42503339   0.07041845
9324.00   0.48241201   0.07098474
9326.00   0.49671200   0.06908152
9328.00   0.50250590   0.06545018
9330.00   0.45376772   0.06178542
9332.00   0.34326643   0.05504099
9334.00   0.23581973   0.05214838
9336.00   0.09962305   0.05634692
9338.00   -0.00817260   0.06039594
9340.00   -0.00859038   0.05778635
9342.00   0.07628546   0.05016961
9344.00   0.12208192   0.04505548
9346.00   0.17939016   0.03905460
9348.00   0.21785846   0.03512755
9350.00   0.24056189   0.03450393
9352.00   0.25260141   0.03488362
9354.00   0.25528646   0.03485094
9356.00   0.24791239   0.03514872
9358.00   0.23700456   0.03517852
9360.00   0.19431709   0.03176266
9362.00   0.20528381   0.03597968
9364.00   0.29802808   0.03941605
9366.00   0.34290093   0.05214528
9368.00   0.24572240   0.07356976
9370.00   0.10055801   0.09504411
9372.00   0.17353661   0.10992584
9374.00   0.50385642   0.12949254
9376.00   0.59041619   0.13072148
9378.00   0.56373042   0.11586946
9380.00   0.47838008   0.09875653
9382.00   0.28816631   0.07835698
9384.00   0.07832640   0.05245605
9386.00   0.04508420   0.03486448
9388.00   0.15951075   0.03586445
9390.00   0.17540373   0.03079896
9392.00   0.13662919   0.03032432
9394.00   0.14177300   0.03065301
9396.00   0.20015252   0.03244781
9398.00   0.27743933   0.03470625
9400.00   0.35117495   0.03635956
9402.00   0.43899333   0.03827295
9404.00   0.47467121   0.03738069
9406.00   0.46919250   0.03157699
9408.00   0.45616069   0.02982544
9410.00   0.41797820   0.03199393
9412.00   0.38344863   0.03571373
9414.00   0.38037369   0.04052443
9416.00   0.39505953   0.04615518
9418.00   0.36743805   0.04805911
9420.00   0.27920020   0.04748894
9422.00   0.25847444   0.04700210
9424.00   0.30838907   0.04540581
9426.00   0.33940491   0.04411063
9428.00   0.30175865   0.04271811
9430.00   0.23902753   0.04207955
9432.00   0.25246626   0.04728544
9434.00   0.33720472   0.05713789
9436.00   0.37742254   0.06406133
9438.00   0.40312174   0.07363977
9440.00   0.42699912   0.07730713
9442.00   0.45371705   0.07306476
9444.00   0.47633159   0.06431384
9446.00   0.48442203   0.05663017
9448.00   0.48130828   0.04356690
9450.00   0.47098210   0.04172988
9452.00   0.39645952   0.05029331
9454.00   0.42310876   0.05883996
9456.00   0.64524907   0.07145544
9458.00   0.84427255   0.07988204
9460.00   0.74902064   0.07538354
9462.00   0.42474180   0.05777816
9464.00   0.31499848   0.04950499
9466.00   0.33607602   0.04352897
9468.00   0.29713568   0.04493899
9470.00   0.18804303   0.05645090
9472.00   0.10414384   0.06640222
9474.00   0.11193699   0.07158202
9476.00   0.17898084   0.07506066
9478.00   0.23175707   0.07172074
9480.00   0.33759397   0.05653011
9482.00   0.35927761   0.04668712
9484.00   0.29436821   0.04000112
9486.00   0.23381603   0.03562047
9488.00   0.20363662   0.03409541
9490.00   0.19050269   0.03582412
9492.00   0.23087211   0.03871919
9494.00   0.37391716   0.04295409
9496.00   0.40036702   0.04866011
9498.00   0.35622969   0.05899996
9500.00   0.29488859   0.06319869
9502.00   0.19904877   0.05917208
9504.00   0.10341015   0.05069054
9506.00   0.10993491   0.04467453
9508.00   0.22032832   0.03699886
9510.00   0.23832622   0.03370665
9512.00   0.17109540   0.03656379
9514.00   0.17745006   0.03800712
9516.00   0.28061083   0.03774809
9518.00   0.41487625   0.03751445
9520.00   0.53288049   0.03878661
9522.00   0.67761624   0.04133010
9524.00   0.67731231   0.04123680
9526.00   0.51631171   0.03892808
9528.00   0.41705737   0.03699695
9530.00   0.32801098   0.03489474
9532.00   0.29127699   0.03295936
9534.00   0.37753594   0.03164155
9536.00   0.55855435   0.03080260
9538.00   0.57803392   0.03058027
9540.00   0.46992430   0.03065419
9542.00   0.40984884   0.03197875
9544.00   0.34409079   0.03426408
9546.00   0.30603459   0.03719655
9548.00   0.33431605   0.04120577
9550.00   0.39301991   0.04542243
9552.00   0.35012546   0.04691086
9554.00   0.18832588   0.04586721
9556.00   0.13315108   0.04631561
9558.00   0.11170647   0.04562309
9560.00   0.14082879   0.04775857
9562.00   0.25684327   0.05525241
9564.00   0.40137589   0.06265591
9566.00   0.44616973   0.06270738
9568.00   0.43699005   0.05718129
9570.00   0.39496955   0.05261612
9572.00   0.25653729   0.04484515
9574.00   0.18947999   0.03834027
9576.00   0.21826644   0.03446659
9578.00   0.27726847   0.03214676
9580.00   0.30102101   0.03009331
9582.00   0.30760744   0.02914595
9584.00   0.37217060   0.02925030
9586.00   0.51272458   0.03117676
9588.00   0.59802473   0.03254570
9590.00   0.65580034   0.03437494
9592.00   0.66555279   0.03515948
9594.00   0.58104187   0.03314620
9596.00   0.41736323   0.02859645
9598.00   0.38694054   0.02728995
9600.00   0.48149356   0.02835249
9602.00   0.49255353   0.02918465
9604.00   0.44860381   0.03097036
9606.00   0.39755112   0.03206179
9608.00   0.35387129   0.03135761
9610.00   0.30987900   0.02976528
9612.00   0.28121969   0.03037080
9614.00   0.27380279   0.03214213
9616.00   0.24837546   0.03450166
9618.00   0.19914292   0.03883576
9620.00   0.17404418   0.04116734
9622.00   0.19475737   0.04098069
9624.00   0.23214667   0.03923965
9626.00   0.23508886   0.03645268
9628.00   0.21657112   0.03066291
9630.00   0.20747752   0.02743806
9632.00   0.17805697   0.02572921
9634.00   0.18757017   0.02514447
9636.00   0.26523077   0.02664041
9638.00   0.34769481   0.02835789
9640.00   0.35443559   0.02791891
9642.00   0.30938894   0.02592983
9644.00   0.28665113   0.02517814
9646.00   0.23245957   0.02463848
9648.00   0.23889349   0.02485026
9650.00   0.32799420   0.02599253
9652.00   0.41968697   0.02737652
9654.00   0.45777932   0.02849190
9656.00   0.47029915   0.02956923
9658.00   0.44693533   0.03119065
9660.00   0.33093306   0.03352813
9662.00   0.31713429   0.03513678
9664.00   0.41641277   0.03667178
9666.00   0.49175587   0.03747048
9668.00   0.47331902   0.03698376
9670.00   0.40861434   0.03565911
9672.00   0.37513646   0.03521245
9674.00   0.35277599   0.03493784
9676.00   0.31498843   0.03518732
9678.00   0.25852814   0.03618674
9680.00   0.21344972   0.03699167
9682.00   0.17875306   0.03752638
9684.00   0.16019958   0.03781991
9686.00   0.18898770   0.03738935
9688.00   0.27717948   0.03523769
9690.00   0.32049325   0.03636583
9692.00   0.36704341   0.04006874
9694.00   0.36994147   0.04323014
9696.00   0.29635197   0.04666149
9698.00   0.21429284   0.04914087
9700.00   0.21474850   0.04853259
9702.00   0.26808682   0.04506166
9704.00   0.31375563   0.04324498
9706.00   0.40954152   0.04107608
9708.00   0.43767399   0.04038971
9710.00   0.39414075   0.04185827
9712.00   0.32321036   0.04348858
9714.00   0.24208312   0.04386815
9716.00   0.13653371   0.04369814
9718.00   0.11643509   0.04346941
9720.00   0.17539871   0.04291646
9722.00   0.21414749   0.04234054
9724.00   0.25640950   0.04162434
9726.00   0.29605928   0.04088477
9728.00   0.32868877   0.03993563
9730.00   0.35691422   0.03896784
9732.00   0.38091862   0.03953955
9734.00   0.42417854   0.04114334
9736.00   0.40747556   0.04340704
9738.00   0.31702921   0.04832726
9740.00   0.25215715   0.05024141
9742.00   0.23559783   0.04725850
9744.00   0.24690104   0.04148794
9746.00   0.28358388   0.03764488
9748.00   0.37747374   0.03353581
9750.00   0.39857593   0.03120052
9752.00   0.36854953   0.03175254
9754.00   0.34008226   0.03136908
9756.00   0.32231194   0.02897754
9758.00   0.29518273   0.02655463
9760.00   0.23290919   0.02725420
9762.00   0.13064677   0.03047511
9764.00   0.08832768   0.03128858
9766.00   0.05350526   0.03137737
9768.00   0.08871277   0.03074781
9770.00   0.25132719   0.02806870
9772.00   0.39376578   0.02606094
9774.00   0.37205231   0.02794609
9776.00   0.24137661   0.03205932
9778.00   0.22444129   0.03502923
9780.00   0.25416601   0.03872134
9782.00   0.30485022   0.04081497
9784.00   0.44803634   0.04090708
9786.00   0.51752597   0.04182398
9788.00   0.38209376   0.04506678
9790.00   0.13424505   0.04928142
9792.00   0.09591965   0.05235200
9794.00   0.20602624   0.05702212
9796.00   0.28355607   0.05700003
9798.00   0.42611751   0.05241307
9800.00   0.50655246   0.04743417
9802.00   0.46931738   0.04288416
9804.00   0.37799782   0.03835285
9806.00   0.34461281   0.03599275
9808.00   0.34201494   0.03594549
9810.00   0.30521426   0.03618225
9812.00   0.22471841   0.03786430
9814.00   0.18530658   0.03934399
9816.00   0.19523187   0.04112329
9818.00   0.23656924   0.04230868
9820.00   0.31234586   0.04108286
9822.00   0.46110794   0.03721909
9824.00   0.44036770   0.03574752
9826.00   0.24361961   0.03566960
9828.00   0.12693663   0.03561039
9830.00   0.06859565   0.03615251
9832.00   0.05083194   0.03634929
9834.00   0.08551523   0.03468281
9836.00   0.17380980   0.03121276
9838.00   0.21848308   0.03236930
9840.00   0.24149753   0.03773887
9842.00   0.27703968   0.04072023
9844.00   0.34479070   0.04354594
9846.00   0.37839398   0.04469449
9848.00   0.31503528   0.04271559
9850.00   0.19865605   0.03835743
9852.00   0.22505525   0.03622723
9854.00   0.40413982   0.03476842
9856.00   0.46998572   0.03435250
9858.00   0.47839847   0.03412057
9860.00   0.47636592   0.03624848
9862.00   0.48116139   0.04083233
9864.00   0.47485638   0.04684063
9866.00   0.42892602   0.05404102
9868.00   0.33957687   0.06452673
9870.00   0.26579061   0.06787957
9872.00   0.14646555   0.06760260
9874.00   0.10583224   0.06548569
9876.00   0.18702009   0.06036475
9878.00   0.30702156   0.05349103
9880.00   0.35698992   0.04832890
9882.00   0.37311873   0.04320325
9884.00   0.40853083   0.04081549
9886.00   0.47797132   0.04180601
9888.00   0.48526970   0.04318216
9890.00   0.42219925   0.04567942
9892.00   0.33025682   0.04814215
9894.00   0.22376117   0.04977516
9896.00   0.08262859   0.05123803
9898.00   0.07911227   0.04985080
9900.00   0.22214170   0.04309680
9902.00   0.29958969   0.04089471
9904.00   0.36694363   0.04180500
9906.00   0.38994381   0.04563868
9908.00   0.31835049   0.05310164
9910.00   0.18625256   0.06207009
9912.00   0.17705658   0.06613778
9914.00   0.26860270   0.06912003
9916.00   0.31841317   0.06859095
9918.00   0.37238431   0.06346695
9920.00   0.41061783   0.05787755
9922.00   0.43396151   0.05266307
9924.00   0.43739468   0.04750185
9926.00   0.38914728   0.04531123
9928.00   0.26946133   0.04644893
9930.00   0.20346913   0.04705251
9932.00   0.13340545   0.04572354
9934.00   0.11610108   0.04973968
9936.00   0.19001909   0.05947427
9938.00   0.28350443   0.07044326
9940.00   0.27618706   0.08043591
9942.00   0.16891955   0.09218805
9944.00   0.23707232   0.09605179
9946.00   0.51868331   0.09377798
9948.00   0.63437712   0.09231076
9950.00   0.59339356   0.09006780
9952.00   0.45967972   0.08901501
9954.00   0.22953922   0.09251585
9956.00   -0.12655236   0.09940130
9958.00   -0.24316844   0.10116108
9960.00   -0.19662099   0.10139400
9962.00   -0.13111244   0.09832134
9964.00   0.02580162   0.08961169
9966.00   0.16338888   0.08017050
9968.00   0.20695002   0.07391696
9970.00   0.19920285   0.06929129
9972.00   0.21029031   0.06489938
9974.00   0.20417127   0.06152069
9976.00   0.21847512   0.05908209
9978.00   0.20005645   0.05692963
9980.00   0.26420358   0.05738445
9982.00   0.52602816   0.06342752
9984.00   0.84631646   0.07038201
9986.00   0.83042008   0.06797317
9988.00   0.47024548   0.05312560
9990.00   0.36987823   0.04959342
9992.00   0.38259122   0.05551790
9994.00   0.40636313   0.05894328
9996.00   0.46510816   0.05793460
9998.00   0.51184952   0.05667775
10000.00   0.42629802   0.05935961
10002.00   0.20558424   0.06210299
10004.00   0.13352017   0.07413898
10006.00   0.13342740   0.09590610
10008.00   0.16620252   0.10705779
10010.00   0.27215588   0.11105339
10012.00   0.37129432   0.11146216
10014.00   0.37796596   0.10902026
10016.00   0.32914388   0.10243707
10018.00   0.24938619   0.09955513
10020.00   0.02585840   0.09969006
10022.00   -0.01000194   0.09727854
10024.00   0.17194295   0.09262249
10026.00   0.34940895   0.08693505
10028.00   0.40021178   0.08005442
10030.00   0.39079526   0.07168724
10032.00   0.34640187   0.06765139
10034.00   0.16658381   0.06807856
10036.00   0.15453973   0.06811648
10038.00   0.30123770   0.06975618
10040.00   0.42174494   0.07106340
10042.00   0.47074148   0.07182027
10044.00   0.47533411   0.07200312
10046.00   0.38999349   0.06990403
10048.00   0.13846795   0.06394777
10050.00   0.07310439   0.06162032
10052.00   0.13704160   0.05939535
10054.00   0.19052052   0.06157356
10056.00   0.24175273   0.07061484
10058.00   0.26980352   0.08005804
10060.00   0.18497942   0.08301803
10062.00   -0.03773104   0.08255772
10064.00   -0.07482576   0.08169230
10066.00   0.00274364   0.07768622
10068.00   0.10228035   0.07567590
10070.00   0.25130543   0.07485336
10072.00   0.40751845   0.07632558
10074.00   0.53908497   0.08173336
10076.00   0.68538904   0.08989659
10078.00   0.59894884   0.09794898
10080.00   0.17769478   0.11118634
10082.00   0.00153964   0.11502211
10084.00   0.01740436   0.11086524
10086.00   0.10466992   0.10331586
10088.00   0.23901118   0.09319411
10090.00   0.43210208   0.07856716
10092.00   0.46105069   0.07186012
10094.00   0.27800593   0.07287666
10096.00   0.29750764   0.07366356
10098.00   0.51412725   0.07768143
10100.00   0.66411227   0.08091590
10102.00   0.64631391   0.08250808
10104.00   0.54341644   0.08308649
10106.00   0.45251581   0.08150077
10108.00   0.29226413   0.07508147
10110.00   0.22996315   0.07475026
10112.00   0.24851055   0.07523642
10114.00   0.25436649   0.08226898
10116.00   0.18701835   0.09858529
10118.00   0.14925788   0.11454306
10120.00   0.33426672   0.12060627
10122.00   0.77444649   0.12173193
10124.00   0.90741509   0.12140154
10126.00   0.83935231   0.11792983
10128.00   0.78021008   0.11297955
10130.00   0.69633269   0.10351328
10132.00   0.62474591   0.09463423
10134.00   0.64651811   0.09545774
10136.00   0.75007063   0.10403211
10138.00   0.70588028   0.10335487
10140.00   0.55486578   0.09470620
10142.00   0.40582058   0.09127150
10144.00   0.16260047   0.09237079
10146.00   0.01170674   0.09512652
10148.00   0.13158160   0.09862791
10150.00   0.43000284   0.10319853
10152.00   0.47055826   0.10561145
10154.00   0.34380633   0.10560941
10156.00   0.25057951   0.10810813
10158.00   0.08386350   0.11062204
10160.00   -0.00656919   0.11612944
10162.00   0.04712345   0.12726115
10164.00   0.18942457   0.13979153
10166.00   0.34182686   0.14432600
10168.00   0.68016714   0.14334519
10170.00   0.67129511   0.14335568
10172.00   0.29975474   0.14199652
10174.00   0.05743978   0.14044333
10176.00   0.03836103   0.13857599
10178.00   0.11340998   0.13667572
10180.00   0.18194792   0.13578020
10182.00   0.31128290   0.13579746
10184.00   0.36828509   0.13523217
10186.00   0.37142286   0.13512555
10188.00   0.38961399   0.13376164
10190.00   0.42983478   0.13044930
10192.00   0.46717963   0.12673537
10194.00   0.47862619   0.12367494
10196.00   0.47060215   0.11982374
10198.00   0.47612691   0.12380970
10200.00   0.49564296   0.13533363
10202.00   0.49386761   0.14438884
10204.00   0.46164879   0.15406409
10206.00   0.43465087   0.16129920
10208.00   0.45421648   0.16452739
10210.00   0.50076616   0.16499397
10212.00   0.42324853   0.16029577
10214.00   0.16547152   0.14488122
10216.00   0.08281098   0.13745825
10218.00   0.10815942   0.13368344
10220.00   0.19118525   0.13512407
10222.00   0.35079360   0.14508356
10224.00   0.55568939   0.15852091
10226.00   0.62853694   0.16171655
10228.00   0.65307873   0.15941226
10230.00   0.56367218   0.15494327
10232.00   0.28269660   0.14463337
10234.00   0.08211212   0.13446549
10236.00   -0.03069629   0.12503803
10238.00   -0.04455265   0.11621939
10240.00   0.18388753   0.11037313
10242.00   0.76075453   0.10687445
10244.00   0.90345204   0.10698046
10246.00   0.79273599   0.11224788
10248.00   0.61540079   0.11682785
10250.00   0.26677883   0.12190387
10252.00   -0.05863696   0.12583527
10254.00   -0.07408343   0.12580292
10256.00   0.14951177   0.12235107
10258.00   0.16053097   0.12184887
10260.00   -0.02515425   0.12045994
10262.00   0.00306873   0.12371526
10264.00   0.27306330   0.13317166
10266.00   0.56574494   0.14179595
10268.00   0.77824098   0.14610723
10270.00   0.96805167   0.14835912
10272.00   0.88782531   0.14774267
10274.00   0.43262064   0.13208459
10276.00   0.22339267   0.14184162
10278.00   0.19656108   0.17170869
10280.00   0.13457629   0.19887123
10282.00   -0.12559834   0.22210687
10284.00   -0.43311575   0.24261951
10286.00   -0.31009123   0.24879159
10288.00   0.35030854   0.23881197
10290.00   0.56027359   0.23915185
10292.00   0.57278866   0.24744567
10294.00   0.50085390   0.24830922
10296.00   0.30422473   0.23680760
10298.00   0.06252032   0.21860926
10300.00   -0.00668319   0.20273010
10302.00   0.02463784   0.18126123
10304.00   0.09081192   0.17264207
10306.00   0.30785370   0.18172881
10308.00   0.39328748   0.18207119
10310.00   0.22822976   0.16866241
10312.00   0.08937827   0.15339370
10314.00   0.34365481   0.15230861
10316.00   0.94471353   0.16123152
10318.00   1.01646042   0.16430044
10320.00   0.72034228   0.16978151
10322.00   0.44038612   0.16820845
10324.00   -0.06830524   0.15642339
10326.00   -0.36671579   0.14375545
10328.00   -0.00600984   0.13853213
10330.00   0.81664521   0.13749106
10332.00   1.11807942   0.13849704
10334.00   1.19242632   0.14343166
10336.00   1.17953849   0.14827718
10338.00   0.98813462   0.15576971
10340.00   0.76987618   0.16089858
10342.00   0.58222586   0.15959460
10344.00   0.39083171   0.15576863
10346.00   0.21561758   0.16318773
10348.00   -0.04829889   0.18475215
10350.00   -0.06482567   0.18951109
10352.00   0.19055507   0.18475586
10354.00   0.37408358   0.17809658
10356.00   0.40927687   0.16811164
10358.00   0.38337830   0.15738738
10360.00   0.36365029   0.15683080
10362.00   0.32596001   0.16026606
10364.00   0.25987604   0.17712659
10366.00   0.18402989   0.21164669
10368.00   0.05311074   0.23173043
10370.00   -0.24357928   0.24168675
10372.00   -0.47611105   0.24373795
10374.00   -0.33214298   0.23412974
10376.00   0.09939083   0.20978244
10378.00   0.48065981   0.19358359
10380.00   1.19260323   0.17383234
10382.00   1.39446664   0.16487899
10384.00   0.89547402   0.16937849
10386.00   0.42137975   0.17984878
10388.00   0.55014169   0.19328493
10390.00   1.02003133   0.21063164
10392.00   1.15976644   0.21662109
10394.00   1.14385700   0.21740830
10396.00   1.14960885   0.21281113
10398.00   1.14363909   0.19706956
10400.00   1.10879111   0.18299320
10402.00   1.06640077   0.17867593
10404.00   0.99154419   0.17980148
10406.00   0.73366541   0.18033455
10408.00   0.13571124   0.18280852
10410.00   -0.08558158   0.18597995
10412.00   -0.06783549   0.18567976
10414.00   -0.01490271   0.19420975
10416.00   0.07205389   0.21988612
10418.00   0.16887662   0.24577902
10420.00   0.10876065   0.24716322
10422.00   -0.21132474   0.23031294
10424.00   -0.04830474   0.21600419
10426.00   0.59455788   0.18884245
10428.00   1.05603766   0.17041053
10430.00   1.30690837   0.16914363
10432.00   1.45545006   0.17332254
10434.00   1.56678295   0.16915371
10436.00   1.66112125   0.16028698
10438.00   1.40427172   0.16082528
10440.00   0.56106061   0.16960344
10442.00   0.18999313   0.17593811
10444.00   0.27746704   0.18383105
10446.00   0.52042615   0.18768698
10448.00   0.79708630   0.18139015
10450.00   1.19072723   0.16656233
10452.00   1.18630731   0.15741566
10454.00   0.65179300   0.14490288
10456.00   0.58000910   0.14357595
10458.00   0.96086842   0.15512256
10460.00   1.26378679   0.16697718
10462.00   1.27045083   0.17645866
10464.00   1.11301875   0.18488526
10466.00   0.80055410   0.18430649
10468.00   0.03765890   0.17145222
10470.00   -0.18964069   0.16700482
10472.00   -0.01453521   0.16841023
10474.00   0.14338356   0.16700451
10476.00   0.18181603   0.15916660
10478.00   0.20490296   0.14866239
10480.00   0.29484260   0.14316775
10482.00   0.48798940   0.14159022
10484.00   0.49025446   0.13764302
10486.00   0.23494682   0.12869453
10488.00   0.17996934   0.12786083
10490.00   0.44290942   0.13932537
10492.00   0.76395279   0.15281889
10494.00   0.86542404   0.16001278
10496.00   0.88803893   0.16660491
10498.00   0.68296880   0.16280267
10500.00   0.08218575   0.14315249
10502.00   -0.25069913   0.13097090
10504.00   -0.35377467   0.12669398
10506.00   -0.33698252   0.12639536
10508.00   -0.24460135   0.12872903
10510.00   -0.05218310   0.13455722
10512.00   0.18460922   0.13712019
10514.00   0.62008792   0.13814810
10516.00   0.81781733   0.13972837
10518.00   0.80636102   0.14056307
10520.00   0.74991816   0.14279880
10522.00   0.71841657   0.14904004
10524.00   0.66986948   0.15675880
10526.00   0.59259808   0.15622330
10528.00   0.45588821   0.14886303
10530.00   0.37718341   0.14151886
10532.00   0.32733497   0.12843825
10534.00   0.29447082   0.11825880
10536.00   0.31463632   0.11490887
10538.00   0.33021665   0.11583338
10540.00   0.16927867   0.11791282
10542.00   -0.21268024   0.12401617
10544.00   -0.34961614   0.12648512
10546.00   -0.37482992   0.12856421
10548.00   -0.31553179   0.12797910
10550.00   -0.10345980   0.12263239
10552.00   0.12860654   0.11632421
10554.00   0.15944509   0.11559482
10556.00   0.02354102   0.11920135
10558.00   0.09437338   0.11867829
10560.00   0.37504625   0.11282238
10562.00   0.48960108   0.11352500
10564.00   0.44516996   0.12325957
10566.00   0.33010572   0.13209578
10568.00   0.17515372   0.13366909
10570.00   -0.04642333   0.13130376
10572.00   -0.14113764   0.12877989
10574.00   -0.12661736   0.12301792
10576.00   -0.15565726   0.11935128
10578.00   -0.22842319   0.11704507
10580.00   -0.26459447   0.11548756
10582.00   -0.21936239   0.11431941
10584.00   -0.12156435   0.11383172
10586.00   -0.02824301   0.11504718
10588.00   0.13895246   0.12077446
10590.00   0.18562505   0.12017032
10592.00   0.14633027   0.11315150
10594.00   0.07509857   0.10777433
10596.00   -0.04074435   0.10705623
10598.00   -0.17354411   0.10847192
10600.00   -0.21915236   0.10942447
10602.00   -0.24642201   0.11231498
10604.00   -0.13644440   0.11128511
10606.00   0.21267509   0.10628244
10608.00   0.40155098   0.10228439
10610.00   0.35070682   0.09962174
10612.00   0.22269712   0.09786616
10614.00   0.19055583   0.09758295
10616.00   0.18994015   0.09922290
10618.00   0.17128572   0.09880747
10620.00   0.16401744   0.09708511
10622.00   0.12665059   0.09559505
10624.00   0.02643639   0.09408220
10626.00   -0.05232049   0.09272623
10628.00   -0.01890613   0.09185314
10630.00   0.09717353   0.09135434
10632.00   0.10471025   0.09082124
10634.00   0.01953446   0.09030370
10636.00   -0.00365160   0.09009067
10638.00   0.01236285   0.09040974
10640.00   0.04639436   0.09055295
10642.00   0.08677889   0.08951312
10644.00   0.14126642   0.08801807
10646.00   0.23686206   0.09039491
10648.00   0.47709599   0.09885208
10650.00   0.48382023   0.10004310
10652.00   0.25502348   0.09577965
10654.00   0.07685576   0.09146068
10656.00   0.04092086   0.08799141
10658.00   0.06019834   0.08516389
10660.00   0.04065673   0.08595797
10662.00   0.01871085   0.09054619
10664.00   -0.00801307   0.09345455
10666.00   -0.06314092   0.09824999
10668.00   -0.07661217   0.09945206
10670.00   -0.01701212   0.09486177
10672.00   0.05542317   0.08852381
10674.00   0.04752734   0.08692759
10676.00   -0.03962709   0.08776757
10678.00   0.01403237   0.09021145
10680.00   0.21500456   0.09720670
10682.00   0.33084571   0.09992051
10684.00   0.35533255   0.09752823
10686.00   0.35813615   0.09456924
10688.00   0.39008304   0.09496544
10690.00   0.43085000   0.09701189
10692.00   0.43610832   0.09930454
10694.00   0.40081716   0.10435774
10696.00   0.38829195   0.10541728
10698.00   0.36894563   0.10275675
10700.00   0.38529772   0.09912413
10702.00   0.49907008   0.09525651
10704.00   0.66759962   0.09077367
10706.00   0.63726938   0.09020716
10708.00   0.40089071   0.09482287
10710.00   0.28142035   0.09535567
10712.00   0.17890026   0.09197375
10714.00   0.12770365   0.09099983
10716.00   0.17751719   0.09567051
10718.00   0.26383469   0.10212799
10720.00   0.20262773   0.10399771
10722.00   0.00498686   0.10346808
10724.00   -0.09865810   0.10233760
10726.00   -0.19392760   0.09753589
10728.00   -0.23560667   0.09609392
10730.00   -0.21323511   0.10066564
10732.00   -0.14593270   0.10626694
10734.00   -0.04718076   0.10691510
10736.00   0.11664188   0.10409939
10738.00   0.18756762   0.10420945
10740.00   0.21328405   0.10710115
10742.00   0.20099643   0.10706586
10744.00   0.10930928   0.10317827
10746.00   0.02781772   0.09852327
10748.00   0.03065811   0.09578144
10750.00   0.07184714   0.09365632
10752.00   0.28721428   0.09417030
10754.00   0.91542584   0.10080436
10756.00   1.05464005   0.10022438
10758.00   0.63540804   0.09093440
10760.00   0.24926938   0.08162732
10762.00   0.23377188   0.07868598
10764.00   0.39802912   0.07950492
10766.00   0.50496089   0.08304358
10768.00   0.71986234   0.09492785
10770.00   0.77113295   0.09599263
10772.00   0.69996947   0.08769498
10774.00   0.58823186   0.07990375
10776.00   0.42881137   0.07593822
10778.00   0.24603583   0.07438476
10780.00   0.17614184   0.07780825
10782.00   0.16541283   0.09051954
10784.00   0.22314055   0.08993834
10786.00   0.41887683   0.07723345
10788.00   0.54630703   0.06712855
10790.00   0.57889456   0.06402547
10792.00   0.55995804   0.06406222
10794.00   0.51548392   0.06373844
10796.00   0.43894675   0.06450127
10798.00   0.30798233   0.06640188
10800.00   0.02065631   0.07273905
10802.00   -0.09447674   0.07308625
10804.00   -0.01143757   0.06473709
10806.00   0.14658311   0.05424629
10808.00   0.32033330   0.05082411
10810.00   0.57352859   0.05169347
10812.00   0.51527202   0.05552748
10814.00   0.10807985   0.06353266
10816.00   -0.11905984   0.07048402
10818.00   -0.26584476   0.08051287
10820.00   -0.32582882   0.08577371
10822.00   -0.27287096   0.08120615
10824.00   -0.12186301   0.06900437
10826.00   0.07323740   0.06193700
10828.00   0.41883144   0.05365219
10830.00   0.62537712   0.05200065
10832.00   0.82559252   0.05707794
10834.00   0.86646581   0.06422208
10836.00   0.62414563   0.07456573
10838.00   0.23591304   0.08451214
10840.00   0.06874815   0.08383472
10842.00   -0.05428178   0.07288077
10844.00   0.01591077   0.06513343
10846.00   0.40396675   0.05384709
10848.00   0.62877119   0.04443486
10850.00   0.58244717   0.04045798
10852.00   0.44012251   0.04010541
10854.00   0.39603904   0.03948147
10856.00   0.38151723   0.03994064
10858.00   0.34253454   0.04312148
10860.00   0.27842003   0.05052469
