# File created by shivutils (I.Shivvers)
# wl(A)   flm    er(optional)
3438.00   0.34635835   0.04810842
3440.00   0.34376231   0.04951680
3442.00   0.42773707   0.05239054
3444.00   0.42081448   0.05162098
3446.00   0.43179168   0.05343009
3448.00   0.37912039   0.05480062
3450.00   0.48836893   0.05764875
3452.00   0.49648945   0.05825731
3454.00   0.50203581   0.05996195
3456.00   0.55385515   0.06026186
3458.00   0.48437971   0.05906273
3460.00   0.35239499   0.05789198
3462.00   0.65474609   0.06060621
3464.00   0.56325817   0.06029145
3466.00   0.42085866   0.05873351
3468.00   0.34525106   0.05739200
3470.00   0.48707142   0.05948605
3472.00   0.39909512   0.05976233
3474.00   0.44407385   0.05945060
3476.00   0.41566616   0.05977404
3478.00   0.41203107   0.06175615
3480.00   0.42177710   0.06425410
3482.00   0.48143405   0.06467808
3484.00   0.50007857   0.06321318
3486.00   0.43598915   0.06277516
3488.00   0.47457913   0.06228270
3490.00   0.54008468   0.06234457
3492.00   0.69415847   0.06349799
3494.00   0.47432327   0.06038220
3496.00   0.53800795   0.06134004
3498.00   0.49264658   0.06105843
3500.00   0.52683521   0.06160615
3502.00   0.40455695   0.05960661
3504.00   0.42264478   0.06079637
3506.00   0.55812192   0.06102502
3508.00   0.43132912   0.06055439
3510.00   0.46172924   0.06044370
3512.00   0.44904828   0.05982346
3514.00   0.44576810   0.05942813
3516.00   0.45133977   0.05915049
3518.00   0.59114531   0.05955502
3520.00   0.47745414   0.05830829
3522.00   0.46566915   0.05811050
3524.00   0.44934504   0.05705165
3526.00   0.59936049   0.05738376
3528.00   0.47052361   0.05684145
3530.00   0.43108742   0.05618330
3532.00   0.45846371   0.05664897
3534.00   0.42263767   0.05598491
3536.00   0.45531894   0.05630133
3538.00   0.52327898   0.05799310
3540.00   0.44788831   0.05799177
3542.00   0.48487703   0.06010077
3544.00   0.51822734   0.06046779
3546.00   0.47524587   0.05878909
3548.00   0.45094088   0.05736786
3550.00   0.53763730   0.05834892
3552.00   0.44744859   0.05685366
3554.00   0.42414072   0.05667494
3556.00   0.43620384   0.05679693
3558.00   0.54027556   0.05748677
3560.00   0.64131908   0.05724513
3562.00   0.50331266   0.05485705
3564.00   0.50629798   0.05366409
3566.00   0.67545654   0.05567655
3568.00   0.57506904   0.05409114
3570.00   0.53224511   0.05260151
3572.00   0.53707746   0.05370630
3574.00   0.57777584   0.05403825
3576.00   0.56759423   0.05268425
3578.00   0.54092696   0.05175543
3580.00   0.54674278   0.05185654
3582.00   0.57159406   0.05102327
3584.00   0.58005978   0.05013406
3586.00   0.55466676   0.04900678
3588.00   0.60859157   0.05037536
3590.00   0.68511877   0.05192714
3592.00   0.69719133   0.05076871
3594.00   0.60980368   0.04899341
3596.00   0.55054321   0.04851415
3598.00   0.57236411   0.04806391
3600.00   0.74426272   0.04969683
3602.00   0.80118657   0.04964774
3604.00   0.66557520   0.04799064
3606.00   0.68474385   0.04753559
3608.00   0.64940074   0.04696754
3610.00   0.62494306   0.04638950
3612.00   0.78033664   0.04978516
3614.00   0.59066687   0.04932092
3616.00   0.73214455   0.04884744
3618.00   0.58444153   0.04645703
3620.00   0.70401964   0.04682822
3622.00   0.66919430   0.04667493
3624.00   0.83419454   0.04810432
3626.00   0.68657342   0.04657031
3628.00   0.66982314   0.04753324
3630.00   0.77664895   0.04890787
3632.00   0.73027084   0.04847946
3634.00   0.68479809   0.04677036
3636.00   0.69442220   0.04688267
3638.00   0.71449353   0.04655576
3640.00   0.75149290   0.04799030
3642.00   0.73358107   0.04875356
3644.00   0.79381623   0.04951219
3646.00   0.77996218   0.05108805
3648.00   0.79027275   0.06332592
3650.00   0.80642698   0.06900643
3652.00   0.84021451   0.06439612
3654.00   0.75644339   0.05821859
3656.00   0.69722273   0.05345998
3658.00   0.65943018   0.04687152
3660.00   0.74028270   0.04821983
3662.00   0.74674621   0.05322322
3664.00   0.81424954   0.05166530
3666.00   0.77702547   0.04497518
3668.00   0.68172784   0.04209971
3670.00   0.82193430   0.04264182
3672.00   0.71422361   0.04123849
3674.00   0.69501905   0.04061000
3676.00   0.72029660   0.04021500
3678.00   0.62466027   0.03864474
3680.00   0.71297390   0.03943564
3682.00   0.72205964   0.03923809
3684.00   0.68449517   0.03899326
3686.00   0.69002313   0.03819435
3688.00   0.76439450   0.03898459
3690.00   0.78087494   0.03957346
3692.00   0.63991566   0.03842712
3694.00   0.66267726   0.03806895
3696.00   0.72681579   0.03856245
3698.00   0.70114452   0.03904812
3700.00   0.70265714   0.03823857
3702.00   0.68046384   0.03831848
3704.00   0.78554294   0.03925365
3706.00   0.80156883   0.03818923
3708.00   0.80558136   0.03839357
3710.00   0.86823535   0.03883225
3712.00   0.80848873   0.03810714
3714.00   0.79001493   0.03761884
3716.00   0.85960110   0.03833154
3718.00   0.90665817   0.03841374
3720.00   0.99028637   0.03865180
3722.00   0.92202924   0.03830085
3724.00   0.88458053   0.03740704
3726.00   0.96999141   0.03848950
3728.00   0.94023684   0.03832427
3730.00   0.86768427   0.03751269
3732.00   0.95826240   0.03844816
3734.00   1.02886500   0.03811032
3736.00   0.94702397   0.03774353
3738.00   1.04955231   0.03880303
3740.00   1.03339901   0.03905844
3742.00   1.10365480   0.03964614
3744.00   1.09822066   0.03866168
3746.00   1.05776042   0.03756509
3748.00   1.04853432   0.03744598
3750.00   1.06449031   0.03760948
3752.00   1.08668081   0.03799688
3754.00   1.15132912   0.03848787
3756.00   1.06382189   0.03748675
3758.00   1.09415426   0.03731738
3760.00   1.05668690   0.03668997
3762.00   1.08461467   0.03685440
3764.00   1.08022867   0.03655500
3766.00   1.07690689   0.03610736
3768.00   1.05356248   0.03587622
3770.00   0.99348078   0.03691222
3772.00   0.90234217   0.03476811
3774.00   1.03639264   0.03583145
3776.00   0.97036800   0.03490383
3778.00   0.83534539   0.03397839
3780.00   0.91682209   0.03437212
3782.00   0.90563924   0.03439682
3784.00   0.88711059   0.03432119
3786.00   0.92006309   0.03387635
3788.00   0.80491329   0.03285732
3790.00   0.82931000   0.03347250
3792.00   0.84092458   0.03333373
3794.00   0.99185769   0.03422976
3796.00   1.34235383   0.03711811
3798.00   1.75902115   0.03994100
3800.00   1.57585224   0.03880599
3802.00   1.05847779   0.03519046
3804.00   0.83032767   0.03253802
3806.00   0.83614442   0.03231646
3808.00   0.82702798   0.03190712
3810.00   0.81454935   0.03177437
3812.00   0.80600584   0.03242367
3814.00   0.77168693   0.03129894
3816.00   0.75526018   0.03123523
3818.00   0.73789882   0.03120760
3820.00   0.71966695   0.03083099
3822.00   0.70286699   0.03052384
3824.00   0.73957586   0.03044893
3826.00   0.76326682   0.03095638
3828.00   0.66344527   0.03075431
3830.00   0.68171035   0.03097777
3832.00   0.69981635   0.03063484
3834.00   0.70540689   0.03038416
3836.00   0.63708750   0.02995038
3838.00   0.64635581   0.02985775
3840.00   0.66901881   0.03014873
3842.00   0.65400893   0.02987129
3844.00   0.64044887   0.02954688
3846.00   0.56318442   0.02856199
3848.00   0.58740856   0.02843431
3850.00   0.64263314   0.02878916
3852.00   0.65548840   0.02881779
3854.00   0.62963972   0.02884182
3856.00   0.55177309   0.02752137
3858.00   0.57417066   0.02744200
3860.00   0.61440835   0.02768854
3862.00   0.57333929   0.02779692
3864.00   0.61628858   0.02815032
3866.00   0.59703063   0.02750911
3868.00   0.65474510   0.02807949
3870.00   0.57483006   0.02705041
3872.00   0.56438096   0.02763471
3874.00   0.58010285   0.02842959
3876.00   0.61781107   0.02829136
3878.00   0.64580083   0.02806036
3880.00   0.59420116   0.02720326
3882.00   0.66898005   0.02743850
3884.00   0.64380275   0.02743041
3886.00   0.67132158   0.02770729
3888.00   0.73055298   0.02803964
3890.00   0.68247277   0.02760206
3892.00   0.69747327   0.02787147
3894.00   0.72422325   0.02840872
3896.00   0.71045697   0.02834747
3898.00   0.66822537   0.02785432
3900.00   0.76381525   0.02871932
3902.00   0.74551112   0.02875082
3904.00   0.79770254   0.03028140
3906.00   0.81604591   0.03290062
3908.00   0.78394840   0.03372930
3910.00   0.85396886   0.03443883
3912.00   0.90012362   0.03445870
3914.00   0.86877011   0.03281146
3916.00   0.87629344   0.03124106
3918.00   0.90415023   0.03035444
3920.00   0.98607769   0.03025708
3922.00   0.96197038   0.02968321
3924.00   0.95512373   0.02940439
3926.00   1.00024026   0.02961615
3928.00   0.98935751   0.02906033
3930.00   1.00378081   0.02928985
3932.00   0.97753931   0.02991035
3934.00   1.11276123   0.03058927
3936.00   1.11777438   0.02981976
3938.00   1.10574550   0.02963760
3940.00   1.19028169   0.03067606
3942.00   1.31491660   0.03230505
3944.00   1.24952770   0.03233828
3946.00   1.21122953   0.03156567
3948.00   1.29086729   0.03140774
3950.00   1.28254143   0.03099669
3952.00   1.31604280   0.03108390
3954.00   1.30788376   0.03081737
3956.00   1.31191454   0.03081190
3958.00   1.27880628   0.03093958
3960.00   1.34208638   0.03214270
3962.00   1.37749121   0.03224880
3964.00   1.35612174   0.03074660
3966.00   1.28829634   0.02970672
3968.00   1.29538669   0.02946400
3970.00   1.34337805   0.02976843
3972.00   1.36703443   0.03034437
3974.00   1.35383116   0.03021176
3976.00   1.41501678   0.03121177
3978.00   1.44397005   0.03102841
3980.00   1.41342337   0.03082795
3982.00   1.41722296   0.03057230
3984.00   1.41776339   0.03039748
3986.00   1.46008942   0.03069585
3988.00   1.41647171   0.03068127
3990.00   1.48017723   0.03101498
3992.00   1.43286261   0.03058901
3994.00   1.46384722   0.03138953
3996.00   1.43344908   0.03192577
3998.00   1.46751317   0.03184468
4000.00   1.51441244   0.03108400
4002.00   1.49395655   0.03069795
4004.00   1.50324604   0.03048923
4006.00   1.43260616   0.03030522
4008.00   1.43525545   0.03062480
4010.00   1.50547899   0.03119113
4012.00   1.48890021   0.03092392
4014.00   1.49484399   0.03085076
4016.00   1.52453274   0.03125140
4018.00   1.57908037   0.03313679
4020.00   1.66347599   0.03544522
4022.00   1.60457799   0.03584377
4024.00   1.57063694   0.03492985
4026.00   1.56731231   0.03339463
4028.00   1.53710857   0.03222426
4030.00   1.52481701   0.03190987
4032.00   1.54017606   0.03151283
4034.00   1.57305639   0.03143626
4036.00   1.55539209   0.03115673
4038.00   1.51827972   0.03070020
4040.00   1.49461537   0.03075748
4042.00   1.48030289   0.03232570
4044.00   1.37284440   0.04360980
4046.00   1.45716890   0.05202996
4048.00   1.44969667   0.04681153
4050.00   1.41221307   0.03479309
4052.00   1.45179151   0.03179164
4054.00   1.32593337   0.03117957
4056.00   1.36632533   0.03077188
4058.00   1.33357724   0.02938962
4060.00   1.25672869   0.02859369
4062.00   1.26962267   0.02841665
4064.00   1.27706777   0.02845670
4066.00   1.20968641   0.02795936
4068.00   1.19642808   0.02778451
4070.00   1.16527502   0.02729080
4072.00   1.17652443   0.02711781
4074.00   1.14985085   0.02774741
4076.00   1.14578754   0.03022517
4078.00   1.15529372   0.03111581
4080.00   1.10657992   0.02973496
4082.00   1.18566625   0.02920798
4084.00   1.14664844   0.02862183
4086.00   1.11810073   0.02803399
4088.00   1.11325149   0.02719694
4090.00   1.13721868   0.02630792
4092.00   1.08739172   0.02581149
4094.00   1.14619194   0.02591261
4096.00   1.09077968   0.02563224
4098.00   1.08865307   0.02554498
4100.00   1.06671692   0.02527856
4102.00   1.10097093   0.02511258
4104.00   1.12096171   0.02507685
4106.00   1.09627465   0.02523648
4108.00   1.10224631   0.02528727
4110.00   1.08448383   0.02513211
4112.00   1.13082265   0.02543247
4114.00   1.13809105   0.02544319
4116.00   1.09237332   0.02500510
4118.00   1.11069509   0.02489215
4120.00   1.13318389   0.02478093
4122.00   1.09181962   0.02460731
4124.00   1.10576529   0.02474661
4126.00   1.12646919   0.02496886
4128.00   1.12446993   0.02494632
4130.00   1.14088684   0.02543906
4132.00   1.14106378   0.02587184
4134.00   1.15078078   0.02586750
4136.00   1.07129901   0.02484096
4138.00   1.16699689   0.02574794
4140.00   1.11952249   0.02580505
4142.00   1.13115832   0.02521827
4144.00   1.04791561   0.02408629
4146.00   1.10934184   0.02434589
4148.00   1.09295315   0.02435064
4150.00   1.04493903   0.02477270
4152.00   1.10569585   0.02556191
4154.00   1.08706921   0.02503498
4156.00   1.07381938   0.02432501
4158.00   1.04609357   0.02402705
4160.00   1.06277194   0.02428467
4162.00   0.96842880   0.02458079
4164.00   1.02436172   0.02568831
4166.00   1.04585156   0.02551039
4168.00   0.98759930   0.02414448
4170.00   1.00063963   0.02365531
4172.00   0.99210351   0.02319375
4174.00   0.98516869   0.02285636
4176.00   0.99888512   0.02310519
4178.00   1.02461357   0.02341796
4180.00   1.01590086   0.02320667
4182.00   1.01912210   0.02278001
4184.00   0.98215862   0.02256165
4186.00   1.00457821   0.02265189
4188.00   1.02495250   0.02278888
4190.00   1.00988675   0.02271275
4192.00   0.99753099   0.02307031
4194.00   1.03773449   0.02300544
4196.00   0.98471196   0.02232381
4198.00   1.03183354   0.02231299
4200.00   1.00090266   0.02225868
4202.00   1.02109052   0.02226733
4204.00   1.04567613   0.02257352
4206.00   0.98943824   0.02255932
4208.00   1.02790247   0.02291010
4210.00   1.03945472   0.02318139
4212.00   1.02391844   0.02301194
4214.00   1.06059009   0.02295862
4216.00   1.11881985   0.02308797
4218.00   1.10008657   0.02301313
4220.00   1.10881357   0.02298951
4222.00   1.07758544   0.02273790
4224.00   1.11379948   0.02282638
4226.00   1.14549983   0.02292787
4228.00   1.12950880   0.02296548
4230.00   1.17533776   0.02353026
4232.00   1.13602165   0.02350202
4234.00   1.19344545   0.02389045
4236.00   1.17941277   0.02391906
4238.00   1.22271227   0.02428649
4240.00   1.15323084   0.02342804
4242.00   1.19118211   0.02334104
4244.00   1.23706380   0.02506243
4246.00   1.19528756   0.02634599
4248.00   1.22823378   0.02586437
4250.00   1.17375471   0.02403743
4252.00   1.26475439   0.02367671
4254.00   1.26916687   0.02369332
4256.00   1.22658694   0.02365978
4258.00   1.22960700   0.02346840
4260.00   1.22652030   0.02329548
4262.00   1.21688950   0.02318998
4264.00   1.23438203   0.02323905
4266.00   1.20759437   0.02310308
4268.00   1.23508910   0.02321297
4270.00   1.17693326   0.02282411
4272.00   1.23728067   0.02317000
4274.00   1.27877921   0.02338860
4276.00   1.20129449   0.02306990
4278.00   1.21535674   0.02315578
4280.00   1.19870207   0.02324235
4282.00   1.14261638   0.02294970
4284.00   1.18078080   0.02307622
4286.00   1.23293862   0.02305840
4288.00   1.20813241   0.02291974
4290.00   1.14905770   0.02267159
4292.00   1.17437744   0.02274540
4294.00   1.16755000   0.02288440
4296.00   1.15070209   0.02274390
4298.00   1.17692621   0.02269843
4300.00   1.21366049   0.02263314
4302.00   1.21653556   0.02261507
4304.00   1.18012030   0.02268971
4306.00   1.11471411   0.02247671
4308.00   1.14823439   0.02257146
4310.00   1.15647667   0.02290389
4312.00   1.18248072   0.02422192
4314.00   1.13755138   0.02465922
4316.00   1.17970257   0.02413325
4318.00   1.12325450   0.02386762
4320.00   1.16295342   0.02428209
4322.00   1.11579217   0.02411919
4324.00   1.13964406   0.02379450
4326.00   1.18098755   0.02366921
4328.00   1.12218849   0.02293028
4330.00   1.15904011   0.02298828
4332.00   1.09848060   0.02251797
4334.00   1.15873686   0.02284547
4336.00   1.19402552   0.02335757
4338.00   1.10394378   0.02316202
4340.00   1.15693020   0.02345936
4342.00   1.11468093   0.02331262
4344.00   1.08496617   0.02362917
4346.00   1.14532889   0.02467752
4348.00   1.08808284   0.02466044
4350.00   1.15122185   0.02442846
4352.00   1.11686849   0.02404503
4354.00   1.06665621   0.02833120
4356.00   1.09915187   0.04367566
4358.00   1.27099571   0.05101355
4360.00   1.12428612   0.04382795
4362.00   1.15405274   0.03215522
4364.00   1.12914235   0.02597554
4366.00   1.14720464   0.02495861
4368.00   1.20054575   0.02468652
4370.00   1.21692518   0.02466183
4372.00   1.16911576   0.02492193
4374.00   1.17350449   0.02517188
4376.00   1.19147686   0.02480017
4378.00   1.09748338   0.02380664
4380.00   1.20230935   0.02386047
4382.00   1.18985150   0.02355132
4384.00   1.20929760   0.02338106
4386.00   1.15954427   0.02314413
4388.00   1.10602250   0.02299866
4390.00   1.15620549   0.02317023
4392.00   1.11758562   0.02300899
4394.00   1.15858384   0.02306419
4396.00   1.05044110   0.02265970
4398.00   1.01740693   0.02304449
4400.00   1.11339356   0.02364379
4402.00   1.07100315   0.02322373
4404.00   1.03802411   0.02276379
4406.00   1.02030700   0.02245966
4408.00   1.02521494   0.02250789
4410.00   1.04079950   0.02265695
4412.00   0.95012921   0.02242939
4414.00   0.92280202   0.02266940
4416.00   0.94169125   0.02269177
4418.00   0.97350754   0.02251708
4420.00   1.00536665   0.02248034
4422.00   1.01234472   0.02240946
4424.00   0.94794875   0.02200552
4426.00   0.91170604   0.02184998
4428.00   0.92263846   0.02180774
4430.00   0.89749123   0.02166884
4432.00   0.85658600   0.02146693
4434.00   0.87253448   0.02145849
4436.00   0.86693830   0.02145959
4438.00   0.82978000   0.02126735
4440.00   0.84496420   0.02123641
4442.00   0.83540441   0.02112065
4444.00   0.79809371   0.02092985
4446.00   0.81205896   0.02090782
4448.00   0.79719084   0.02084610
4450.00   0.79101279   0.02070088
4452.00   0.76415510   0.02059134
4454.00   0.79019088   0.02070639
4456.00   0.78362720   0.02063705
4458.00   0.71636306   0.02031181
4460.00   0.79198821   0.02064648
4462.00   0.77072729   0.02050600
4464.00   0.75679751   0.02042905
4466.00   0.71453736   0.02022304
4468.00   0.69044139   0.01998044
4470.00   0.70498240   0.02009029
4472.00   0.75965808   0.02038488
4474.00   0.72566532   0.02015731
4476.00   0.67255790   0.01996627
4478.00   0.70281167   0.02005974
4480.00   0.72051478   0.02006579
4482.00   0.71573500   0.02008040
4484.00   0.67135528   0.01988711
4486.00   0.68283203   0.01997736
4488.00   0.67083121   0.01983081
4490.00   0.68231992   0.02001238
4492.00   0.70747251   0.02029218
4494.00   0.72860258   0.02047106
4496.00   0.74274585   0.02045325
4498.00   0.68642939   0.02026632
4500.00   0.71782213   0.02019637
4502.00   0.67697425   0.01993595
4504.00   0.73217246   0.02012743
4506.00   0.75938193   0.02024470
4508.00   0.73432000   0.02007131
4510.00   0.70162290   0.01970911
4512.00   0.72410332   0.01982565
4514.00   0.74533787   0.01986281
4516.00   0.75056431   0.01976698
4518.00   0.73573597   0.01961146
4520.00   0.77782011   0.01980120
4522.00   0.76180967   0.01964981
4524.00   0.77683357   0.01960847
4526.00   0.76012279   0.01950226
4528.00   0.76842268   0.01954292
4530.00   0.78164749   0.01956333
4532.00   0.83546745   0.01972096
4534.00   0.80489568   0.01960689
4536.00   0.84067372   0.01969733
4538.00   0.83248956   0.01968395
4540.00   0.84470094   0.01983031
4542.00   0.87657061   0.02011969
4544.00   0.85654758   0.02012142
4546.00   0.83066293   0.01984813
4548.00   0.82892934   0.01969350
4550.00   0.82924894   0.01946530
4552.00   0.86583916   0.01946958
4554.00   0.85578091   0.01954763
4556.00   0.88132981   0.01972825
4558.00   0.84886800   0.01959527
4560.00   0.87341188   0.01954803
4562.00   0.91236244   0.01964073
4564.00   0.91703291   0.01957616
4566.00   0.88677978   0.01928740
4568.00   0.89072910   0.01937492
4570.00   0.93293174   0.01964395
4572.00   0.93395117   0.01970178
4574.00   0.93644124   0.01974616
4576.00   0.95805619   0.01977164
4578.00   0.99824199   0.01979211
4580.00   0.97825892   0.01956901
4582.00   0.99946443   0.01951042
4584.00   1.03180462   0.01958767
4586.00   1.02457947   0.01955055
4588.00   1.05543556   0.01975957
4590.00   1.01757934   0.01961222
4592.00   1.05727645   0.01981617
4594.00   1.12257398   0.02011653
4596.00   1.11924649   0.02017104
4598.00   1.14462578   0.02041311
4600.00   1.16391473   0.02007999
4602.00   1.18531726   0.02040899
4604.00   1.21230014   0.02024430
4606.00   1.25916531   0.02044271
4608.00   1.24362804   0.02045176
4610.00   1.26447792   0.02067676
4612.00   1.24389170   0.02044050
4614.00   1.33855838   0.02068708
4616.00   1.31119781   0.02049355
4618.00   1.34905852   0.02064733
4620.00   1.38490843   0.02087144
4622.00   1.46262993   0.02110153
4624.00   1.42430679   0.02105636
4626.00   1.48034352   0.02129411
4628.00   1.53689327   0.02140487
4630.00   1.53003236   0.02141904
4632.00   1.54564838   0.02145592
4634.00   1.53693413   0.02140343
4636.00   1.55398442   0.02144761
4638.00   1.59848265   0.02169070
4640.00   1.61088427   0.02167601
4642.00   1.64220169   0.02173693
4644.00   1.66240998   0.02183333
4646.00   1.66785675   0.02176078
4648.00   1.68623131   0.02192892
4650.00   1.75712455   0.02222230
4652.00   1.73487620   0.02222600
4654.00   1.73019551   0.02221623
4656.00   1.79831025   0.02253649
4658.00   1.77064568   0.02257715
4660.00   1.78588476   0.02280483
4662.00   1.79982729   0.02296863
4664.00   1.81686571   0.02323190
4666.00   1.83382672   0.02355698
4668.00   1.84026820   0.02371700
4670.00   1.85530287   0.02377537
4672.00   1.88411099   0.02383277
4674.00   1.89101549   0.02365700
4676.00   1.91303743   0.02344458
4678.00   1.93628050   0.02342585
4680.00   1.92576942   0.02317703
4682.00   1.89585862   0.02298501
4684.00   1.90011366   0.02294978
4686.00   1.88974029   0.02284723
4688.00   1.94543553   0.02293609
4690.00   1.91655176   0.02274855
4692.00   1.93975030   0.02278229
4694.00   1.94287215   0.02275419
4696.00   1.94933576   0.02272250
4698.00   1.97688066   0.02271873
4700.00   1.93634377   0.02251464
4702.00   1.87549481   0.02234170
4704.00   1.92494408   0.02269530
4706.00   1.94064473   0.02283997
4708.00   1.91092653   0.02279376
4710.00   1.86548015   0.02263098
4712.00   1.83788502   0.02241255
4714.00   1.85068196   0.02244228
4716.00   1.80685606   0.02211420
4718.00   1.74373526   0.02189948
4720.00   1.73980268   0.02186229
4722.00   1.74289601   0.02181768
4724.00   1.70566985   0.02163262
4726.00   1.68173246   0.02198377
4728.00   1.68190137   0.02248711
4730.00   1.65367821   0.02247625
4732.00   1.59735074   0.02229632
4734.00   1.62833501   0.02272268
4736.00   1.59832322   0.02263641
4738.00   1.52281373   0.02274155
4740.00   1.47426913   0.02293238
4742.00   1.50664669   0.02328225
4744.00   1.46519209   0.02266676
4746.00   1.41744815   0.02154128
4748.00   1.39155724   0.02068917
4750.00   1.38968993   0.02061267
4752.00   1.37360816   0.02072345
4754.00   1.31498028   0.02032389
4756.00   1.31643912   0.01989846
4758.00   1.31592599   0.01957727
4760.00   1.26856352   0.01914902
4762.00   1.24970482   0.01890827
4764.00   1.22681563   0.01883354
4766.00   1.24255830   0.01879343
4768.00   1.25131487   0.01880302
4770.00   1.25759972   0.01874430
4772.00   1.19045601   0.01845851
4774.00   1.22478313   0.01867289
4776.00   1.21287485   0.01888502
4778.00   1.19098515   0.01909648
4780.00   1.18235011   0.01903836
4782.00   1.18494655   0.01870795
4784.00   1.14614916   0.01832928
4786.00   1.14854451   0.01827781
4788.00   1.14726378   0.01820388
4790.00   1.13153653   0.01825479
4792.00   1.12316493   0.01825181
4794.00   1.15563619   0.01829095
4796.00   1.09992372   0.01796932
4798.00   1.13348114   0.01804545
4800.00   1.12380145   0.01796095
4802.00   1.10975090   0.01790529
4804.00   1.07911138   0.01779126
4806.00   1.05002453   0.01770001
4808.00   1.03334866   0.01766048
4810.00   1.03808441   0.01761997
4812.00   1.01066703   0.01754389
4814.00   0.97949873   0.01745207
4816.00   0.99383309   0.01748194
4818.00   0.93941805   0.01724362
4820.00   0.92268279   0.01731193
4822.00   0.94120484   0.01743358
4824.00   0.93731075   0.01751272
4826.00   0.91893884   0.01748989
4828.00   0.89494639   0.01735883
4830.00   0.90760088   0.01742854
4832.00   0.88582610   0.01746837
4834.00   0.88214365   0.01738001
4836.00   0.85881593   0.01724999
4838.00   0.87897151   0.01761665
4840.00   0.87545329   0.01772515
4842.00   0.88686721   0.01756659
4844.00   0.84823680   0.01721212
4846.00   0.84473694   0.01724926
4848.00   0.89734369   0.01750609
4850.00   0.89051811   0.01752487
4852.00   0.85710041   0.01734296
4854.00   0.84766445   0.01713354
4856.00   0.84213133   0.01701869
4858.00   0.88847368   0.01716989
4860.00   0.89099818   0.01719584
4862.00   0.88197477   0.01724296
4864.00   0.89866824   0.01737634
4866.00   0.89615768   0.01741906
4868.00   0.90954729   0.01736426
4870.00   0.92978850   0.01747761
4872.00   0.91610563   0.01742528
4874.00   0.93176934   0.01751481
4876.00   0.96734838   0.01778744
4878.00   0.97353662   0.01796387
4880.00   0.93993452   0.01773914
4882.00   0.94102018   0.01768714
4884.00   0.96497378   0.01764534
4886.00   0.99892080   0.01768097
4888.00   0.99303388   0.01762313
4890.00   1.00857976   0.01768884
4892.00   0.97152725   0.01755563
4894.00   0.96226320   0.01748873
4896.00   0.94288610   0.01733987
4898.00   0.95119347   0.01763251
4900.00   0.92068533   0.01706070
4902.00   0.92275932   0.01711016
4904.00   0.93092290   0.01722990
4906.00   0.93697474   0.01726117
4908.00   0.86955854   0.01700736
4910.00   0.90053271   0.01712870
4912.00   0.87850241   0.01698982
4914.00   0.88984591   0.01709581
4916.00   0.91136214   0.01706644
4918.00   0.86635302   0.01670146
4920.00   0.89346168   0.01676461
4922.00   0.84382601   0.01652201
4924.00   0.81780030   0.01641118
4926.00   0.85069323   0.01634282
4928.00   0.86046160   0.01635522
4930.00   0.89543216   0.01641159
4932.00   0.84181295   0.01622228
4934.00   0.87280586   0.01635554
4936.00   0.85509442   0.01620455
4938.00   0.84039480   0.01624576
4940.00   0.85748019   0.01632279
4942.00   0.87020106   0.01641765
4944.00   0.88963876   0.01632565
4946.00   0.85592511   0.01614831
4948.00   0.89305824   0.01625808
4950.00   0.96127402   0.01672684
4952.00   1.12898467   0.01778718
4954.00   1.14718567   0.01794752
4956.00   1.06576411   0.01741721
4958.00   0.98913229   0.01691593
4960.00   0.91666404   0.01667351
4962.00   0.93211691   0.01677076
4964.00   0.90071378   0.01674883
4966.00   0.92442871   0.01696835
4968.00   0.93356466   0.01715376
4970.00   0.95089529   0.01745314
4972.00   1.00570039   0.01804722
4974.00   1.02786429   0.01852165
4976.00   1.05933444   0.01921687
4978.00   1.01382649   0.01976009
4980.00   1.01569211   0.02040006
4982.00   1.08422819   0.02102758
4984.00   1.10097402   0.02100890
4986.00   1.05300256   0.02044662
4988.00   1.08473969   0.02000965
4990.00   1.10014379   0.01963907
4992.00   1.10286205   0.01917172
4994.00   1.17575316   0.01896843
4996.00   1.12810613   0.01837862
4998.00   1.15725352   0.01821891
5000.00   1.14245405   0.01795805
5002.00   1.12766436   0.01780711
5004.00   1.19063115   0.01791736
5006.00   1.18646406   0.01777968
5008.00   1.22812005   0.01785131
5010.00   1.20086279   0.01769244
5012.00   1.20812781   0.01770754
5014.00   1.20345324   0.01764927
5016.00   1.23502641   0.01788260
5018.00   1.23816421   0.01805172
5020.00   1.21626625   0.01793266
5022.00   1.19980440   0.01782977
5024.00   1.18696078   0.01763861
5026.00   1.20845579   0.01783708
5028.00   1.23874556   0.01814076
5030.00   1.19004131   0.01802459
5032.00   1.19772115   0.01782883
5034.00   1.20488344   0.01772514
5036.00   1.14020829   0.01727676
5038.00   1.11949997   0.01707041
5040.00   1.12080107   0.01698609
5042.00   1.10713193   0.01699007
5044.00   1.10348158   0.01707770
5046.00   1.06648631   0.01695338
5048.00   1.09977646   0.01706055
5050.00   1.19309221   0.01746343
5052.00   1.25053504   0.01773992
5054.00   1.22257491   0.01765586
5056.00   1.11428869   0.01706276
5058.00   1.01117330   0.01662322
5060.00   1.01481887   0.01668000
5062.00   0.93781399   0.01662399
5064.00   0.94185955   0.01687166
5066.00   0.95153158   0.01707457
5068.00   0.93873452   0.01743289
5070.00   0.94375829   0.01749366
5072.00   0.94199749   0.01726085
5074.00   0.92713970   0.01705042
5076.00   0.89843825   0.01670973
5078.00   0.84607320   0.01691681
5080.00   0.88501427   0.01815305
5082.00   0.90070528   0.01938402
5084.00   0.88305886   0.02012274
5086.00   0.92147647   0.02024461
5088.00   0.91033224   0.01941521
5090.00   0.86807119   0.01816304
5092.00   0.86102947   0.01721809
5094.00   0.89620771   0.01699638
5096.00   0.91043640   0.01731824
5098.00   1.07809304   0.01844040
5100.00   1.47401390   0.02016227
5102.00   1.56555360   0.02027542
5104.00   1.33874294   0.01886308
5106.00   1.08011500   0.01749424
5108.00   0.92944370   0.01669551
5110.00   0.91279851   0.01648972
5112.00   0.87693881   0.01644785
5114.00   0.86338241   0.01651585
5116.00   0.86771620   0.01663071
5118.00   0.87428614   0.01654993
5120.00   0.85893126   0.01623752
5122.00   0.86901361   0.01615837
5124.00   0.89190358   0.01625758
5126.00   0.84980279   0.01596001
5128.00   0.86502564   0.01604635
5130.00   0.88955023   0.01624807
5132.00   0.87221360   0.01618431
5134.00   0.89408674   0.01625457
5136.00   0.93347098   0.01647319
5138.00   0.91626071   0.01641869
5140.00   0.93267681   0.01642674
5142.00   0.91392043   0.01642363
5144.00   0.88940672   0.01637131
5146.00   0.89968094   0.01660366
5148.00   0.87580921   0.01682011
5150.00   0.87319877   0.01715923
5152.00   0.86314040   0.01751624
5154.00   0.90020039   0.01779277
5156.00   0.86387028   0.01743104
5158.00   0.89894003   0.01727422
5160.00   0.92713947   0.01701592
5162.00   0.90111257   0.01677455
5164.00   0.90882373   0.01657822
5166.00   0.92052538   0.01648782
5168.00   0.93167147   0.01644844
5170.00   0.92179825   0.01634508
5172.00   0.90417433   0.01630602
5174.00   0.92039023   0.01650754
5176.00   0.89984310   0.01650039
5178.00   0.93085737   0.01672263
5180.00   0.91466946   0.01660474
5182.00   0.93271502   0.01664731
5184.00   0.93353954   0.01669009
5186.00   0.92392269   0.01670708
5188.00   0.95615322   0.01689833
5190.00   0.92485890   0.01677987
5192.00   0.90975287   0.01675284
5194.00   0.91486474   0.01683577
5196.00   0.90678308   0.01694038
5198.00   0.91893873   0.01714407
5200.00   0.89372968   0.01694860
5202.00   0.90727610   0.01707592
5204.00   0.88280678   0.01686262
5206.00   0.92625534   0.01713151
5208.00   0.95982094   0.01747797
5210.00   0.95116181   0.01760798
5212.00   0.94803699   0.01755274
5214.00   0.96717452   0.01757533
5216.00   0.96723433   0.01753255
5218.00   0.98470646   0.01784802
5220.00   1.00613599   0.01789200
5222.00   0.98783436   0.01776501
5224.00   0.99908970   0.01772172
5226.00   0.96108893   0.01751104
5228.00   0.97183940   0.01759083
5230.00   0.98068174   0.01766269
5232.00   1.00213502   0.01776286
5234.00   1.01672204   0.01782538
5236.00   1.03178587   0.01807196
5238.00   1.08897843   0.01839860
5240.00   1.03766528   0.01819909
5242.00   1.02304403   0.01808895
5244.00   1.05524942   0.01823400
5246.00   1.08939360   0.01838530
5248.00   1.06591806   0.01826155
5250.00   1.08624579   0.01833744
5252.00   1.09379636   0.01843259
5254.00   1.10331372   0.01886500
5256.00   1.19823946   0.01937920
5258.00   1.17137002   0.01932955
5260.00   1.16779662   0.01924807
5262.00   1.17961957   0.01924929
5264.00   1.24514304   0.01944890
5266.00   1.21949758   0.01918998
5268.00   1.23210280   0.01926053
5270.00   1.24555670   0.01935477
5272.00   1.28154881   0.01961949
5274.00   1.33013433   0.01991688
5276.00   1.36643516   0.02016850
5278.00   1.34859270   0.02011105
5280.00   1.28949931   0.01990137
5282.00   1.34919233   0.02023510
5284.00   1.35096832   0.02035152
5286.00   1.33521488   0.02050871
5288.00   1.35336163   0.02054247
5290.00   1.41380676   0.02076864
5292.00   1.40820994   0.02075461
5294.00   1.43094739   0.02089069
5296.00   1.42307483   0.02086002
5298.00   1.43523892   0.02098508
5300.00   1.46629244   0.02128510
5302.00   1.45589504   0.02163993
5304.00   1.52405465   0.02182118
5306.00   1.50157656   0.02152283
5308.00   1.47891105   0.02149400
5310.00   1.50818649   0.02169772
5312.00   1.52373580   0.02179339
5314.00   1.53949239   0.02187723
5316.00   1.59781225   0.02216791
5318.00   1.55056619   0.02207612
5320.00   1.55904762   0.02206639
5322.00   1.54544554   0.02208600
5324.00   1.56988902   0.02217799
5326.00   1.54337800   0.02214435
5328.00   1.59793256   0.02249773
5330.00   1.60596256   0.02284254
5332.00   1.56661123   0.02278178
5334.00   1.61278377   0.02279616
5336.00   1.61892911   0.02284841
5338.00   1.62140484   0.02305756
5340.00   1.62347028   0.02323964
5342.00   1.64621739   0.02341961
5344.00   1.58039579   0.02321849
5346.00   1.63288851   0.02362385
5348.00   1.64034462   0.02400554
5350.00   1.56969240   0.02371466
5352.00   1.60133594   0.02393597
5354.00   1.60619718   0.02419582
5356.00   1.66965277   0.02458819
5358.00   1.66465056   0.02434969
5360.00   1.61950260   0.02382567
5362.00   1.62463867   0.02383110
5364.00   1.59534415   0.02355901
5366.00   1.58313943   0.02348893
5368.00   1.63336131   0.02369325
5370.00   1.62166082   0.02377913
5372.00   1.64440479   0.02405106
5374.00   1.60421852   0.02424991
5376.00   1.61307467   0.02437964
5378.00   1.62682984   0.02440726
5380.00   1.62315883   0.02434076
5382.00   1.59830617   0.02413186
5384.00   1.56185226   0.02413106
5386.00   1.55826355   0.02416203
5388.00   1.56921984   0.02439858
5390.00   1.56190482   0.02465202
5392.00   1.54284362   0.02481799
5394.00   1.59141203   0.02493349
5396.00   1.62547274   0.02509788
5398.00   1.70564744   0.02545889
5400.00   1.57238377   0.02497226
5402.00   1.60471721   0.02521671
5404.00   1.57412956   0.02508500
5406.00   1.58232422   0.02530012
5408.00   1.54809099   0.02533742
5410.00   1.58443547   0.02567754
5412.00   1.49867227   0.02574321
5414.00   1.50423446   0.02616646
5416.00   1.53704844   0.02658543
5418.00   1.55676584   0.02683874
5420.00   1.52610781   0.02674804
5422.00   1.49725080   0.02685686
5424.00   1.49569529   0.02678549
5426.00   1.46965043   0.02656081
5428.00   1.50177021   0.02681670
5430.00   1.50538039   0.02680964
5432.00   1.45670571   0.02664361
5434.00   1.39520585   0.02639286
5436.00   1.44993519   0.02678945
5438.00   1.47199095   0.02706812
5440.00   1.45634583   0.02701583
5442.00   1.45613513   0.02725503
5444.00   1.44889200   0.01204892
5446.00   1.41170973   0.01240028
5448.00   1.41865581   0.01219089
5450.00   1.44775850   0.01190916
5452.00   1.45072609   0.01236912
5454.00   1.43935597   0.01346558
5456.00   1.43111861   0.01428915
5458.00   1.41725230   0.01512698
5460.00   1.40248454   0.01544772
5462.00   1.40692663   0.01522771
5464.00   1.43078363   0.01462666
5466.00   1.42845261   0.01398276
5468.00   1.40503734   0.01295112
5470.00   1.40242809   0.01217895
5472.00   1.42040443   0.01161604
5474.00   1.42399406   0.01126979
5476.00   1.41614580   0.01128102
5478.00   1.40526849   0.01155041
5480.00   1.40498728   0.01145761
5482.00   1.41276962   0.01117974
5484.00   1.42405874   0.01109102
5486.00   1.44429880   0.01115101
5488.00   1.45378172   0.01110983
5490.00   1.44835651   0.01097766
5492.00   1.43817598   0.01077773
5494.00   1.43103492   0.01061906
5496.00   1.41669887   0.01038431
5498.00   1.40865690   0.01026747
5500.00   1.41042954   0.01035472
5502.00   1.40977281   0.01034889
5504.00   1.39758742   0.01010461
5506.00   1.38856173   0.00986629
5508.00   1.39093614   0.00980002
5510.00   1.39921212   0.00985319
5512.00   1.40776247   0.00993183
5514.00   1.42744708   0.01014236
5516.00   1.42855275   0.01021961
5518.00   1.40518194   0.01016380
5520.00   1.38723743   0.01001128
5522.00   1.39198631   0.00989802
5524.00   1.40841490   0.00981762
5526.00   1.41297191   0.00972407
5528.00   1.41640264   0.00961028
5530.00   1.41274500   0.00954193
5532.00   1.39274073   0.00941872
5534.00   1.37542886   0.00943290
5536.00   1.37878937   0.00987922
5538.00   1.39979374   0.01066199
5540.00   1.39770097   0.01082620
5542.00   1.37632674   0.01059508
5544.00   1.36598492   0.01034271
5546.00   1.36909086   0.00987293
5548.00   1.36742681   0.00956735
5550.00   1.36321259   0.00972567
5552.00   1.36488670   0.01014386
5554.00   1.35571939   0.01011812
5556.00   1.33441478   0.00968681
5558.00   1.32738739   0.00952981
5560.00   1.33995908   0.00957098
5562.00   1.33739984   0.00972985
5564.00   1.31600738   0.00972884
5566.00   1.29172540   0.00994476
5568.00   1.27838588   0.01061772
5570.00   1.26860029   0.01151584
5572.00   1.26620173   0.01228222
5574.00   1.27537948   0.01342185
5576.00   1.28275287   0.01360952
5578.00   1.28440887   0.01281549
5580.00   1.27907616   0.01198164
5582.00   1.27288002   0.01129281
5584.00   1.26679361   0.01046167
5586.00   1.25220013   0.00977901
5588.00   1.22400713   0.00911862
5590.00   1.20539600   0.00865807
5592.00   1.19868195   0.00853346
5594.00   1.19884628   0.00855576
5596.00   1.19970977   0.00862503
5598.00   1.20206803   0.00882659
5600.00   1.19931656   0.00881452
5602.00   1.19354796   0.00861024
5604.00   1.18703359   0.00847007
5606.00   1.17983973   0.00838384
5608.00   1.16975641   0.00833339
5610.00   1.15634561   0.00831475
5612.00   1.14361644   0.00839851
5614.00   1.13050824   0.00837475
5616.00   1.11443263   0.00818215
5618.00   1.10532415   0.00805074
5620.00   1.10649675   0.00795959
5622.00   1.10009891   0.00791444
5624.00   1.08528793   0.00788789
5626.00   1.07396072   0.00793793
5628.00   1.06942749   0.00792735
5630.00   1.06590611   0.00779232
5632.00   1.06541848   0.00779846
5634.00   1.07379586   0.00796370
5636.00   1.07263952   0.00804783
5638.00   1.05657303   0.00796203
5640.00   1.04033107   0.00783087
5642.00   1.03333259   0.00778013
5644.00   1.02955389   0.00770348
5646.00   1.02812248   0.00764864
5648.00   1.03264248   0.00761583
5650.00   1.03109831   0.00762154
5652.00   1.02293950   0.00755307
5654.00   1.01468271   0.00763948
5656.00   1.00659454   0.00807685
5658.00   1.00358000   0.00861489
5660.00   1.00016487   0.00870076
5662.00   0.99205828   0.00852204
5664.00   0.98083377   0.00846551
5666.00   0.97132432   0.00838046
5668.00   0.96369484   0.00832058
5670.00   0.94543338   0.00838080
5672.00   0.92824835   0.00855541
5674.00   0.92617887   0.00884954
5676.00   0.93055227   0.00915351
5678.00   0.93300509   0.00944738
5680.00   0.93765241   0.00967493
5682.00   0.94530165   0.01015755
5684.00   0.95421189   0.01097975
5686.00   0.96143788   0.01177780
5688.00   0.95796126   0.01171953
5690.00   0.94207269   0.01070354
5692.00   0.92380270   0.01018534
5694.00   0.89241728   0.00984620
5696.00   0.87795421   0.00946829
5698.00   0.88327396   0.00888242
5700.00   0.88653222   0.00839523
5702.00   0.87409297   0.00815835
5704.00   0.85656887   0.00811191
5706.00   0.85310888   0.00802293
5708.00   0.86169866   0.00799516
5710.00   0.86095655   0.00799054
5712.00   0.84917688   0.00797613
5714.00   0.84163240   0.00794689
5716.00   0.84853995   0.00813242
5718.00   0.85575682   0.00844781
5720.00   0.84758142   0.00838812
5722.00   0.82744041   0.00806863
5724.00   0.82078499   0.00788367
5726.00   0.82362688   0.00772021
5728.00   0.82790616   0.00758998
5730.00   0.83227444   0.00758960
5732.00   0.83400077   0.00758342
5734.00   0.82951525   0.00753163
5736.00   0.82215354   0.00744650
5738.00   0.81915703   0.00736324
5740.00   0.82023630   0.00719455
5742.00   0.81550238   0.00724266
5744.00   0.81013438   0.00744642
5746.00   0.80391586   0.00756443
5748.00   0.79631156   0.00752061
5750.00   0.78517789   0.00734378
5752.00   0.77502340   0.00734796
5754.00   0.76154095   0.00746233
5756.00   0.76120090   0.00754060
5758.00   0.77139562   0.00756310
5760.00   0.77887091   0.00775455
5762.00   0.78141540   0.00813137
5764.00   0.77605486   0.00857660
5766.00   0.77276886   0.00871830
5768.00   0.76951626   0.00862843
5770.00   0.76765123   0.00861290
5772.00   0.76861113   0.00870281
5774.00   0.76748642   0.00870541
5776.00   0.75065532   0.00844766
5778.00   0.71611527   0.00803858
5780.00   0.70175970   0.00793217
5782.00   0.70479855   0.00800199
5784.00   0.70590532   0.00818168
5786.00   0.70590928   0.00864182
5788.00   0.70240325   0.00891629
5790.00   0.70129415   0.00882408
5792.00   0.69924673   0.00848117
5794.00   0.69913536   0.00827500
5796.00   0.70603535   0.00802187
5798.00   0.71207580   0.00784266
5800.00   0.72278032   0.00774011
5802.00   0.72038373   0.00771326
5804.00   0.70773509   0.00758957
5806.00   0.69938731   0.00739730
5808.00   0.70338225   0.00734296
5810.00   0.72200909   0.00726023
5812.00   0.71537694   0.00748700
5814.00   0.68022114   0.00812865
5816.00   0.66744986   0.00859357
5818.00   0.68639109   0.00878736
5820.00   0.70571622   0.00862108
5822.00   0.71396941   0.00838378
5824.00   0.72934064   0.00819291
5826.00   0.73907635   0.00801073
5828.00   0.74205625   0.00769093
5830.00   0.74739319   0.00757275
5832.00   0.76032960   0.00778978
5834.00   0.76751751   0.00806749
5836.00   0.76682273   0.00817256
5838.00   0.75676349   0.00806689
5840.00   0.75532994   0.00817386
5842.00   0.76515988   0.00846718
5844.00   0.77937481   0.00881046
5846.00   0.79689309   0.00942971
5848.00   0.81329307   0.00962869
5850.00   0.83052742   0.00908033
5852.00   0.83617929   0.00815917
5854.00   0.84659851   0.00795899
5856.00   0.86577600   0.00826007
5858.00   0.86758628   0.00833215
5860.00   0.84659839   0.00833691
5862.00   0.84018263   0.00837808
5864.00   0.84717235   0.00848646
5866.00   0.85430348   0.00863942
5868.00   0.86446717   0.00876681
5870.00   0.88588566   0.00890123
5872.00   0.90303674   0.00888445
5874.00   0.92674062   0.00859571
5876.00   0.93653783   0.00860556
5878.00   0.92283571   0.00864335
5880.00   0.90224174   0.00930887
5882.00   0.90671015   0.01068357
5884.00   0.93190393   0.01239079
5886.00   0.95859498   0.01433662
5888.00   1.00591001   0.01687536
5890.00   1.02501851   0.01824656
5892.00   1.00334179   0.01911766
5894.00   0.98525524   0.01901710
5896.00   1.00852609   0.01784639
5898.00   1.05208224   0.01596582
5900.00   1.07383382   0.01427448
5902.00   1.09152246   0.01228295
5904.00   1.10239404   0.01076790
5906.00   1.10000491   0.00968527
5908.00   1.09909523   0.00894630
5910.00   1.10761356   0.00908310
5912.00   1.12031454   0.00946933
5914.00   1.12950563   0.00961138
5916.00   1.14084166   0.00980184
5918.00   1.15349036   0.00974265
5920.00   1.16753894   0.00931896
5922.00   1.18004107   0.00919584
5924.00   1.19488162   0.00932690
5926.00   1.20784014   0.00949677
5928.00   1.21849513   0.00947470
5930.00   1.22847557   0.00923388
5932.00   1.23833996   0.00913653
5934.00   1.24781883   0.00910536
5936.00   1.25668514   0.00908925
5938.00   1.26673752   0.00910281
5940.00   1.27314800   0.00906604
5942.00   1.27344489   0.00887604
5944.00   1.26660788   0.00855293
5946.00   1.26586568   0.00841839
5948.00   1.26800191   0.00838882
5950.00   1.28511727   0.00842545
5952.00   1.32370770   0.00859154
5954.00   1.34388238   0.00866985
5956.00   1.34554422   0.00870121
5958.00   1.34311259   0.00882761
5960.00   1.33894563   0.00870750
5962.00   1.32557333   0.00831288
5964.00   1.32095784   0.00835422
5966.00   1.32570809   0.00894499
5968.00   1.32760060   0.00908690
5970.00   1.32498860   0.00897638
5972.00   1.32733965   0.00891196
5974.00   1.32988751   0.00876405
5976.00   1.32845926   0.00847361
5978.00   1.33375525   0.00824004
5980.00   1.34774965   0.00796451
5982.00   1.35541171   0.00782525
5984.00   1.36120975   0.00781210
5986.00   1.36113054   0.00780711
5988.00   1.34980601   0.00784895
5990.00   1.33067131   0.00804870
5992.00   1.31689018   0.00804997
5994.00   1.30467182   0.00790201
5996.00   1.29761946   0.00776347
5998.00   1.29326129   0.00761357
6000.00   1.28129917   0.00750306
6002.00   1.27262264   0.00755751
6004.00   1.27118117   0.00764799
6006.00   1.26846540   0.00769018
6008.00   1.26556844   0.00786732
6010.00   1.26224256   0.00789257
6012.00   1.25893837   0.00760140
6014.00   1.25701225   0.00729724
6016.00   1.25851005   0.00732910
6018.00   1.26421523   0.00758992
6020.00   1.25774884   0.00770861
6022.00   1.23559910   0.00773125
6024.00   1.23024809   0.00772740
6026.00   1.24341363   0.00772389
6028.00   1.24956661   0.00770261
6030.00   1.24784106   0.00754494
6032.00   1.24599516   0.00735876
6034.00   1.23807669   0.00735050
6036.00   1.22247422   0.00744128
6038.00   1.21421498   0.00744669
6040.00   1.21342331   0.00742607
6042.00   1.20659882   0.00747475
6044.00   1.18790841   0.00749368
6046.00   1.16776890   0.00733290
6048.00   1.16647756   0.00712606
6050.00   1.18112189   0.00693443
6052.00   1.17575407   0.00687988
6054.00   1.15576273   0.00693600
6056.00   1.14100438   0.00696689
6058.00   1.13037407   0.00707437
6060.00   1.12524533   0.00709264
6062.00   1.12193102   0.00689301
6064.00   1.12145990   0.00665887
6066.00   1.11801201   0.00678602
6068.00   1.11161369   0.00715565
6070.00   1.10692608   0.00732319
6072.00   1.10479397   0.00747370
6074.00   1.10184050   0.00753050
6076.00   1.10095835   0.00729791
6078.00   1.10209745   0.00697371
6080.00   1.08953989   0.00680986
6082.00   1.06095481   0.00662756
6084.00   1.05136716   0.00658119
6086.00   1.05991906   0.00669558
6088.00   1.06472045   0.00684453
6090.00   1.06526440   0.00710617
6092.00   1.06106013   0.00740224
6094.00   1.04947352   0.00736386
6096.00   1.03190833   0.00699364
6098.00   1.02248293   0.00685343
6100.00   1.01709402   0.00672692
6102.00   1.01100478   0.00679202
6104.00   1.00890499   0.00713065
6106.00   1.01079857   0.00754939
6108.00   1.00715053   0.00783839
6110.00   1.00195080   0.00802636
6112.00   0.99099302   0.00804304
6114.00   0.96692064   0.00790003
6116.00   0.95254466   0.00773280
6118.00   0.95484895   0.00745040
6120.00   0.96142694   0.00717795
6122.00   0.95992976   0.00695246
6124.00   0.96186385   0.00672619
6126.00   0.95803192   0.00657515
6128.00   0.94507876   0.00647832
6130.00   0.93737003   0.00644804
6132.00   0.93556267   0.00653550
6134.00   0.93464494   0.00661165
6136.00   0.93622816   0.00658594
6138.00   0.94089350   0.00655562
6140.00   0.93884486   0.00658367
6142.00   0.93092123   0.00657058
6144.00   0.92385465   0.00654626
6146.00   0.91414425   0.00651609
6148.00   0.90808490   0.00652228
6150.00   0.90616608   0.00645890
6152.00   0.90916234   0.00654009
6154.00   0.91367522   0.00689306
6156.00   0.92194360   0.00746266
6158.00   0.92216662   0.00762737
6160.00   0.91412944   0.00755987
6162.00   0.90852615   0.00745008
6164.00   0.90702769   0.00723062
6166.00   0.90980893   0.00690976
6168.00   0.91892111   0.00668540
6170.00   0.93786266   0.00659446
6172.00   0.94290492   0.00641659
6174.00   0.93874541   0.00616468
6176.00   0.93773305   0.00607950
6178.00   0.93881261   0.00620856
6180.00   0.93512434   0.00620368
6182.00   0.93383095   0.00611559
6184.00   0.93478787   0.00610183
6186.00   0.92652068   0.00611114
6188.00   0.91109759   0.00611534
6190.00   0.90306059   0.00606177
6192.00   0.90289432   0.00595874
6194.00   0.89545560   0.00589138
6196.00   0.88343057   0.00586783
6198.00   0.86905020   0.00592031
6200.00   0.85161504   0.00592315
6202.00   0.83046210   0.00590899
6204.00   0.81430939   0.00589657
6206.00   0.80252737   0.00591138
6208.00   0.78856042   0.00582838
6210.00   0.77498749   0.00569610
6212.00   0.76100996   0.00558050
6214.00   0.73939961   0.00554614
6216.00   0.70931286   0.00568858
6218.00   0.69354242   0.00572497
6220.00   0.69199494   0.00574648
6222.00   0.67915928   0.00564112
6224.00   0.65217951   0.00536748
6226.00   0.62806454   0.00515255
6228.00   0.61424169   0.00532857
6230.00   0.60809779   0.00591729
6232.00   0.60091531   0.00602020
6234.00   0.59423769   0.00578161
6236.00   0.58798626   0.00561103
6238.00   0.58536345   0.00557470
6240.00   0.58275303   0.00553054
6242.00   0.57828176   0.00536661
6244.00   0.57547170   0.00519633
6246.00   0.56742066   0.00528172
6248.00   0.55155149   0.00559475
6250.00   0.53879938   0.00567782
6252.00   0.52515402   0.00554668
6254.00   0.52145249   0.00552940
6256.00   0.52917555   0.00561623
6258.00   0.53573248   0.00565395
6260.00   0.52848205   0.00570379
6262.00   0.51214579   0.00585294
6264.00   0.50926277   0.00576360
6266.00   0.51716968   0.00535383
6268.00   0.52312946   0.00506502
6270.00   0.52856722   0.00493390
6272.00   0.52719787   0.00490165
6274.00   0.52095658   0.00500258
6276.00   0.51753110   0.00539233
6278.00   0.51448140   0.00550960
6280.00   0.50819743   0.00547603
6282.00   0.50497536   0.00533169
6284.00   0.50906721   0.00514795
6286.00   0.52051684   0.00505736
6288.00   0.53540194   0.00500224
6290.00   0.55469447   0.00504319
6292.00   0.56703019   0.00527500
6294.00   0.57130837   0.00569744
6296.00   0.58094484   0.00587055
6298.00   0.60014278   0.00585923
6300.00   0.62008747   0.00592609
6302.00   0.63090420   0.00603245
6304.00   0.63245231   0.00616178
6306.00   0.63134205   0.00641128
6308.00   0.62507728   0.00688734
6310.00   0.63053879   0.00688079
6312.00   0.64809054   0.00628377
6314.00   0.65947005   0.00578762
6316.00   0.66641343   0.00564690
6318.00   0.67505023   0.00562410
6320.00   0.68073004   0.00557383
6322.00   0.67709327   0.00575380
6324.00   0.68043047   0.00570976
6326.00   0.69150665   0.00542774
6328.00   0.69963184   0.00514144
6330.00   0.69738343   0.00506172
6332.00   0.69614083   0.00508461
6334.00   0.70116225   0.00505812
6336.00   0.70707059   0.00503755
6338.00   0.71420687   0.00502903
6340.00   0.72472301   0.00503182
6342.00   0.72928664   0.00502156
6344.00   0.72839788   0.00499928
6346.00   0.73082533   0.00502790
6348.00   0.73352656   0.00506672
6350.00   0.73588130   0.00510700
6352.00   0.73800182   0.00518780
6354.00   0.73947576   0.00529958
6356.00   0.74037609   0.00531767
6358.00   0.74000210   0.00522827
6360.00   0.74136940   0.00524549
6362.00   0.74728379   0.00537277
6364.00   0.75561550   0.00558232
6366.00   0.76006135   0.00561854
6368.00   0.76210514   0.00547510
6370.00   0.76858705   0.00532136
6372.00   0.78097698   0.00508257
6374.00   0.78961572   0.00498276
6376.00   0.79192728   0.00496814
6378.00   0.79106748   0.00500097
6380.00   0.79425329   0.00506253
6382.00   0.80060434   0.00516763
6384.00   0.80922362   0.00531141
6386.00   0.82220495   0.00559129
6388.00   0.83134168   0.00568562
6390.00   0.83867487   0.00554310
6392.00   0.84595564   0.00534306
6394.00   0.85562223   0.00531337
6396.00   0.86986229   0.00538755
6398.00   0.85815510   0.00542218
6400.00   0.81329766   0.00547609
6402.00   0.79698053   0.00548279
6404.00   0.81385943   0.00545717
6406.00   0.83233228   0.00545175
6408.00   0.83714819   0.00532917
6410.00   0.83740082   0.00505922
6412.00   0.84285292   0.00500662
6414.00   0.85063475   0.00510638
6416.00   0.86084801   0.00516598
6418.00   0.87693855   0.00523235
6420.00   0.88636810   0.00528175
6422.00   0.88970774   0.00524860
6424.00   0.88911536   0.00524345
6426.00   0.88181812   0.00539252
6428.00   0.86725974   0.00561101
6430.00   0.86242065   0.00558018
6432.00   0.86533335   0.00527040
6434.00   0.86619875   0.00516299
6436.00   0.86610857   0.00516033
6438.00   0.86616462   0.00518979
6440.00   0.87106699   0.00525876
6442.00   0.88034022   0.00533741
6444.00   0.88237712   0.00532043
6446.00   0.87622911   0.00521043
6448.00   0.87805736   0.00515597
6450.00   0.88662887   0.00508096
6452.00   0.89541075   0.00507708
6454.00   0.90194762   0.00511825
6456.00   0.90413216   0.00519578
6458.00   0.90291196   0.00535644
6460.00   0.89715827   0.00564085
6462.00   0.89364508   0.00573093
6464.00   0.88907281   0.00573287
6466.00   0.88866988   0.00561205
6468.00   0.89047867   0.00530284
6470.00   0.89116353   0.00499471
6472.00   0.88833311   0.00491472
6474.00   0.88007838   0.00498681
6476.00   0.87980503   0.00497809
6478.00   0.89085028   0.00498188
6480.00   0.89739591   0.00496420
6482.00   0.89401564   0.00489091
6484.00   0.88599330   0.00485814
6486.00   0.87990052   0.00492168
6488.00   0.87403628   0.00505416
6490.00   0.87330317   0.00512184
6492.00   0.87924972   0.00517751
6494.00   0.88039690   0.00516199
6496.00   0.87846339   0.00510211
6498.00   0.87612206   0.00515035
6500.00   0.87324440   0.00526494
6502.00   0.86772531   0.00545236
6504.00   0.86903512   0.00552988
6506.00   0.87771198   0.00556679
6508.00   0.88259599   0.00549040
6510.00   0.88432771   0.00531985
6512.00   0.88519880   0.00517772
6514.00   0.88499999   0.00506789
6516.00   0.88465133   0.00496956
6518.00   0.88494077   0.00503091
6520.00   0.88699141   0.00527948
6522.00   0.88510215   0.00536639
6524.00   0.87614372   0.00528235
6526.00   0.86987221   0.00525361
6528.00   0.87306672   0.00539644
6530.00   0.87952870   0.00560992
6532.00   0.88399673   0.00565137
6534.00   0.89137626   0.00564418
6536.00   0.89332169   0.00553534
6538.00   0.88743305   0.00518353
6540.00   0.88261107   0.00489864
6542.00   0.88321665   0.00487275
6544.00   0.88534236   0.00497292
6546.00   0.87948990   0.00508530
6548.00   0.86780718   0.00529299
6550.00   0.86314613   0.00538334
6552.00   0.86157116   0.00543468
6554.00   0.86246976   0.00539168
6556.00   0.87172720   0.00514481
6558.00   0.88333577   0.00484783
6560.00   0.88934919   0.00485325
6562.00   0.89494514   0.00508539
6564.00   0.89377505   0.00521831
6566.00   0.88242203   0.00542155
6568.00   0.87598634   0.00550435
6570.00   0.87832442   0.00537684
6572.00   0.88447994   0.00515321
6574.00   0.88474551   0.00501698
6576.00   0.88143113   0.00488006
6578.00   0.88002595   0.00492646
6580.00   0.87692973   0.00516304
6582.00   0.87992603   0.00528563
6584.00   0.89209396   0.00535577
6586.00   0.90197051   0.00540740
6588.00   0.90432400   0.00534762
6590.00   0.90172446   0.00525840
6592.00   0.90092129   0.00519227
6594.00   0.90201199   0.00508360
6596.00   0.89870453   0.00497238
6598.00   0.88892129   0.00481414
6600.00   0.87912795   0.00477968
6602.00   0.87195200   0.00496443
6604.00   0.86755419   0.00524390
6606.00   0.86925456   0.00532445
6608.00   0.87735894   0.00529189
6610.00   0.88054466   0.00519441
6612.00   0.88094968   0.00493011
6614.00   0.88126197   0.00476201
6616.00   0.88096160   0.00473537
6618.00   0.88255519   0.00479883
6620.00   0.88650143   0.00481817
6622.00   0.89410511   0.00482613
6624.00   0.89459911   0.00481886
6626.00   0.88761023   0.00477146
6628.00   0.88356718   0.00477788
6630.00   0.88744366   0.00487596
6632.00   0.88985661   0.00494907
6634.00   0.88341075   0.00492412
6636.00   0.87558630   0.00487827
6638.00   0.87194717   0.00488165
6640.00   0.86880493   0.00490131
6642.00   0.87005624   0.00488216
6644.00   0.88046131   0.00484965
6646.00   0.88459468   0.00484323
6648.00   0.88196704   0.00482968
6650.00   0.88003570   0.00480471
6652.00   0.87473762   0.00486111
6654.00   0.86415645   0.00503075
6656.00   0.85798657   0.00509161
6658.00   0.85462594   0.00503993
6660.00   0.85146677   0.00496623
6662.00   0.85350081   0.00491353
6664.00   0.86552957   0.00501594
6666.00   0.87516171   0.00523771
6668.00   0.88214678   0.00551374
6670.00   0.88591105   0.00550472
6672.00   0.88481829   0.00517193
6674.00   0.88708624   0.00500984
6676.00   0.88157484   0.00489125
6678.00   0.89740393   0.00506682
6680.00   0.96133620   0.00573131
6682.00   1.07066685   0.00654295
6684.00   1.15473878   0.00706537
6686.00   1.26322615   0.00772573
6688.00   1.29439229   0.00798555
6690.00   1.25247109   0.00755986
6692.00   1.17232776   0.00678742
6694.00   1.06165618   0.00613718
6696.00   0.92526028   0.00530182
6698.00   0.84974769   0.00478917
6700.00   0.80847260   0.00464930
6702.00   0.78466758   0.00457607
6704.00   0.79240122   0.00457853
6706.00   0.79941583   0.00459528
6708.00   0.79971313   0.00470293
6710.00   0.79874191   0.00490639
6712.00   0.79486433   0.00492152
6714.00   0.78810522   0.00479998
6716.00   0.77753550   0.00468360
6718.00   0.75971124   0.00448122
6720.00   0.74782306   0.00438554
6722.00   0.74034801   0.00447933
6724.00   0.73496655   0.00458012
6726.00   0.73133165   0.00460081
6728.00   0.72730774   0.00466415
6730.00   0.72074294   0.00467119
6732.00   0.71066406   0.00458649
6734.00   0.70583695   0.00454974
6736.00   0.70483440   0.00461518
6738.00   0.70224550   0.00460178
6740.00   0.69257796   0.00448897
6742.00   0.67844436   0.00435608
6744.00   0.67202535   0.00431703
6746.00   0.67094824   0.00433271
6748.00   0.66767290   0.00440433
6750.00   0.66215327   0.00459699
6752.00   0.66003856   0.00465008
6754.00   0.66353434   0.00452442
6756.00   0.66807020   0.00432587
6758.00   0.66747236   0.00432272
6760.00   0.66456798   0.00449342
6762.00   0.66035065   0.00453839
6764.00   0.65321994   0.00447560
6766.00   0.64582169   0.00437462
6768.00   0.63516176   0.00425937
6770.00   0.62388697   0.00411805
6772.00   0.62446323   0.00410309
6774.00   0.63528982   0.00422428
6776.00   0.63792041   0.00426158
6778.00   0.63593373   0.00423516
6780.00   0.63301259   0.00420641
6782.00   0.62853551   0.00417570
6784.00   0.62075782   0.00414742
6786.00   0.61156398   0.00420984
6788.00   0.60168687   0.00434789
6790.00   0.59508339   0.00435386
6792.00   0.58990955   0.00422661
6794.00   0.58633056   0.00418217
6796.00   0.58751008   0.00420923
6798.00   0.58916628   0.00420536
6800.00   0.58446452   0.00418448
6802.00   0.57604712   0.00422125
6804.00   0.57614133   0.00418158
6806.00   0.58350265   0.00405223
6808.00   0.58554268   0.00400677
6810.00   0.58548218   0.00406340
6812.00   0.58285058   0.00407458
6814.00   0.57665759   0.00410117
6816.00   0.57050851   0.00421907
6818.00   0.56553146   0.00423525
6820.00   0.55948758   0.00412618
6822.00   0.55754113   0.00416144
6824.00   0.56139600   0.00437556
6826.00   0.56384051   0.00457143
6828.00   0.56473154   0.00470660
6830.00   0.56504831   0.00484228
6832.00   0.56412536   0.00486464
6834.00   0.55924499   0.00473837
6836.00   0.56796682   0.00463093
6838.00   0.59210676   0.00447009
6840.00   0.61477458   0.00440477
6842.00   0.63717619   0.00451475
6844.00   0.64841124   0.00471273
6846.00   0.63848236   0.00464509
6848.00   0.60771680   0.00438557
6850.00   0.58731139   0.00440879
6852.00   0.56195644   0.00469584
6854.00   0.55462977   0.00477135
6856.00   0.56244501   0.00472627
6858.00   0.57291588   0.00474586
6860.00   0.58506882   0.00486198
6862.00   0.60202479   0.00503088
6864.00   0.60518688   0.00521047
6866.00   0.60467228   0.00553392
6868.00   0.58717424   0.00558060
6870.00   0.54074672   0.00527320
6872.00   0.49619758   0.00489845
6874.00   0.47474419   0.00460694
6876.00   0.46811129   0.00431520
6878.00   0.46842000   0.00423448
6880.00   0.48307312   0.00437262
6882.00   0.49354944   0.00439041
6884.00   0.50357102   0.00431458
6886.00   0.50884320   0.00430197
6888.00   0.51288366   0.00436958
6890.00   0.51619709   0.00447523
6892.00   0.51564434   0.00448584
6894.00   0.51056339   0.00441060
6896.00   0.50166689   0.00432522
6898.00   0.48376332   0.00417571
6900.00   0.47462507   0.00411417
6902.00   0.47353478   0.00411695
6904.00   0.47726399   0.00414038
6906.00   0.48082533   0.00416515
6908.00   0.48530680   0.00422397
6910.00   0.49018240   0.00430513
6912.00   0.49763359   0.00445669
6914.00   0.50057903   0.00449647
6916.00   0.50065494   0.00444867
6918.00   0.50056297   0.00436033
6920.00   0.49771643   0.00425856
6922.00   0.49240683   0.00416555
6924.00   0.48774497   0.00413002
6926.00   0.48244166   0.00414209
6928.00   0.47563830   0.00409770
6930.00   0.46449520   0.00403065
6932.00   0.46011454   0.00400496
6934.00   0.46701716   0.00395701
6936.00   0.48169377   0.00391274
6938.00   0.48708993   0.00395373
6940.00   0.48758422   0.00404535
6942.00   0.48493071   0.00411862
6944.00   0.47685301   0.00423665
6946.00   0.47182813   0.00432223
6948.00   0.47229478   0.00431624
6950.00   0.47587560   0.00425745
6952.00   0.47461320   0.00416658
6954.00   0.46955249   0.00400099
6956.00   0.46542901   0.00392137
6958.00   0.45897725   0.00390439
6960.00   0.45784938   0.00389440
6962.00   0.46333973   0.00395366
6964.00   0.47126196   0.00407033
6966.00   0.47345808   0.00408027
6968.00   0.46873741   0.00401230
6970.00   0.46867435   0.00399461
6972.00   0.47073814   0.00399058
6974.00   0.47529852   0.00398478
6976.00   0.48166953   0.00400925
6978.00   0.48439276   0.00403540
6980.00   0.48153023   0.00401330
6982.00   0.47765031   0.00399193
6984.00   0.47715621   0.00401684
6986.00   0.47860800   0.00408649
6988.00   0.47687072   0.00406182
6990.00   0.47431840   0.00395827
6992.00   0.46956564   0.00388009
6994.00   0.46387218   0.00383810
6996.00   0.46164948   0.00383114
6998.00   0.46269105   0.00383823
7000.00   0.46740045   0.00386939
7002.00   0.47152652   0.00386797
7004.00   0.47835802   0.00381229
7006.00   0.48007745   0.00383157
7008.00   0.47656244   0.00394572
7010.00   0.47053517   0.00402132
7012.00   0.46701829   0.00399671
7014.00   0.46539217   0.00389458
7016.00   0.46458544   0.00385826
7018.00   0.46423820   0.00385508
7020.00   0.46464194   0.00388894
7022.00   0.46676773   0.00387925
7024.00   0.46808496   0.00382343
7026.00   0.47319229   0.00386671
7028.00   0.48742054   0.00402565
7030.00   0.49357097   0.00411993
7032.00   0.49610803   0.00423986
7034.00   0.49319990   0.00422898
7036.00   0.48626426   0.00407282
7038.00   0.47893861   0.00389912
7040.00   0.47294453   0.00381218
7042.00   0.46823564   0.00379607
7044.00   0.46798909   0.00380472
7046.00   0.47311412   0.00386174
7048.00   0.47324711   0.00388229
7050.00   0.46769777   0.00384183
7052.00   0.46436991   0.00388831
7054.00   0.46861309   0.00410849
7056.00   0.48020262   0.00440151
7058.00   0.48065715   0.00442019
7060.00   0.47305660   0.00422962
7062.00   0.46621859   0.00408449
7064.00   0.45510525   0.00388079
7066.00   0.44990315   0.00378874
7068.00   0.45782462   0.00387241
7070.00   0.47250164   0.00398967
7072.00   0.47783570   0.00400399
7074.00   0.47726481   0.00398310
7076.00   0.47895442   0.00396770
7078.00   0.48298705   0.00391311
7080.00   0.48406988   0.00390409
7082.00   0.48021297   0.00396579
7084.00   0.47455685   0.00405675
7086.00   0.46873817   0.00408170
7088.00   0.45995840   0.00407080
7090.00   0.45764227   0.00407183
7092.00   0.46172833   0.00408193
7094.00   0.46361051   0.00402580
7096.00   0.46224482   0.00389076
7098.00   0.45935792   0.00379569
7100.00   0.45684595   0.00384577
7102.00   0.45386302   0.00406470
7104.00   0.45837060   0.00413918
7106.00   0.47271602   0.00414444
7108.00   0.47856514   0.00410293
7110.00   0.47522497   0.00399927
7112.00   0.46969406   0.00392445
7114.00   0.46667613   0.00395005
7116.00   0.46641283   0.00411204
7118.00   0.46573824   0.00417498
7120.00   0.46575306   0.00415420
7122.00   0.46236008   0.00408924
7124.00   0.45253465   0.00396608
7126.00   0.44704084   0.00388452
7128.00   0.45385495   0.00386378
7130.00   0.46682790   0.00397374
7132.00   0.46974978   0.00405751
7134.00   0.46818529   0.00409050
7136.00   0.46613595   0.00407487
7138.00   0.46062075   0.00397829
7140.00   0.45722060   0.00397845
7142.00   0.45691766   0.00405531
7144.00   0.45413217   0.00411164
7146.00   0.44897103   0.00411692
7148.00   0.44265847   0.00411978
7150.00   0.43814234   0.00409437
7152.00   0.43465543   0.00403923
7154.00   0.43221401   0.00399480
7156.00   0.42714971   0.00391634
7158.00   0.42477268   0.00380514
7160.00   0.43428163   0.00384199
7162.00   0.45368609   0.00406402
7164.00   0.46040270   0.00413303
7166.00   0.46076973   0.00414083
7168.00   0.45825221   0.00417033
7170.00   0.44932401   0.00421426
7172.00   0.44199057   0.00416300
7174.00   0.44273303   0.00418711
7176.00   0.44798344   0.00427401
7178.00   0.44631116   0.00423119
7180.00   0.44014174   0.00413203
7182.00   0.43845642   0.00410537
7184.00   0.44056180   0.00412056
7186.00   0.44199084   0.00408066
7188.00   0.44183676   0.00405570
7190.00   0.44173612   0.00405228
7192.00   0.44624111   0.00408677
7194.00   0.45272340   0.00411258
7196.00   0.45740071   0.00419678
7198.00   0.46402003   0.00439309
7200.00   0.46714811   0.00452202
7202.00   0.46129890   0.00450899
7204.00   0.45428318   0.00444074
7206.00   0.44922961   0.00430207
7208.00   0.44097523   0.00396276
7210.00   0.43746242   0.00379922
7212.00   0.43717952   0.00374023
7214.00   0.43717431   0.00371356
7216.00   0.43863428   0.00370968
7218.00   0.44108935   0.00373710
7220.00   0.44257960   0.00381311
7222.00   0.44473186   0.00395579
7224.00   0.44278120   0.00400742
7226.00   0.43634908   0.00398295
7228.00   0.43556845   0.00408339
7230.00   0.44063355   0.00423652
7232.00   0.44143392   0.00447162
7234.00   0.44427483   0.00488496
7236.00   0.45125119   0.00531082
7238.00   0.44924478   0.00553668
7240.00   0.44039176   0.00564893
7242.00   0.43712968   0.00570443
7244.00   0.43873824   0.00571278
7246.00   0.43695934   0.00566197
7248.00   0.43094407   0.00542526
7250.00   0.42831913   0.00511901
7252.00   0.43509927   0.00488529
7254.00   0.44677623   0.00458933
7256.00   0.45450100   0.00438011
7258.00   0.46379107   0.00425382
7260.00   0.46945542   0.00418716
7262.00   0.46539831   0.00412088
7264.00   0.45828125   0.00413000
7266.00   0.45879346   0.00427582
7268.00   0.46454166   0.00451118
7270.00   0.46621288   0.00473149
7272.00   0.46726307   0.00500451
7274.00   0.46422225   0.00522667
7276.00   0.45783585   0.00545858
7278.00   0.44960693   0.00554526
7280.00   0.43777019   0.00542368
7282.00   0.42950559   0.00515330
7284.00   0.43063305   0.00495521
7286.00   0.43838461   0.00473878
7288.00   0.44299601   0.00458921
7290.00   0.45060714   0.00450219
7292.00   0.45551959   0.00443177
7294.00   0.45577526   0.00437481
7296.00   0.45649594   0.00433085
7298.00   0.45694910   0.00438577
7300.00   0.45549807   0.00458983
7302.00   0.44949162   0.00463727
7304.00   0.43775384   0.00449378
7306.00   0.42946048   0.00442635
7308.00   0.42089738   0.00452381
7310.00   0.41361141   0.00472102
7312.00   0.41439067   0.00495615
7314.00   0.42049834   0.00531083
7316.00   0.42772473   0.00536394
7318.00   0.44096138   0.00514244
7320.00   0.45046490   0.00494415
7322.00   0.45438623   0.00480068
7324.00   0.45480362   0.00473147
7326.00   0.45206405   0.00466175
7328.00   0.44289802   0.00453118
7330.00   0.43639876   0.00450813
7332.00   0.42827357   0.00456450
7334.00   0.42489254   0.00466238
7336.00   0.42652881   0.00478018
7338.00   0.43097448   0.00498566
7340.00   0.43276438   0.00523567
7342.00   0.43513165   0.00540390
7344.00   0.44258139   0.00537778
7346.00   0.45681463   0.00517431
7348.00   0.45809683   0.00492626
7350.00   0.44536978   0.00438962
7352.00   0.43473940   0.00421189
7354.00   0.42931707   0.00450303
7356.00   0.42926860   0.00491265
7358.00   0.43781941   0.00510188
7360.00   0.45754425   0.00520008
7362.00   0.45992984   0.00517113
7364.00   0.44595368   0.00488661
7366.00   0.43599641   0.00481883
7368.00   0.42940803   0.00503202
7370.00   0.42243466   0.00527648
7372.00   0.41477680   0.00520176
7374.00   0.40412237   0.00485545
7376.00   0.40481707   0.00460835
7378.00   0.41777492   0.00429586
7380.00   0.42837548   0.00408322
7382.00   0.43490483   0.00400796
7384.00   0.43700644   0.00410690
7386.00   0.43758737   0.00422771
7388.00   0.43706018   0.00437904
7390.00   0.43713999   0.00448212
7392.00   0.43587179   0.00455683
7394.00   0.43847960   0.00456772
7396.00   0.44710340   0.00453716
7398.00   0.45242031   0.00458073
7400.00   0.45396559   0.00464098
7402.00   0.45209789   0.00468696
7404.00   0.44565216   0.00468223
7406.00   0.43478425   0.00463047
7408.00   0.42832038   0.00453016
7410.00   0.42308396   0.00433475
7412.00   0.41832587   0.00422630
7414.00   0.41558041   0.00417608
7416.00   0.41331053   0.00415359
7418.00   0.41677062   0.00413163
7420.00   0.42744803   0.00413521
7422.00   0.43287811   0.00414097
7424.00   0.43549722   0.00410520
7426.00   0.43690585   0.00414506
7428.00   0.43478125   0.00440906
7430.00   0.43155475   0.00461356
7432.00   0.43228215   0.00457022
7434.00   0.43214594   0.00450956
7436.00   0.42870855   0.00449402
7438.00   0.42158961   0.00444392
7440.00   0.41937518   0.00441455
7442.00   0.41841310   0.00455011
7444.00   0.41696051   0.00462937
7446.00   0.41417873   0.00460031
7448.00   0.40559286   0.00451763
7450.00   0.40719678   0.00436353
7452.00   0.41927361   0.00408473
7454.00   0.42887032   0.00397221
7456.00   0.43455675   0.00397412
7458.00   0.43677737   0.00397424
7460.00   0.43846434   0.00403690
7462.00   0.43771026   0.00410676
7464.00   0.43300824   0.00421218
7466.00   0.42407702   0.00434548
7468.00   0.41971652   0.00452622
7470.00   0.41950817   0.00484490
7472.00   0.41781214   0.00506974
7474.00   0.41110113   0.00494648
7476.00   0.39924608   0.00453391
7478.00   0.39756390   0.00443435
7480.00   0.40563920   0.00453231
7482.00   0.41050680   0.00457406
7484.00   0.41587789   0.00466070
7486.00   0.41785933   0.00468162
7488.00   0.41680810   0.00453950
7490.00   0.41502009   0.00430898
7492.00   0.41250612   0.00417752
7494.00   0.40731853   0.00404586
7496.00   0.40211356   0.00399671
7498.00   0.39324357   0.00403530
7500.00   0.39152294   0.00411300
7502.00   0.39985670   0.00422525
7504.00   0.40582848   0.00432019
7506.00   0.40327841   0.00428485
7508.00   0.40098459   0.00417740
7510.00   0.39934875   0.00421765
7512.00   0.39414655   0.00429283
7514.00   0.39081748   0.00443358
7516.00   0.39552861   0.00479274
7518.00   0.39900666   0.00502831
7520.00   0.39390935   0.00498670
7522.00   0.38485014   0.00485428
7524.00   0.37363070   0.00483136
7526.00   0.35697041   0.00485625
7528.00   0.35446908   0.00477356
7530.00   0.36715968   0.00456384
7532.00   0.37493858   0.00438911
7534.00   0.37943645   0.00427181
7536.00   0.38309792   0.00421364
7538.00   0.39011680   0.00420085
7540.00   0.40120539   0.00418223
7542.00   0.40306662   0.00415360
7544.00   0.39622727   0.00413934
7546.00   0.39118323   0.00417150
7548.00   0.38323562   0.00411441
7550.00   0.37384863   0.00401434
7552.00   0.37105322   0.00402245
7554.00   0.37117572   0.00411820
7556.00   0.36706737   0.00411171
7558.00   0.36008404   0.00401267
7560.00   0.35776770   0.00397559
7562.00   0.35773383   0.00399550
7564.00   0.35280013   0.00409822
7566.00   0.34742658   0.00428559
7568.00   0.34758589   0.00448091
7570.00   0.34813593   0.00453605
7572.00   0.34748335   0.00451236
7574.00   0.35178001   0.00448728
7576.00   0.36497571   0.00437321
7578.00   0.37723872   0.00429774
7580.00   0.38699897   0.00436886
7582.00   0.39350018   0.00452290
7584.00   0.38979019   0.00448404
7586.00   0.37469749   0.00425073
7588.00   0.36158893   0.00419568
7590.00   0.34873371   0.00418641
7592.00   0.33579347   0.00441194
7594.00   0.31341921   0.00484131
7596.00   0.29906917   0.00540898
7598.00   0.30222431   0.00618602
7600.00   0.30921960   0.00726605
7602.00   0.31773913   0.00781541
7604.00   0.33316393   0.00812537
7606.00   0.35251327   0.00818025
7608.00   0.37268551   0.00812708
7610.00   0.38467589   0.00800346
7612.00   0.38049117   0.00759575
7614.00   0.35830908   0.00673665
7616.00   0.34980774   0.00615408
7618.00   0.34986839   0.00558258
7620.00   0.34712884   0.00535009
7622.00   0.33415198   0.00554223
7624.00   0.32038999   0.00580101
7626.00   0.31639142   0.00591450
7628.00   0.31472044   0.00605426
7630.00   0.31608211   0.00614064
7632.00   0.32602151   0.00615067
7634.00   0.33792494   0.00602377
7636.00   0.34915198   0.00578813
7638.00   0.35240585   0.00565050
7640.00   0.35920036   0.00545718
7642.00   0.36450987   0.00526617
7644.00   0.36827488   0.00526072
7646.00   0.37477899   0.00537329
7648.00   0.37243663   0.00533853
7650.00   0.35589589   0.00523724
7652.00   0.34667246   0.00512286
7654.00   0.34621847   0.00489689
7656.00   0.34596260   0.00467946
7658.00   0.33891973   0.00458493
7660.00   0.32246220   0.00462082
7662.00   0.32190962   0.00463680
7664.00   0.33790980   0.00473786
7666.00   0.34894285   0.00466072
7668.00   0.35248570   0.00445762
7670.00   0.35439631   0.00425961
7672.00   0.35371102   0.00410815
7674.00   0.34718505   0.00395640
7676.00   0.34678178   0.00393084
7678.00   0.35064887   0.00405260
7680.00   0.35222301   0.00413940
7682.00   0.35260245   0.00421155
7684.00   0.35295698   0.00422689
7686.00   0.34910727   0.00415141
7688.00   0.34016560   0.00396942
7690.00   0.33965486   0.00398350
7692.00   0.34700426   0.00418185
7694.00   0.34903917   0.00429201
7696.00   0.34432094   0.00432369
7698.00   0.34203523   0.00430936
7700.00   0.34420678   0.00425532
7702.00   0.34608024   0.00416692
7704.00   0.34167100   0.00432783
7706.00   0.32850572   0.00473793
7708.00   0.32550417   0.00520215
7710.00   0.33443420   0.00581942
7712.00   0.33959465   0.00619575
7714.00   0.33604670   0.00652373
7716.00   0.33434547   0.00664379
7718.00   0.33370779   0.00641677
7720.00   0.32982557   0.00588731
7722.00   0.32923566   0.00551726
7724.00   0.33125918   0.00511030
7726.00   0.33258237   0.00481572
7728.00   0.33620107   0.00468597
7730.00   0.34308800   0.00462215
7732.00   0.34838998   0.00453204
7734.00   0.35653390   0.00449671
7736.00   0.35648766   0.00444499
7738.00   0.34705293   0.00424090
7740.00   0.34015824   0.00431242
7742.00   0.33803174   0.00481447
7744.00   0.33904825   0.00540686
7746.00   0.34132451   0.00576251
7748.00   0.34653027   0.00597199
7750.00   0.34629977   0.00604898
7752.00   0.34236121   0.00596383
7754.00   0.33699577   0.00585265
7756.00   0.32775694   0.00569104
7758.00   0.32138716   0.00551101
7760.00   0.32045858   0.00527879
7762.00   0.32362249   0.00503181
7764.00   0.32463603   0.00484675
7766.00   0.32291213   0.00467742
7768.00   0.32625553   0.00457439
7770.00   0.33819921   0.00455839
7772.00   0.34477922   0.00457669
7774.00   0.34148490   0.00461244
7776.00   0.33838570   0.00466551
7778.00   0.34079921   0.00463037
7780.00   0.34330574   0.00448542
7782.00   0.34182972   0.00455141
7784.00   0.33800600   0.00479534
7786.00   0.33239610   0.00498606
7788.00   0.32046755   0.00518282
7790.00   0.31671111   0.00536833
7792.00   0.32548212   0.00547212
7794.00   0.34036173   0.00553661
7796.00   0.34461811   0.00547250
7798.00   0.34175140   0.00519054
7800.00   0.33910859   0.00504293
7802.00   0.33666638   0.00510732
7804.00   0.33876304   0.00521815
7806.00   0.33732052   0.00517580
7808.00   0.33283056   0.00507595
7810.00   0.33228630   0.00499434
7812.00   0.33255094   0.00480780
7814.00   0.33259551   0.00483785
7816.00   0.33494964   0.00511593
7818.00   0.33801603   0.00542594
7820.00   0.33553419   0.00576483
7822.00   0.33013420   0.00605698
7824.00   0.33259192   0.00604357
7826.00   0.34047391   0.00577365
7828.00   0.34276745   0.00543874
7830.00   0.34297793   0.00477012
7832.00   0.33995922   0.00434561
7834.00   0.32971391   0.00424758
7836.00   0.32083344   0.00437966
7838.00   0.32076152   0.00459465
7840.00   0.32810877   0.00494240
7842.00   0.33306804   0.00514461
7844.00   0.34252997   0.00523318
7846.00   0.34160346   0.00543374
7848.00   0.32808280   0.00577191
7850.00   0.31588985   0.00606977
7852.00   0.31534059   0.00631838
7854.00   0.32335673   0.00655224
7856.00   0.32757804   0.00649359
7858.00   0.33418034   0.00613905
7860.00   0.33550790   0.00588588
7862.00   0.32885347   0.00563454
7864.00   0.32053904   0.00541039
7866.00   0.32158618   0.00531264
7868.00   0.32818668   0.00533241
7870.00   0.33258411   0.00535355
7872.00   0.34138368   0.00543900
7874.00   0.34637403   0.00543889
7876.00   0.34607005   0.00536553
7878.00   0.34185259   0.00526858
7880.00   0.33871603   0.00515652
7882.00   0.33621639   0.00511230
7884.00   0.33813041   0.00522865
7886.00   0.34341180   0.00551264
7888.00   0.34267488   0.00558893
7890.00   0.33438943   0.00554799
7892.00   0.33345953   0.00542973
7894.00   0.33734314   0.00519993
7896.00   0.34295422   0.00491234
7898.00   0.34538561   0.00473692
7900.00   0.34156299   0.00464518
7902.00   0.34213237   0.00465583
7904.00   0.34329727   0.00471146
7906.00   0.34987274   0.00497842
7908.00   0.36626570   0.00544764
7910.00   0.37783262   0.00595236
7912.00   0.37201211   0.00646975
7914.00   0.35739338   0.00700527
7916.00   0.34563315   0.00719441
7918.00   0.32926318   0.00716436
7920.00   0.31689642   0.00695545
7922.00   0.30840231   0.00639545
7924.00   0.30566098   0.00596111
7926.00   0.30640297   0.00587372
7928.00   0.31233348   0.00590211
7930.00   0.32124896   0.00562386
7932.00   0.33383396   0.00511073
7934.00   0.33987466   0.00486004
7936.00   0.34332751   0.00481796
7938.00   0.34424289   0.00480540
7940.00   0.33851984   0.00485556
7942.00   0.33086656   0.00491071
7944.00   0.33195502   0.00501614
7946.00   0.34103060   0.00518012
7948.00   0.34775558   0.00517053
7950.00   0.35777965   0.00491837
7952.00   0.36072937   0.00488746
7954.00   0.35480820   0.00493553
7956.00   0.34212980   0.00505182
7958.00   0.33500955   0.00539173
7960.00   0.33380045   0.00583250
7962.00   0.33450153   0.00606937
7964.00   0.33757666   0.00628882
7966.00   0.34325115   0.00633698
7968.00   0.35299480   0.00607636
7970.00   0.36528093   0.00575937
7972.00   0.37574200   0.00554758
7974.00   0.37945388   0.00536007
7976.00   0.38329184   0.00532843
7978.00   0.38577405   0.00547788
7980.00   0.38712206   0.00555606
7982.00   0.38334659   0.00557430
7984.00   0.38783012   0.00559049
7986.00   0.40058714   0.00566054
7988.00   0.41545464   0.00579845
7990.00   0.41291289   0.00600656
7992.00   0.39347497   0.00636828
7994.00   0.38201798   0.00639540
7996.00   0.37468652   0.00611308
7998.00   0.37069933   0.00573299
8000.00   0.37054993   0.00525390
8002.00   0.37302965   0.00477438
8004.00   0.36793382   0.00458001
8006.00   0.35689794   0.00468381
8008.00   0.34868975   0.00477678
8010.00   0.33789526   0.00500399
8012.00   0.33389358   0.00509536
8014.00   0.33978860   0.00510008
8016.00   0.34879968   0.00507902
8018.00   0.35382442   0.00519022
8020.00   0.35884964   0.00552986
8022.00   0.36487548   0.00573630
8024.00   0.37630607   0.00595707
8026.00   0.37698497   0.00598132
8028.00   0.36166818   0.00588567
8030.00   0.34382202   0.00562843
8032.00   0.33948849   0.00524274
8034.00   0.34562822   0.00481535
8036.00   0.34887645   0.00467575
8038.00   0.35330291   0.00484444
8040.00   0.35689624   0.00482400
8042.00   0.36297700   0.00455217
8044.00   0.36653097   0.00436902
8046.00   0.36007914   0.00456894
8048.00   0.34606266   0.00492308
8050.00   0.34179990   0.00496093
8052.00   0.34081167   0.00478761
8054.00   0.34283064   0.00483022
8056.00   0.35168159   0.00506583
8058.00   0.35933639   0.00523111
8060.00   0.35916366   0.00536808
8062.00   0.35426641   0.00544848
8064.00   0.35935576   0.00544313
8066.00   0.37892872   0.00542930
8068.00   0.37829238   0.00526003
8070.00   0.35509184   0.00478681
8072.00   0.34033526   0.00448222
8074.00   0.33982189   0.00442664
8076.00   0.34401397   0.00443137
8078.00   0.35115631   0.00441698
8080.00   0.37047417   0.00445061
8082.00   0.37632403   0.00443100
8084.00   0.37374212   0.00436873
8086.00   0.37028198   0.00433175
8088.00   0.36539792   0.00428776
8090.00   0.35903527   0.00428197
8092.00   0.35742342   0.00442886
8094.00   0.35725720   0.00474635
8096.00   0.35211127   0.00484573
8098.00   0.34274659   0.00482500
8100.00   0.33754197   0.00475231
8102.00   0.33514582   0.00459511
8104.00   0.33322674   0.00443326
8106.00   0.33227961   0.00437229
8108.00   0.33544658   0.00442064
8110.00   0.33627346   0.00436893
8112.00   0.33433954   0.00422425
8114.00   0.33354133   0.00412914
8116.00   0.33413839   0.00404873
8118.00   0.33507437   0.00403878
8120.00   0.33578420   0.00413008
8122.00   0.33990668   0.00431062
8124.00   0.34425433   0.00440814
8126.00   0.34608065   0.00444541
8128.00   0.34585765   0.00449099
8130.00   0.34645067   0.00453166
8132.00   0.34098552   0.00457042
8134.00   0.32398744   0.00460968
8136.00   0.31145950   0.00463140
8138.00   0.31363635   0.00467088
8140.00   0.32666120   0.00478823
8142.00   0.33493975   0.00477116
8144.00   0.34706253   0.00458923
8146.00   0.34894608   0.00458863
8148.00   0.33608276   0.00479797
8150.00   0.32855870   0.00495412
8152.00   0.33605435   0.00512035
8154.00   0.34736076   0.00523661
8156.00   0.34270874   0.00508763
8158.00   0.32521248   0.00466872
8160.00   0.31578435   0.00447182
8162.00   0.30951762   0.00439343
8164.00   0.30914910   0.00435465
8166.00   0.31547548   0.00439471
8168.00   0.31861863   0.00447481
8170.00   0.31497735   0.00450258
8172.00   0.30791053   0.00444915
8174.00   0.30390708   0.00468413
8176.00   0.29710469   0.00518297
8178.00   0.29883510   0.00564020
8180.00   0.30877537   0.00604107
8182.00   0.31833063   0.00635972
8184.00   0.31709225   0.00670243
8186.00   0.29884620   0.00714593
8188.00   0.29441962   0.00733332
8190.00   0.29876220   0.00733406
8192.00   0.30792437   0.00727958
8194.00   0.31727925   0.00717260
8196.00   0.32397212   0.00696698
8198.00   0.32128491   0.00664221
8200.00   0.30757274   0.00612246
8202.00   0.30526902   0.00575623
8204.00   0.31090400   0.00545829
8206.00   0.31317329   0.00526795
8208.00   0.31120872   0.00518295
8210.00   0.30880772   0.00509646
8212.00   0.30665357   0.00501539
8214.00   0.30486143   0.00492056
8216.00   0.30826311   0.00485385
8218.00   0.31821415   0.00484343
8220.00   0.31898524   0.00481146
8222.00   0.30899245   0.00471930
8224.00   0.30254801   0.00466129
8226.00   0.30254579   0.00466404
8228.00   0.30710500   0.00468806
8230.00   0.31207396   0.00468032
8232.00   0.31917930   0.00465982
8234.00   0.31638443   0.00461090
8236.00   0.30079870   0.00452653
8238.00   0.29210331   0.00443303
8240.00   0.29255694   0.00434587
8242.00   0.30037288   0.00426990
8244.00   0.30339712   0.00422897
8246.00   0.30207138   0.00425994
8248.00   0.29874563   0.00426440
8250.00   0.29227062   0.00427960
8252.00   0.28453347   0.00424770
8254.00   0.27833842   0.00416324
8256.00   0.27465823   0.00409089
8258.00   0.26467502   0.00408339
8260.00   0.25035028   0.00407836
8262.00   0.25249209   0.00408444
8264.00   0.27099754   0.00408896
8266.00   0.27998526   0.00416698
8268.00   0.28466545   0.00422601
8270.00   0.28157517   0.00443425
8272.00   0.26332134   0.00489128
8274.00   0.23566484   0.00548515
8276.00   0.23077664   0.00592757
8278.00   0.23813924   0.00639893
8280.00   0.24919215   0.00673307
8282.00   0.27541444   0.00694631
8284.00   0.29294640   0.00700838
8286.00   0.29267640   0.00709069
8288.00   0.28633708   0.00728797
8290.00   0.27827567   0.00736054
8292.00   0.26109581   0.00728238
8294.00   0.25725746   0.00729709
8296.00   0.27286878   0.00759396
8298.00   0.27277625   0.00741755
8300.00   0.25103192   0.00665286
8302.00   0.23269621   0.00591477
8304.00   0.23324977   0.00550770
8306.00   0.24772322   0.00522275
8308.00   0.24770275   0.00496806
8310.00   0.24000578   0.00483102
8312.00   0.22949776   0.00472148
8314.00   0.21607580   0.00473590
8316.00   0.20386502   0.00475927
8318.00   0.20025338   0.00458511
8320.00   0.20731319   0.00421458
8322.00   0.20740702   0.00398475
8324.00   0.20479174   0.00379353
8326.00   0.20222282   0.00369741
8328.00   0.20225653   0.00363018
8330.00   0.19739500   0.00372592
8332.00   0.18907906   0.00392714
8334.00   0.17585342   0.00432152
8336.00   0.15251738   0.00525265
8338.00   0.11464919   0.00650591
8340.00   0.10657003   0.00737497
8342.00   0.12817037   0.00827164
8344.00   0.14324140   0.00872224
8346.00   0.15682863   0.00877737
8348.00   0.16996173   0.00875311
8350.00   0.17184588   0.00834795
8352.00   0.16869674   0.00716481
8354.00   0.16975744   0.00638525
8356.00   0.16931278   0.00594393
8358.00   0.17138910   0.00567895
8360.00   0.18347130   0.00538697
8362.00   0.19385516   0.00516013
8364.00   0.19523346   0.00489258
8366.00   0.19066557   0.00449029
8368.00   0.18645614   0.00425731
8370.00   0.17790361   0.00410629
8372.00   0.17592300   0.00415738
8374.00   0.17923272   0.00445241
8376.00   0.18144207   0.00477988
8378.00   0.18465988   0.00500750
8380.00   0.18741892   0.00515259
8382.00   0.18793207   0.00522568
8384.00   0.18842393   0.00525952
8386.00   0.18773606   0.00521726
8388.00   0.18189847   0.00481304
8390.00   0.17756408   0.00474962
8392.00   0.17608623   0.00540252
8394.00   0.17223573   0.00628386
8396.00   0.16958906   0.00674648
8398.00   0.17004375   0.00715749
8400.00   0.17337214   0.00713137
8402.00   0.17829714   0.00653634
8404.00   0.18067858   0.00593617
8406.00   0.18655808   0.00538637
8408.00   0.19749288   0.00500474
8410.00   0.20809107   0.00516131
8412.00   0.21830510   0.00584069
8414.00   0.21881349   0.00602760
8416.00   0.20871373   0.00593664
8418.00   0.20375099   0.00582114
8420.00   0.19666282   0.00553283
8422.00   0.18850156   0.00542458
8424.00   0.18797819   0.00606895
8426.00   0.19223413   0.00732187
8428.00   0.19614264   0.00769281
8430.00   0.20292696   0.00772665
8432.00   0.20559395   0.00739377
8434.00   0.20489499   0.00652368
8436.00   0.20810446   0.00558580
8438.00   0.21018433   0.00493121
8440.00   0.21011373   0.00442885
8442.00   0.21095367   0.00419986
8444.00   0.21202764   0.00437015
8446.00   0.21291928   0.00458511
8448.00   0.21392193   0.00497550
8450.00   0.21404729   0.00521274
8452.00   0.21189267   0.00522863
8454.00   0.21001689   0.00517559
8456.00   0.22388523   0.00540793
8458.00   0.25767517   0.00582835
8460.00   0.27378625   0.00626175
8462.00   0.27992238   0.00691807
8464.00   0.26943200   0.00721087
8466.00   0.24671522   0.00711898
8468.00   0.22675660   0.00674234
8470.00   0.21651437   0.00624522
8472.00   0.21110372   0.00556165
8474.00   0.20964163   0.00502505
8476.00   0.21739316   0.00443647
8478.00   0.21904662   0.00401744
8480.00   0.21371447   0.00409783
8482.00   0.20905306   0.00434575
8484.00   0.21286661   0.00441478
8486.00   0.21860166   0.00440426
8488.00   0.22598464   0.00469692
8490.00   0.24230853   0.00532624
8492.00   0.24866136   0.00560510
8494.00   0.23794346   0.00551439
8496.00   0.22274181   0.00540575
8498.00   0.21195529   0.00549223
8500.00   0.19915888   0.00570405
8502.00   0.19720460   0.00578630
8504.00   0.20535303   0.00585940
8506.00   0.21183524   0.00568832
8508.00   0.21966318   0.00517037
8510.00   0.22496295   0.00466801
8512.00   0.22410677   0.00434666
8514.00   0.22026067   0.00414820
8516.00   0.21792372   0.00404125
8518.00   0.21354876   0.00409815
8520.00   0.21558645   0.00412650
8522.00   0.22491587   0.00420130
8524.00   0.23390489   0.00420437
8526.00   0.24259005   0.00409361
8528.00   0.24854904   0.00394863
8530.00   0.25023494   0.00403294
8532.00   0.24986602   0.00434868
8534.00   0.25171166   0.00449049
8536.00   0.25613950   0.00448691
8538.00   0.25583097   0.00458837
8540.00   0.25073887   0.00484564
8542.00   0.24616998   0.00504363
8544.00   0.24579691   0.00518040
8546.00   0.24842227   0.00535618
8548.00   0.25317060   0.00528550
8550.00   0.26456785   0.00492002
8552.00   0.26652503   0.00470243
8554.00   0.25559710   0.00466125
8556.00   0.24716937   0.00461213
8558.00   0.24854654   0.00449017
8560.00   0.25384828   0.00436471
8562.00   0.26465391   0.00430568
8564.00   0.28493065   0.00428413
8566.00   0.29560274   0.00426068
8568.00   0.29631026   0.00425748
8570.00   0.29972337   0.00428562
8572.00   0.30499382   0.00431443
8574.00   0.30966094   0.00437163
8576.00   0.31698550   0.00444945
8578.00   0.32561779   0.00456205
8580.00   0.33088857   0.00456977
8582.00   0.33410890   0.00439361
8584.00   0.33844285   0.00437326
8586.00   0.33876567   0.00458233
8588.00   0.33783060   0.00491319
8590.00   0.34048745   0.00520153
8592.00   0.34484723   0.00548446
8594.00   0.34682988   0.00553967
8596.00   0.34845896   0.00538480
8598.00   0.34635289   0.00523370
8600.00   0.33893980   0.00502441
8602.00   0.33614154   0.00491207
8604.00   0.34483841   0.00483662
8606.00   0.36638147   0.00464335
8608.00   0.37771873   0.00466419
8610.00   0.38562809   0.00481713
8612.00   0.38760316   0.00510899
8614.00   0.38311943   0.00553140
8616.00   0.38055956   0.00598509
8618.00   0.38440388   0.00639840
8620.00   0.39797366   0.00674371
8622.00   0.40649492   0.00679986
8624.00   0.40908639   0.00650797
8626.00   0.40941256   0.00646580
8628.00   0.41390987   0.00670728
8630.00   0.41813166   0.00691963
8632.00   0.40964440   0.00693654
8634.00   0.40267253   0.00689452
8636.00   0.41094637   0.00670342
8638.00   0.42869480   0.00620625
8640.00   0.43326901   0.00601058
8642.00   0.42782703   0.00610532
8644.00   0.42635502   0.00621933
8646.00   0.42636095   0.00637121
8648.00   0.42514943   0.00658794
8650.00   0.42959987   0.00674513
8652.00   0.44405825   0.00696711
8654.00   0.44714743   0.00709985
8656.00   0.44041541   0.00723057
8658.00   0.43707013   0.00712550
8660.00   0.43503483   0.00680417
8662.00   0.43303956   0.00654032
8664.00   0.43913892   0.00646057
8666.00   0.45198385   0.00649741
8668.00   0.45276666   0.00648642
8670.00   0.44298190   0.00651733
8672.00   0.44035050   0.00637798
8674.00   0.44230083   0.00601783
8676.00   0.44873880   0.00579789
8678.00   0.46240178   0.00579383
8680.00   0.48046298   0.00581781
8682.00   0.48525921   0.00566957
8684.00   0.47990984   0.00538566
8686.00   0.47462434   0.00528941
8688.00   0.46464078   0.00536910
8690.00   0.46198523   0.00541060
8692.00   0.46608803   0.00537844
8694.00   0.47074734   0.00529106
8696.00   0.46912868   0.00522863
8698.00   0.46126106   0.00516466
8700.00   0.46158311   0.00514278
8702.00   0.46927148   0.00514677
8704.00   0.47723845   0.00518700
8706.00   0.48433374   0.00529218
8708.00   0.49056709   0.00540763
8710.00   0.49340114   0.00538051
8712.00   0.49231115   0.00522602
8714.00   0.49531582   0.00513281
8716.00   0.50344801   0.00502227
8718.00   0.50531179   0.00496639
8720.00   0.50081110   0.00500170
8722.00   0.49488749   0.00504654
8724.00   0.48630628   0.00507315
8726.00   0.47527364   0.00522527
8728.00   0.47847021   0.00531803
8730.00   0.49376154   0.00536804
8732.00   0.50234073   0.00534028
8734.00   0.50966901   0.00529014
8736.00   0.51842055   0.00531043
8738.00   0.52128914   0.00539737
8740.00   0.51792175   0.00546830
8742.00   0.51788187   0.00540347
8744.00   0.52115914   0.00521159
8746.00   0.51826039   0.00527090
8748.00   0.50367811   0.00547769
8750.00   0.49658768   0.00574218
8752.00   0.50078484   0.00610516
8754.00   0.50960979   0.00658872
8756.00   0.52130517   0.00724419
8758.00   0.53790876   0.00811469
8760.00   0.54449645   0.00867082
8762.00   0.54511762   0.00908348
8764.00   0.54314360   0.00934913
8766.00   0.52874309   0.00955672
8768.00   0.51140636   0.00959977
8770.00   0.51106891   0.00943761
8772.00   0.51790208   0.00904438
8774.00   0.51953642   0.00892197
8776.00   0.52157257   0.00909532
8778.00   0.52439788   0.00901936
8780.00   0.51824820   0.00853257
8782.00   0.51502743   0.00797030
8784.00   0.52570668   0.00762586
8786.00   0.54760697   0.00736891
8788.00   0.54632527   0.00718084
8790.00   0.52143809   0.00715966
8792.00   0.51128834   0.00698895
8794.00   0.51912799   0.00661760
8796.00   0.53202388   0.00625569
8798.00   0.53915590   0.00610099
8800.00   0.54527938   0.00609910
8802.00   0.55137861   0.00598480
8804.00   0.55669218   0.00577384
8806.00   0.55992267   0.00570450
8808.00   0.55930236   0.00578761
8810.00   0.56197968   0.00593666
8812.00   0.57022291   0.00596334
8814.00   0.58551684   0.00607104
8816.00   0.59695217   0.00638347
8818.00   0.59851971   0.00643579
8820.00   0.59409669   0.00837927
8822.00   0.58289707   0.01198856
8824.00   0.57944283   0.01367951
8826.00   0.56632584   0.01412146
8828.00   0.55526951   0.01381663
8830.00   0.55266511   0.01281797
8832.00   0.54143810   0.01076516
8834.00   0.54070792   0.00964214
8836.00   0.55201721   0.00922342
8838.00   0.56181809   0.00862137
8840.00   0.56470367   0.00779334
8842.00   0.56190014   0.00715883
8844.00   0.55445841   0.00709467
8846.00   0.54347908   0.00737609
8848.00   0.54745159   0.00745947
8850.00   0.56664476   0.00763138
8852.00   0.57756591   0.00746702
8854.00   0.58045158   0.00673874
8856.00   0.57944685   0.00630322
8858.00   0.58202830   0.00635424
8860.00   0.58557394   0.00662143
8862.00   0.58371899   0.00691844
8864.00   0.57903102   0.00743984
8866.00   0.56638655   0.00759936
8868.00   0.53690171   0.00741051
8870.00   0.52120078   0.00718226
8872.00   0.52228358   0.00697584
8874.00   0.53518772   0.00688368
8876.00   0.55222014   0.00731741
8878.00   0.57781613   0.00830708
8880.00   0.59119245   0.00909564
8882.00   0.59526229   0.01013415
8884.00   0.59861985   0.01052155
8886.00   0.60498217   0.01038478
8888.00   0.61202353   0.00984913
8890.00   0.61546010   0.00914973
8892.00   0.61710089   0.00810518
8894.00   0.60801929   0.00749919
8896.00   0.58103719   0.00713244
8898.00   0.57130152   0.00709218
8900.00   0.58256587   0.00754744
8902.00   0.59634075   0.00793176
8904.00   0.59776863   0.00787939
8906.00   0.59391221   0.00746563
8908.00   0.59175947   0.00762682
8910.00   0.58950976   0.00789329
8912.00   0.58770189   0.00886360
8914.00   0.58467633   0.01078946
8916.00   0.57690352   0.01219797
8918.00   0.57891923   0.01255557
8920.00   0.58901826   0.01198711
8922.00   0.59187645   0.01117238
8924.00   0.59825096   0.00974395
8926.00   0.59339556   0.00869341
8928.00   0.56603277   0.00763343
8930.00   0.54973122   0.00677504
8932.00   0.56041917   0.00660609
8934.00   0.58484527   0.00701103
8936.00   0.59682491   0.00742756
8938.00   0.60377336   0.00802441
8940.00   0.59432229   0.00831289
8942.00   0.55710468   0.00845456
8944.00   0.53977716   0.00857305
8946.00   0.54718962   0.00840630
8948.00   0.56063807   0.00806786
8950.00   0.56121859   0.00822035
8952.00   0.56011787   0.00882780
8954.00   0.56514913   0.00932314
8956.00   0.57392082   0.00998618
8958.00   0.57731247   0.01032134
8960.00   0.58546510   0.01059305
8962.00   0.59168664   0.01040179
8964.00   0.58127040   0.00937820
8966.00   0.56419572   0.00772069
8968.00   0.55355388   0.00692226
8970.00   0.53888595   0.00677401
8972.00   0.53379780   0.00653653
8974.00   0.54401571   0.00639067
8976.00   0.55769724   0.00634296
8978.00   0.56545526   0.00644382
8980.00   0.56520361   0.00667539
8982.00   0.56457800   0.00713103
8984.00   0.56514502   0.00789117
8986.00   0.55977190   0.00826237
8988.00   0.54259345   0.00835043
8990.00   0.53030327   0.00838300
8992.00   0.52902216   0.00825258
8994.00   0.53908965   0.00827921
8996.00   0.54861468   0.00903502
8998.00   0.55964100   0.01030892
9000.00   0.56006670   0.01057951
9002.00   0.54772925   0.01021606
9004.00   0.54324234   0.00969889
9006.00   0.54726198   0.00874650
9008.00   0.55145064   0.00774880
9010.00   0.55225319   0.00716357
9012.00   0.54931033   0.00673330
9014.00   0.55576000   0.00666230
9016.00   0.57809433   0.00727598
9018.00   0.58254811   0.00747241
9020.00   0.56000981   0.00696682
9022.00   0.53392449   0.00631623
9024.00   0.52522719   0.00657289
9026.00   0.52851000   0.00755521
9028.00   0.52070165   0.00777556
9030.00   0.50654277   0.00766551
9032.00   0.49969645   0.00754616
9034.00   0.50384492   0.00735491
9036.00   0.49755640   0.00695714
9038.00   0.47928075   0.00663763
9040.00   0.45428342   0.00649197
9042.00   0.44325398   0.00670589
9044.00   0.44443287   0.00745241
9046.00   0.44795668   0.00782492
9048.00   0.46005176   0.00811024
9050.00   0.46188891   0.00790439
9052.00   0.45429900   0.00721090
9054.00   0.44115366   0.00653205
9056.00   0.43019024   0.00654034
9058.00   0.42331934   0.00696633
9060.00   0.42914042   0.00691794
9062.00   0.44767401   0.00649644
9064.00   0.46278246   0.00631160
9066.00   0.48873717   0.00631243
9068.00   0.51096523   0.00644280
9070.00   0.50893140   0.00653686
9072.00   0.48363212   0.00663181
9074.00   0.47804907   0.00666590
9076.00   0.48304830   0.00666424
9078.00   0.48867315   0.00659653
9080.00   0.49134502   0.00638027
9082.00   0.49463460   0.00626866
9084.00   0.49937806   0.00643616
9086.00   0.49681704   0.00687234
9088.00   0.48909615   0.00723524
9090.00   0.47726850   0.00764325
9092.00   0.46881150   0.00766124
9094.00   0.45876409   0.00724393
9096.00   0.44687022   0.00701643
9098.00   0.44112843   0.00712362
9100.00   0.44853441   0.00749678
9102.00   0.44769599   0.00752805
9104.00   0.43827946   0.00731593
9106.00   0.43096070   0.00698700
9108.00   0.42472762   0.00637152
9110.00   0.41980606   0.00589285
9112.00   0.41935019   0.00561782
9114.00   0.42496856   0.00558240
9116.00   0.43167381   0.00577302
9118.00   0.44317621   0.00621093
9120.00   0.44825120   0.00636687
9122.00   0.44821844   0.00638309
9124.00   0.44989413   0.00638051
9126.00   0.45191823   0.00626183
9128.00   0.45124994   0.00618078
9130.00   0.45356266   0.00640419
9132.00   0.45556453   0.00684321
9134.00   0.45297368   0.00686227
9136.00   0.44610494   0.00654400
9138.00   0.44528770   0.00646541
9140.00   0.44646248   0.00655612
9142.00   0.44760710   0.00662172
9144.00   0.45246366   0.00683805
9146.00   0.45947996   0.00714871
9148.00   0.46222700   0.00715901
9150.00   0.46636117   0.00700048
9152.00   0.45842472   0.00703611
9154.00   0.43614024   0.00716625
9156.00   0.41133140   0.00714169
9158.00   0.38399535   0.00731631
9160.00   0.36020564   0.00765822
9162.00   0.35731044   0.00767798
9164.00   0.36925521   0.00767303
9166.00   0.37658888   0.00744074
9168.00   0.38785878   0.00674999
9170.00   0.39886701   0.00599677
9172.00   0.39971882   0.00575148
9174.00   0.39318976   0.00590019
9176.00   0.39603610   0.00591954
9178.00   0.40801544   0.00594603
9180.00   0.41159530   0.00594981
9182.00   0.40969735   0.00592283
9184.00   0.40732266   0.00594862
9186.00   0.40386519   0.00604318
9188.00   0.40299787   0.00615063
9190.00   0.40841259   0.00620293
9192.00   0.41316721   0.00616562
9194.00   0.41596963   0.00616925
9196.00   0.41903768   0.00618945
9198.00   0.42483541   0.00626396
9200.00   0.43097638   0.00637176
9202.00   0.43521659   0.00647218
9204.00   0.43138127   0.00645777
9206.00   0.42295626   0.00625484
9208.00   0.42709079   0.00631428
9210.00   0.43991604   0.00658546
9212.00   0.43889038   0.00683724
9214.00   0.42372809   0.00708183
9216.00   0.41665708   0.00728638
9218.00   0.41839419   0.00760751
9220.00   0.42535122   0.00794489
9222.00   0.42810889   0.00772996
9224.00   0.43001159   0.00688404
9226.00   0.42317972   0.00651703
9228.00   0.39809857   0.00651865
9230.00   0.39128084   0.00658059
9232.00   0.41356359   0.00675335
9234.00   0.43520546   0.00685959
9236.00   0.42600441   0.00665659
9238.00   0.39814840   0.00616318
9240.00   0.39643012   0.00622259
9242.00   0.41735692   0.00684659
9244.00   0.42104803   0.00714384
9246.00   0.40683354   0.00705584
9248.00   0.39175977   0.00668012
9250.00   0.38944897   0.00642076
9252.00   0.39798929   0.00630272
9254.00   0.39640251   0.00626237
9256.00   0.39094147   0.00633965
9258.00   0.38000335   0.00640678
9260.00   0.35555567   0.00654095
9262.00   0.34063244   0.00651353
9264.00   0.35370244   0.00633674
9266.00   0.38538207   0.00614355
9268.00   0.40146707   0.00610911
9270.00   0.41690737   0.00617800
9272.00   0.42186785   0.00624017
9274.00   0.41526482   0.00622841
9276.00   0.40109780   0.00638622
9278.00   0.38248558   0.00685949
9280.00   0.36170401   0.00744562
9282.00   0.36298630   0.00791740
9284.00   0.38784143   0.00856635
9286.00   0.39478648   0.00865187
9288.00   0.39162669   0.00803049
9290.00   0.38904536   0.00760581
9292.00   0.37292314   0.00753482
9294.00   0.34142132   0.00776693
9296.00   0.33284637   0.00832509
9298.00   0.33691289   0.00924173
9300.00   0.34162310   0.01044915
9302.00   0.36242883   0.01125103
9304.00   0.37384541   0.01343395
9306.00   0.35010789   0.01738680
9308.00   0.31010546   0.02043013
9310.00   0.31736825   0.02134877
9312.00   0.37191623   0.02077687
9314.00   0.39183864   0.02068750
9316.00   0.39830010   0.02064812
9318.00   0.40095884   0.02047075
9320.00   0.40754114   0.01991130
9322.00   0.39100049   0.01897508
9324.00   0.34890625   0.01789810
9326.00   0.30984573   0.01661464
9328.00   0.30970432   0.01600329
9330.00   0.33456779   0.01641681
9332.00   0.33872652   0.01624845
9334.00   0.33764590   0.01536714
9336.00   0.33439076   0.01434286
9338.00   0.31476836   0.01397412
9340.00   0.30124052   0.01362381
9342.00   0.28906895   0.01288360
9344.00   0.25476398   0.01199861
9346.00   0.25551553   0.01136513
9348.00   0.30158095   0.01086588
9350.00   0.32937555   0.01044992
9352.00   0.32790767   0.01010866
9354.00   0.33332495   0.00995068
9356.00   0.34461069   0.01007550
9358.00   0.33842662   0.01024601
9360.00   0.35389774   0.01033224
9362.00   0.40104841   0.00958893
9364.00   0.41515271   0.01109188
9366.00   0.37959552   0.01367183
9368.00   0.34743817   0.01673004
9370.00   0.33734801   0.02095913
9372.00   0.30922309   0.02569988
9374.00   0.29211356   0.02733532
9376.00   0.29386452   0.02753747
9378.00   0.29705065   0.02644085
9380.00   0.27663887   0.02307932
9382.00   0.27242815   0.01947177
9384.00   0.30809495   0.01618776
9386.00   0.34409356   0.01308782
9388.00   0.35782453   0.01106360
9390.00   0.36463997   0.01053214
9392.00   0.36822546   0.00987941
9394.00   0.36002633   0.00984151
9396.00   0.35657299   0.01020915
9398.00   0.35057394   0.01087235
9400.00   0.33635360   0.01175546
9402.00   0.34269387   0.01219859
9404.00   0.37141673   0.01250589
9406.00   0.38993423   0.01238797
9408.00   0.41355495   0.01153290
9410.00   0.42009172   0.01103726
9412.00   0.40315212   0.01098099
9414.00   0.36722945   0.01127094
9416.00   0.33180885   0.01226896
9418.00   0.29547949   0.01390445
9420.00   0.28570171   0.01456066
9422.00   0.29697278   0.01498518
9424.00   0.30843201   0.01485221
9426.00   0.32876980   0.01332845
9428.00   0.35523830   0.01201955
9430.00   0.37579781   0.01255766
9432.00   0.38793325   0.01403990
9434.00   0.39575973   0.01614473
9436.00   0.40206879   0.01930415
9438.00   0.39454684   0.02084009
9440.00   0.35720123   0.02145000
9442.00   0.33936356   0.02148347
9444.00   0.36333448   0.02067283
9446.00   0.39522381   0.01923342
9448.00   0.40173724   0.01792538
9450.00   0.40444474   0.01582016
9452.00   0.40927467   0.01521245
9454.00   0.41011205   0.01648131
9456.00   0.40139343   0.01776778
9458.00   0.39520392   0.01877566
9460.00   0.40045980   0.01902704
9462.00   0.38412474   0.01794931
9464.00   0.32846388   0.01494960
9466.00   0.32188766   0.01396715
9468.00   0.36208420   0.01413708
9470.00   0.38964060   0.01568545
9472.00   0.41558488   0.01872657
9474.00   0.42920730   0.02124008
9476.00   0.38600433   0.02163397
9478.00   0.29211892   0.02027140
9480.00   0.26527049   0.01894987
9482.00   0.27858028   0.01655687
9484.00   0.29186808   0.01464256
9486.00   0.31581083   0.01296026
9488.00   0.33413236   0.01198888
9490.00   0.33559316   0.01150995
9492.00   0.32470171   0.01146544
9494.00   0.32493611   0.01223921
9496.00   0.32834023   0.01386366
9498.00   0.33080989   0.01508064
9500.00   0.33200482   0.01651310
9502.00   0.34211324   0.01725283
9504.00   0.35514340   0.01701812
9506.00   0.37148026   0.01608161
9508.00   0.37545320   0.01497366
9510.00   0.35873558   0.01298141
9512.00   0.34622888   0.01236067
9514.00   0.33177367   0.01321357
9516.00   0.33809604   0.01412892
9518.00   0.34901585   0.01503201
9520.00   0.35164616   0.01558105
9522.00   0.36050914   0.01545051
9524.00   0.38296832   0.01494358
9526.00   0.37773830   0.01427735
9528.00   0.34590246   0.01294479
9530.00   0.31412861   0.01194309
9532.00   0.28029607   0.01164493
9534.00   0.27243170   0.01140815
9536.00   0.28006031   0.01094764
9538.00   0.29598814   0.01076398
9540.00   0.32214253   0.01110176
9542.00   0.36842112   0.01188858
9544.00   0.38537395   0.01254748
9546.00   0.38831596   0.01352589
9548.00   0.38459097   0.01419165
9550.00   0.35283495   0.01407721
9552.00   0.29258794   0.01353207
9554.00   0.26341689   0.01356272
9556.00   0.25345030   0.01368780
9558.00   0.26337948   0.01430466
9560.00   0.29613441   0.01559299
9562.00   0.31679417   0.01667572
9564.00   0.33029361   0.01767672
9566.00   0.34185690   0.01863416
9568.00   0.35139845   0.01838703
9570.00   0.35576540   0.01684810
9572.00   0.33941923   0.01560090
9574.00   0.28682800   0.01413089
9576.00   0.26532671   0.01302326
9578.00   0.27769479   0.01221226
9580.00   0.31061086   0.01195506
9582.00   0.33091429   0.01171335
9584.00   0.32699475   0.01104020
9586.00   0.33767733   0.01075192
9588.00   0.36836676   0.01093950
9590.00   0.39476977   0.01120465
9592.00   0.38086437   0.01101165
9594.00   0.34439185   0.01074302
9596.00   0.34120280   0.01109479
9598.00   0.36320885   0.01189339
9600.00   0.35178567   0.01195992
9602.00   0.31583245   0.01135850
9604.00   0.28253470   0.01122056
9606.00   0.24460286   0.01179302
9608.00   0.22201405   0.01223450
9610.00   0.22779772   0.01195519
9612.00   0.26111307   0.01136553
9614.00   0.26771860   0.01127378
9616.00   0.24883763   0.01101497
9618.00   0.25831272   0.01154789
9620.00   0.30996300   0.01353986
9622.00   0.35283567   0.01488332
9624.00   0.35899392   0.01438534
9626.00   0.34026118   0.01259273
9628.00   0.32121471   0.01157409
9630.00   0.28741238   0.01068942
9632.00   0.26833235   0.01022517
9634.00   0.25935888   0.01040128
9636.00   0.25638282   0.01043356
9638.00   0.24918476   0.01026305
9640.00   0.24030174   0.01016234
9642.00   0.25877099   0.01029131
9644.00   0.30636105   0.01077687
9646.00   0.31227069   0.01099169
9648.00   0.28764293   0.01098169
9650.00   0.27215347   0.01102098
9652.00   0.24836785   0.01143861
9654.00   0.22390240   0.01187244
9656.00   0.22844443   0.01189820
9658.00   0.25628156   0.01167040
9660.00   0.27216911   0.01176491
9662.00   0.28991199   0.01196161
9664.00   0.29957677   0.01234091
9666.00   0.29552880   0.01301941
9668.00   0.29731259   0.01370515
9670.00   0.31693210   0.01401811
9672.00   0.33727141   0.01393548
9674.00   0.33225656   0.01398057
9676.00   0.30261177   0.01400810
9678.00   0.27373944   0.01412649
9680.00   0.23546236   0.01429011
9682.00   0.22305876   0.01444753
9684.00   0.20894779   0.01483440
9686.00   0.19475005   0.01532360
9688.00   0.20256753   0.01508166
9690.00   0.22524545   0.01410173
9692.00   0.24112167   0.01373737
9694.00   0.26302211   0.01362371
9696.00   0.27205241   0.01396907
9698.00   0.26884559   0.01504390
9700.00   0.26054601   0.01592359
9702.00   0.25837840   0.01576334
9704.00   0.27322488   0.01476858
9706.00   0.29680085   0.01420953
9708.00   0.33353055   0.01334514
9710.00   0.36204626   0.01355367
9712.00   0.40478326   0.01480699
9714.00   0.43289961   0.01600521
9716.00   0.41786300   0.01715225
9718.00   0.37080942   0.01835134
9720.00   0.33922477   0.01846053
9722.00   0.29801326   0.01773978
9724.00   0.28610560   0.01690435
9726.00   0.31483792   0.01544404
9728.00   0.33549967   0.01407738
9730.00   0.32527411   0.01324524
9732.00   0.29635973   0.01293873
9734.00   0.27804492   0.01311027
9736.00   0.26222412   0.01394379
9738.00   0.25950718   0.01431860
9740.00   0.27548545   0.01460225
9742.00   0.27288380   0.01452668
9744.00   0.26131509   0.01401919
9746.00   0.25195334   0.01333244
9748.00   0.23117673   0.01295104
9750.00   0.20222074   0.01287504
9752.00   0.18663584   0.01280319
9754.00   0.17578426   0.01285253
9756.00   0.17039099   0.01273200
9758.00   0.18653210   0.01257627
9760.00   0.20968703   0.01229476
9762.00   0.22109941   0.01215204
9764.00   0.22822922   0.01218697
9766.00   0.24135735   0.01217251
9768.00   0.25954498   0.01221540
9770.00   0.27705786   0.01219288
9772.00   0.29464275   0.01195872
9774.00   0.29767179   0.01178511
9776.00   0.29388314   0.01165462
9778.00   0.30738221   0.01193459
9780.00   0.33251657   0.01319441
9782.00   0.36615323   0.01454783
9784.00   0.39559200   0.01736462
9786.00   0.46070667   0.02236695
9788.00   0.47320279   0.02498233
9790.00   0.39826411   0.02539431
9792.00   0.30594610   0.02572718
9794.00   0.26111272   0.02516345
9796.00   0.21747067   0.02287405
9798.00   0.18867479   0.02116162
9800.00   0.18426277   0.01990301
9802.00   0.20533943   0.01892881
9804.00   0.23861535   0.01841568
9806.00   0.28157566   0.01831213
9808.00   0.29082640   0.01795711
9810.00   0.26014714   0.01748517
9812.00   0.23535558   0.01700477
9814.00   0.20125511   0.01650901
9816.00   0.18271825   0.01612206
9818.00   0.16994442   0.01546783
9820.00   0.16773040   0.01466696
9822.00   0.17590057   0.01412920
9824.00   0.18949304   0.01362149
9826.00   0.19778892   0.01335122
9828.00   0.20257312   0.01345251
9830.00   0.21288200   0.01343567
9832.00   0.22974577   0.01312965
9834.00   0.25683901   0.01276977
9836.00   0.26836079   0.01274259
9838.00   0.24526552   0.01306932
9840.00   0.24079207   0.01383335
9842.00   0.25337914   0.01511547
9844.00   0.27365191   0.01597901
9846.00   0.30006088   0.01673932
9848.00   0.29486468   0.01718031
9850.00   0.26014206   0.01723121
9852.00   0.20500671   0.01684572
9854.00   0.20157579   0.01625146
9856.00   0.24786755   0.01515037
9858.00   0.25992093   0.01509098
9860.00   0.23008095   0.01566661
9862.00   0.22108850   0.01699887
9864.00   0.25653819   0.01882873
9866.00   0.30611962   0.02018898
9868.00   0.33079620   0.02174510
9870.00   0.33721091   0.02384978
9872.00   0.34441993   0.02474263
9874.00   0.35110764   0.02516387
9876.00   0.35853741   0.02467137
9878.00   0.35048871   0.02223419
9880.00   0.31967033   0.01894766
9882.00   0.27436258   0.01739521
9884.00   0.20161318   0.01716963
9886.00   0.17796242   0.01737023
9888.00   0.19645119   0.01864495
9890.00   0.21174192   0.01942968
9892.00   0.21321061   0.02003426
9894.00   0.20367079   0.02053389
9896.00   0.20917621   0.02078672
9898.00   0.20728900   0.02068003
9900.00   0.21460404   0.02042583
9902.00   0.24923795   0.01990047
9904.00   0.26720777   0.01997761
9906.00   0.25188767   0.02013022
9908.00   0.22612611   0.02071727
9910.00   0.21176051   0.02261907
9912.00   0.20015435   0.02487265
9914.00   0.19311363   0.02606987
9916.00   0.19254209   0.02714398
9918.00   0.17747816   0.02727603
9920.00   0.13608512   0.02648364
9922.00   0.11673602   0.02499849
9924.00   0.13948906   0.02239570
9926.00   0.17548881   0.01937922
9928.00   0.19812571   0.01784784
9930.00   0.24144287   0.01751089
9932.00   0.26020423   0.01825151
9934.00   0.25353133   0.02001231
9936.00   0.24343598   0.02226194
9938.00   0.23788100   0.02538926
9940.00   0.26270068   0.02860688
9942.00   0.31505476   0.03178559
9944.00   0.34488624   0.03566387
9946.00   0.32305145   0.03664185
9948.00   0.25283827   0.03519808
9950.00   0.22317638   0.03405058
9952.00   0.18584900   0.03301776
9954.00   0.16285173   0.03289362
9956.00   0.18550710   0.03378460
9958.00   0.21941817   0.03475753
9960.00   0.23232161   0.03431977
9962.00   0.25315633   0.03316989
9964.00   0.28011993   0.03198561
9966.00   0.30353540   0.02990065
9968.00   0.28508086   0.02747566
9970.00   0.27357510   0.02611167
9972.00   0.27296413   0.02582086
9974.00   0.27087614   0.02489711
9976.00   0.30022375   0.02365421
9978.00   0.29380716   0.02253175
9980.00   0.23136849   0.02129606
9982.00   0.17431074   0.02031951
9984.00   0.18393937   0.02035887
9986.00   0.23137248   0.02122612
9988.00   0.24424613   0.02135158
9990.00   0.24448932   0.02116260
9992.00   0.22834594   0.02128824
9994.00   0.17085442   0.02140797
9996.00   0.15510617   0.02172339
9998.00   0.19883154   0.02253652
10000.00   0.24901748   0.02404267
10002.00   0.28101628   0.02551615
10004.00   0.30844740   0.02695309
10006.00   0.32895082   0.02948150
10008.00   0.35629679   0.03294974
10010.00   0.36955115   0.03546312
10012.00   0.33771700   0.03822141
10014.00   0.29147041   0.03977981
10016.00   0.29285918   0.03861786
10018.00   0.33749345   0.03556292
10020.00   0.34311423   0.03403634
10022.00   0.31257793   0.03287720
10024.00   0.29585089   0.03151452
10026.00   0.30371387   0.03015968
10028.00   0.31596632   0.02910030
10030.00   0.31315893   0.02806400
10032.00   0.30431220   0.02739465
10034.00   0.28486583   0.02675123
10036.00   0.26154318   0.02612835
10038.00   0.25443698   0.02575212
10040.00   0.26291069   0.02567391
10042.00   0.26039396   0.02566370
10044.00   0.25512233   0.02566072
10046.00   0.22191423   0.02605012
10048.00   0.19516554   0.02712543
10050.00   0.17016725   0.02840366
10052.00   0.18302824   0.02860580
10054.00   0.24739407   0.02771430
10056.00   0.29703176   0.02779130
10058.00   0.29652910   0.02836713
10060.00   0.26422502   0.02863637
10062.00   0.27781317   0.02914992
10064.00   0.32546547   0.03020490
10066.00   0.32645175   0.02996992
10068.00   0.29566212   0.02835763
10070.00   0.26915593   0.02781365
10072.00   0.24048737   0.02765590
10074.00   0.22130053   0.02882588
10076.00   0.20224901   0.03199609
10078.00   0.18802642   0.03562019
10080.00   0.17787533   0.03702762
10082.00   0.14464589   0.03723406
10084.00   0.13955636   0.03714771
10086.00   0.19413652   0.03670163
10088.00   0.25566243   0.03574716
10090.00   0.22936121   0.03331673
10092.00   0.15901761   0.03075110
10094.00   0.16483100   0.03019468
10096.00   0.18510121   0.03014592
10098.00   0.20747605   0.03101923
10100.00   0.26286720   0.03410210
10102.00   0.31713425   0.03610096
10104.00   0.30094174   0.03579731
10106.00   0.27137121   0.03413029
10108.00   0.26099064   0.03241470
10110.00   0.20025872   0.02970144
10112.00   0.17834168   0.02947712
10114.00   0.17872109   0.03098247
10116.00   0.21420600   0.03334854
10118.00   0.26735379   0.03694598
10120.00   0.30741289   0.04015154
10122.00   0.31771499   0.04264204
10124.00   0.31360073   0.04476900
10126.00   0.29839479   0.04442021
10128.00   0.25651825   0.04157850
10130.00   0.21903741   0.03916122
10132.00   0.18963378   0.03618209
10134.00   0.17220109   0.03371052
10136.00   0.16198085   0.03232615
10138.00   0.19852737   0.03187786
10140.00   0.24434222   0.03270618
10142.00   0.31177889   0.03517346
10144.00   0.32213017   0.03676466
10146.00   0.29307577   0.03805591
10148.00   0.24439476   0.03887722
10150.00   0.17373946   0.03931348
10152.00   0.10994553   0.03979703
10154.00   0.10663490   0.04074974
10156.00   0.17679765   0.04163173
10158.00   0.18291300   0.04267338
10160.00   0.11222927   0.04353565
10162.00   0.08097075   0.04536937
10164.00   0.15033021   0.04813752
10166.00   0.25537200   0.05153730
10168.00   0.34044819   0.05416957
10170.00   0.48972388   0.05605476
10172.00   0.50246753   0.05688820
10174.00   0.37312494   0.05701269
10176.00   0.29390571   0.05627510
10178.00   0.29322542   0.05359519
10180.00   0.29826551   0.05098739
10182.00   0.29202811   0.05048322
10184.00   0.27789041   0.05153424
10186.00   0.26890317   0.05230976
10188.00   0.25973105   0.05424186
10190.00   0.26504414   0.05464794
10192.00   0.28672298   0.05298835
10194.00   0.33180419   0.05022669
10196.00   0.32165039   0.04872362
10198.00   0.23853010   0.04857952
10200.00   0.22443159   0.04993823
10202.00   0.23493570   0.05340946
10204.00   0.28608161   0.05611595
10206.00   0.44291301   0.05887361
10208.00   0.52804673   0.06009498
10210.00   0.41785492   0.06104271
10212.00   0.19902079   0.06214861
10214.00   0.15119824   0.06143683
10216.00   0.18098211   0.05850708
10218.00   0.25397830   0.05725260
10220.00   0.46086340   0.05718998
10222.00   0.58514857   0.05723662
10224.00   0.51983795   0.05728895
10226.00   0.38222255   0.05733788
10228.00   0.32025705   0.05635802
10230.00   0.23881602   0.05325194
10232.00   0.23341382   0.05195581
10234.00   0.31967457   0.05190367
10236.00   0.37990309   0.05151197
10238.00   0.41083269   0.05040834
10240.00   0.36192576   0.05038079
10242.00   0.25348122   0.05052140
10244.00   0.14415079   0.05029076
10246.00   0.13930361   0.04995417
10248.00   0.22396584   0.04954233
10250.00   0.27119265   0.04812497
10252.00   0.29269884   0.04490696
10254.00   0.31339210   0.04346012
10256.00   0.38651026   0.04391503
10258.00   0.45323613   0.04478129
10260.00   0.49045132   0.04684793
10262.00   0.56059670   0.05078253
10264.00   0.51275365   0.05241850
10266.00   0.24305213   0.05191853
10268.00   0.12082533   0.05184074
10270.00   0.21837730   0.05187942
10272.00   0.34420354   0.05211170
10274.00   0.38456513   0.05421323
10276.00   0.43678571   0.05763201
10278.00   0.41812798   0.06321754
10280.00   0.28894764   0.07104649
10282.00   0.20655295   0.07775242
10284.00   0.19246859   0.08546907
10286.00   0.17724099   0.09133868
10288.00   0.19172259   0.09185838
10290.00   0.30870590   0.08867954
10292.00   0.39363568   0.08546692
10294.00   0.51320191   0.07937630
10296.00   0.51037410   0.07423487
10298.00   0.40727080   0.07077684
10300.00   0.28697811   0.06892975
10302.00   0.16879124   0.06836457
10304.00   0.06263434   0.07028067
10306.00   0.04026166   0.06964818
10308.00   0.07130050   0.06739000
10310.00   0.08702923   0.06457610
10312.00   0.12014348   0.06058584
10314.00   0.21862179   0.05761883
10316.00   0.29645013   0.05663177
10318.00   0.35616677   0.05659697
10320.00   0.39454824   0.05634679
10322.00   0.39116436   0.05552237
10324.00   0.30466262   0.05674699
10326.00   0.06321531   0.06042588
10328.00   -0.03764427   0.06448210
10330.00   0.06475189   0.06673049
10332.00   0.26831210   0.06725242
10334.00   0.35165395   0.06940150
10336.00   0.39545347   0.07330287
10338.00   0.39340870   0.07427067
10340.00   0.29495104   0.07179386
10342.00   0.25038233   0.07171989
10344.00   0.31174028   0.07448048
10346.00   0.42526740   0.07565271
10348.00   0.43068553   0.07544241
10350.00   0.28818287   0.07594342
10352.00   0.23453970   0.07368644
10354.00   0.22953377   0.06745730
10356.00   0.22443362   0.06379178
10358.00   0.15801239   0.06301780
10360.00   0.13607289   0.06295729
10362.00   0.19290834   0.06297239
10364.00   0.19363542   0.06601481
10366.00   0.18285620   0.07268191
10368.00   0.21551835   0.08279420
10370.00   0.23507083   0.08736389
10372.00   0.16373990   0.09011549
10374.00   0.10290533   0.08959148
10376.00   0.10760062   0.08471428
10378.00   0.07401692   0.07900274
10380.00   0.10921491   0.07448128
10382.00   0.24322210   0.06852058
10384.00   0.34222877   0.06583691
10386.00   0.45770721   0.06768046
10388.00   0.49020542   0.06910319
10390.00   0.37562807   0.07002094
10392.00   0.19491393   0.07091515
10394.00   0.11357282   0.07196644
10396.00   0.06307239   0.07446981
10398.00   0.05174251   0.07470885
10400.00   0.11424400   0.07303516
10402.00   0.13515623   0.07086444
10404.00   0.07554274   0.06743956
10406.00   0.05288548   0.06430554
10408.00   0.19609622   0.06666348
10410.00   0.53513747   0.07349348
10412.00   0.59561059   0.07795446
10414.00   0.44503690   0.08315828
10416.00   0.35169756   0.08628597
10418.00   0.31606115   0.08778307
10420.00   0.26128292   0.08671567
10422.00   0.26558555   0.08336410
10424.00   0.34374362   0.07836998
10426.00   0.30235270   0.07443216
10428.00   0.16583104   0.07022011
10430.00   0.13059765   0.06723061
10432.00   0.18656626   0.06550417
10434.00   0.22709241   0.06437218
10436.00   0.24694510   0.06439217
10438.00   0.23224169   0.06514367
10440.00   0.26316035   0.06646784
10442.00   0.33467635   0.06914110
10444.00   0.39221628   0.06971090
10446.00   0.45022407   0.06793004
10448.00   0.51803125   0.06700166
10450.00   0.52546558   0.06731144
10452.00   0.47691345   0.06817925
10454.00   0.47526442   0.06803564
10456.00   0.45722792   0.06645097
10458.00   0.45593695   0.06714526
10460.00   0.46691872   0.07003590
10462.00   0.51117276   0.07222879
10464.00   0.58495787   0.07326884
10466.00   0.63979602   0.07366786
10468.00   0.55626707   0.07553258
10470.00   0.33869636   0.07930792
10472.00   0.24567165   0.07930110
10474.00   0.19461317   0.07635954
10476.00   0.16942554   0.07462651
10478.00   0.21522692   0.07366266
10480.00   0.27016770   0.07107881
10482.00   0.23060374   0.06899089
10484.00   0.11192087   0.06756012
10486.00   0.12218346   0.06651814
10488.00   0.24176212   0.06675482
10490.00   0.29271194   0.06694462
10492.00   0.25629447   0.06671931
10494.00   0.27805802   0.06601801
10496.00   0.36953124   0.06573048
10498.00   0.45462848   0.06523571
10500.00   0.43536457   0.06522005
10502.00   0.29085776   0.06586290
10504.00   0.24523411   0.06647886
10506.00   0.27901405   0.06744424
10508.00   0.33102174   0.06779332
10510.00   0.35563248   0.06732215
10512.00   0.35920183   0.06656608
10514.00   0.33931953   0.06651273
10516.00   0.28084348   0.06708438
10518.00   0.29457926   0.06783933
10520.00   0.37178077   0.06882461
10522.00   0.41410144   0.06961742
10524.00   0.44778185   0.07132888
10526.00   0.52072692   0.07373231
10528.00   0.56595194   0.07384968
10530.00   0.58431014   0.07147298
10532.00   0.57647336   0.07087759
10534.00   0.52303840   0.07098806
10536.00   0.47864352   0.07051385
10538.00   0.44253407   0.06965011
10540.00   0.44199933   0.06969639
10542.00   0.46325134   0.06917920
10544.00   0.50380348   0.06891605
10546.00   0.54058574   0.07073077
10548.00   0.58287019   0.07422683
10550.00   0.59101120   0.07516092
10552.00   0.57571387   0.07426768
10554.00   0.56329706   0.07367436
10556.00   0.51089585   0.07270033
10558.00   0.40847762   0.07175944
10560.00   0.36607867   0.07203598
10562.00   0.39469868   0.07353082
10564.00   0.40006657   0.07424608
10566.00   0.38710847   0.07435922
10568.00   0.37247317   0.07466977
10570.00   0.38402776   0.07558834
10572.00   0.37696734   0.07650908
10574.00   0.36065492   0.07738662
10576.00   0.32664144   0.07829129
10578.00   0.31043036   0.07918459
10580.00   0.29529014   0.07954275
10582.00   0.31252301   0.08095065
10584.00   0.33737135   0.08422437
10586.00   0.41613825   0.08811912
10588.00   0.53040151   0.08919200
10590.00   0.64122066   0.08724731
10592.00   0.64206785   0.08651276
10594.00   0.54272592   0.08567400
10596.00   0.46126883   0.08551336
10598.00   0.35923110   0.08585279
10600.00   0.30799158   0.08644583
10602.00   0.32013084   0.08700311
10604.00   0.36087315   0.08778315
10606.00   0.38824069   0.08911273
10608.00   0.43037759   0.09106012
10610.00   0.43526360   0.09220932
10612.00   0.36667031   0.09241873
10614.00   0.36259019   0.09321736
10616.00   0.46796302   0.09488497
10618.00   0.60345778   0.09690856
10620.00   0.63149172   0.09856173
10622.00   0.57880226   0.10037505
10624.00   0.53769253   0.10095814
10626.00   0.47328120   0.09996148
10628.00   0.43440063   0.09951017
10630.00   0.40061754   0.10002769
10632.00   0.37987174   0.10076722
10634.00   0.39973424   0.10095207
10636.00   0.48694345   0.10100421
10638.00   0.55935752   0.10138414
10640.00   0.66735062   0.10238898
10642.00   0.68118069   0.10223619
10644.00   0.60609165   0.10088779
10646.00   0.56537797   0.09936206
10648.00   0.58652517   0.09825303
10650.00   0.61217675   0.09737450
10652.00   0.60452479   0.09609838
10654.00   0.59519568   0.09471123
10656.00   0.57379228   0.09285124
10658.00   0.48679183   0.09002667
10660.00   0.41216058   0.08737128
10662.00   0.46150248   0.08604570
10664.00   0.61074483   0.08564005
10666.00   0.63350064   0.08417768
10668.00   0.56405905   0.08202921
10670.00   0.51585653   0.07987134
10672.00   0.48622292   0.07757994
10674.00   0.43903141   0.07521858
10676.00   0.36456835   0.07281698
10678.00   0.33921967   0.07122070
10680.00   0.35085398   0.06955675
10682.00   0.39013748   0.06740077
10684.00   0.43522783   0.06638450
10686.00   0.51833180   0.06660931
10688.00   0.54362227   0.06676403
10690.00   0.57929906   0.06783270
10692.00   0.63028121   0.06912731
10694.00   0.57462220   0.06765499
10696.00   0.43907110   0.06293224
10698.00   0.42875108   0.06153375
10700.00   0.49816479   0.06302130
10702.00   0.55063573   0.06265543
10704.00   0.64154682   0.05916238
10706.00   0.69388512   0.05605328
10708.00   0.67527059   0.05684343
10710.00   0.68242025   0.06049999
10712.00   0.71351308   0.05950947
10714.00   0.75045538   0.05466849
10716.00   0.73406643   0.05136258
10718.00   0.68678534   0.04954745
10720.00   0.66793534   0.04825297
10722.00   0.68034238   0.04751328
10724.00   0.71077362   0.04722708
10726.00   0.71904835   0.04613928
10728.00   0.69690505   0.04441200
10730.00   0.69751823   0.04374532
10732.00   0.73653829   0.04429746
10734.00   0.77914551   0.04467540
10736.00   0.76063398   0.04408776
10738.00   0.69879481   0.04255041
10740.00   0.62196788   0.04211318
10742.00   0.47558826   0.04295588
10744.00   0.41560897   0.04258074
10746.00   0.42376633   0.04098408
10748.00   0.44613628   0.03975552
10750.00   0.48192351   0.03920515
10752.00   0.53462833   0.03864548
10754.00   0.55493695   0.03801848
10756.00   0.57112703   0.03790112
10758.00   0.57912752   0.03713252
10760.00   0.55353251   0.03574776
10762.00   0.54242843   0.03407412
10764.00   0.59503832   0.03204693
10766.00   0.68306080   0.03097636
10768.00   0.69894689   0.03140592
10770.00   0.65342912   0.03300700
10772.00   0.63945279   0.03323786
10774.00   0.62794751   0.03307521
10776.00   0.64603740   0.03266216
10778.00   0.70266888   0.03164870
10780.00   0.73554423   0.02999843
10782.00   0.75957742   0.02894232
10784.00   0.76134092   0.02772460
10786.00   0.69114941   0.02640458
10788.00   0.56516156   0.02569411
10790.00   0.50408655   0.02531895
10792.00   0.47844231   0.02508158
10794.00   0.44092818   0.02452562
10796.00   0.44187233   0.02422108
10798.00   0.45249125   0.02382281
10800.00   0.43260983   0.02312578
10802.00   0.38210810   0.02231396
10804.00   0.42996584   0.02315645
10806.00   0.60505226   0.02609075
10808.00   0.71993467   0.02706198
10810.00   0.73609552   0.02708402
10812.00   0.66966227   0.02629410
10814.00   0.61102676   0.02498087
10816.00   0.56934947   0.02471720
10818.00   0.51717080   0.02419397
10820.00   0.43398750   0.02328912
10822.00   0.41757053   0.02245974
10824.00   0.48558752   0.02249495
10826.00   0.51856077   0.02224891
10828.00   0.53781147   0.02221013
10830.00   0.55652401   0.02229556
10832.00   0.52029845   0.02187011
10834.00   0.41856246   0.02112202
10836.00   0.39913750   0.02062443
10838.00   0.48389696   0.02028872
10840.00   0.51652463   0.01974332
10842.00   0.42520739   0.01848742
10844.00   0.30933262   0.01663015
10846.00   0.29323885   0.01563438
10848.00   0.32006449   0.01534284
10850.00   0.33947165   0.01602223
10852.00   0.39257462   0.01836220
10854.00   0.41045161   0.01888649
10856.00   0.40146416   0.01852893
10858.00   0.41326834   0.01843934
10860.00   0.40027931   0.01752242
10862.00   0.34037364   0.01560574
10864.00   0.32743764   0.01492048
10866.00   0.37219605   0.01459652
