# File created by shivutils (I.Shivvers)
# 
# wl(A)   flm    er(optional)
3430.00   0.82563609   0.08197023
3432.00   0.74498045   0.08221469
3434.00   0.86743057   0.08394465
3436.00   0.63493454   0.07971378
3438.00   0.70439357   0.08135389
3440.00   0.80841124   0.08369965
3442.00   0.73934692   0.08143230
3444.00   0.76769024   0.08293743
3446.00   0.81867397   0.08449043
3448.00   0.74685669   0.08187295
3450.00   0.69655770   0.08303758
3452.00   0.87839586   0.08800228
3454.00   0.75002426   0.08433306
3456.00   0.78134525   0.08481912
3458.00   0.89915055   0.08618818
3460.00   0.83491087   0.08375969
3462.00   0.71357965   0.08009232
3464.00   0.78650469   0.08094722
3466.00   0.70070517   0.08001482
3468.00   0.93587577   0.08526043
3470.00   0.80612487   0.08064102
3472.00   0.80947304   0.08192468
3474.00   0.71369463   0.07890771
3476.00   0.82610005   0.08184765
3478.00   0.73656428   0.08274692
3480.00   0.76076382   0.08294909
3482.00   0.68511981   0.08201720
3484.00   0.84685636   0.08353882
3486.00   0.67926353   0.07964175
3488.00   0.70804465   0.07847404
3490.00   0.77879071   0.07964157
3492.00   0.70132422   0.07769220
3494.00   0.69384480   0.07654908
3496.00   0.76175666   0.07814907
3498.00   0.68257111   0.07559779
3500.00   0.65255499   0.07247386
3502.00   0.69702488   0.07464240
3504.00   0.83085924   0.07684255
3506.00   0.77488559   0.07580843
3508.00   0.62596858   0.07195096
3510.00   0.66375309   0.07396781
3512.00   0.67162067   0.07189400
3514.00   0.71894395   0.07165988
3516.00   0.90757954   0.07612085
3518.00   0.80578029   0.07323197
3520.00   0.82155371   0.07227027
3522.00   0.76462859   0.07169812
3524.00   0.73209238   0.06998323
3526.00   0.92515045   0.07380749
3528.00   0.67151845   0.06872112
3530.00   0.78098440   0.06970058
3532.00   0.79994196   0.06962908
3534.00   0.84315777   0.07102124
3536.00   0.82893020   0.07083461
3538.00   0.82706159   0.07050862
3540.00   0.82198668   0.07201301
3542.00   0.76661199   0.07290923
3544.00   0.70768780   0.07004990
3546.00   0.70553648   0.06961001
3548.00   0.71471351   0.06902249
3550.00   0.76909268   0.06915125
3552.00   0.90988213   0.07133646
3554.00   0.88841712   0.07020257
3556.00   0.80916464   0.06894524
3558.00   0.94343829   0.07138467
3560.00   0.81489807   0.06749578
3562.00   0.85107619   0.06674933
3564.00   0.72195739   0.06381538
3566.00   0.80159277   0.06677882
3568.00   0.83799851   0.06435207
3570.00   0.82544088   0.06526330
3572.00   0.73267722   0.06372555
3574.00   0.82200384   0.06432936
3576.00   0.89323127   0.06445765
3578.00   0.77406377   0.06112963
3580.00   0.90749168   0.06435075
3582.00   0.81994140   0.06043294
3584.00   0.84863901   0.06001744
3586.00   0.95782089   0.06216095
3588.00   0.82876521   0.06099891
3590.00   0.85910141   0.06159515
3592.00   0.89046049   0.06002119
3594.00   0.93889701   0.06033675
3596.00   0.85636610   0.05835702
3598.00   0.86433041   0.05968389
3600.00   0.92980182   0.05945494
3602.00   0.82250243   0.05649540
3604.00   0.86623591   0.05757186
3606.00   0.97340238   0.05880163
3608.00   0.90597433   0.05721032
3610.00   0.92293066   0.05794951
3612.00   0.98997176   0.06093253
3614.00   0.96989483   0.06048768
3616.00   1.10114467   0.06121967
3618.00   0.97444797   0.05803813
3620.00   0.97357714   0.05760284
3622.00   1.02750981   0.05768510
3624.00   1.02159894   0.05747934
3626.00   0.99687153   0.05643785
3628.00   1.07621384   0.05907239
3630.00   1.11008835   0.06031971
3632.00   1.10367417   0.05859392
3634.00   0.99840319   0.05703223
3636.00   1.04032791   0.05709497
3638.00   1.14832270   0.05807769
3640.00   1.08413899   0.05803663
3642.00   1.11653340   0.05990099
3644.00   1.09806728   0.05931788
3646.00   1.19721472   0.06323454
3648.00   1.05871546   0.07646624
3650.00   1.22555614   0.07897519
3652.00   1.21843696   0.07082681
3654.00   1.24899173   0.07087263
3656.00   1.10127032   0.06088842
3658.00   1.31453764   0.06002862
3660.00   1.27527511   0.06233528
3662.00   1.20429540   0.06726339
3664.00   1.28243613   0.06149120
3666.00   1.35320544   0.05802608
3668.00   1.19762576   0.05625568
3670.00   1.26390743   0.05502002
3672.00   1.29955339   0.05598539
3674.00   1.23269141   0.05380679
3676.00   1.30521941   0.05447945
3678.00   1.22541535   0.05335280
3680.00   1.21016896   0.05286192
3682.00   1.26950169   0.05311207
3684.00   1.38727582   0.05446114
3686.00   1.36388457   0.05351771
3688.00   1.26473653   0.05216273
3690.00   1.30543947   0.05321379
3692.00   1.27922463   0.05282147
3694.00   1.34266114   0.05298980
3696.00   1.31434691   0.05291360
3698.00   1.41374087   0.05441108
3700.00   1.41372979   0.05405983
3702.00   1.35524154   0.05315386
3704.00   1.38713360   0.05319250
3706.00   1.34688306   0.05242099
3708.00   1.43301845   0.05320681
3710.00   1.37129462   0.05223748
3712.00   1.39448702   0.05209108
3714.00   1.38976765   0.05174573
3716.00   1.35378051   0.05097541
3718.00   1.38130641   0.05155014
3720.00   1.31702137   0.05049041
3722.00   1.39741027   0.05107249
3724.00   1.42956102   0.05127127
3726.00   1.35890448   0.05041158
3728.00   1.45389116   0.05180059
3730.00   1.36709261   0.05035560
3732.00   1.32663512   0.05000234
3734.00   1.37619543   0.05041600
3736.00   1.36174691   0.05020293
3738.00   1.24702227   0.04880718
3740.00   1.29910815   0.04930421
3742.00   1.32348371   0.04924338
3744.00   1.37711620   0.04917144
3746.00   1.31874812   0.04773470
3748.00   1.35096216   0.04822998
3750.00   1.34923768   0.04867921
3752.00   1.36151099   0.04837368
3754.00   1.39878380   0.04862877
3756.00   1.34053802   0.04769273
3758.00   1.37490070   0.04816969
3760.00   1.34125483   0.04841584
3762.00   1.28667569   0.04647877
3764.00   1.45011044   0.04836668
3766.00   1.30679047   0.04642583
3768.00   1.43535542   0.04783249
3770.00   1.29053509   0.04628751
3772.00   1.31700039   0.04624673
3774.00   1.33782184   0.04640778
3776.00   1.34284472   0.04649518
3778.00   1.28101969   0.04522112
3780.00   1.34800589   0.04581970
3782.00   1.34517872   0.04577954
3784.00   1.23298192   0.04465886
3786.00   1.22758591   0.04406403
3788.00   1.28830671   0.04535161
3790.00   1.28630388   0.04547596
3792.00   1.31870914   0.04527467
3794.00   1.30384815   0.04494151
3796.00   1.28268123   0.04456220
3798.00   1.27352285   0.04397595
3800.00   1.29448283   0.04465073
3802.00   1.37587166   0.04594440
3804.00   1.30255544   0.04404502
3806.00   1.32234383   0.04421527
3808.00   1.35671842   0.04446317
3810.00   1.41235244   0.04495087
3812.00   1.36395466   0.04490027
3814.00   1.38838470   0.04495202
3816.00   1.32484293   0.04409875
3818.00   1.31114936   0.04397615
3820.00   1.18034625   0.04545688
3822.00   1.20793462   0.04268375
3824.00   1.26499808   0.04248644
3826.00   1.16940367   0.04189708
3828.00   1.25111842   0.04372723
3830.00   1.21114409   0.04268895
3832.00   1.14175105   0.04145561
3834.00   1.15891349   0.04141921
3836.00   1.14369881   0.04128883
3838.00   1.20055282   0.04177497
3840.00   1.21000838   0.04183032
3842.00   1.22621346   0.04170005
3844.00   1.18860877   0.04081938
3846.00   1.18704450   0.04130862
3848.00   1.12804687   0.03986666
3850.00   1.23886919   0.04103362
3852.00   1.34792686   0.04428884
3854.00   1.94326007   0.05211993
3856.00   2.20563221   0.05590582
3858.00   2.17067575   0.05170966
3860.00   1.30531132   0.04094530
3862.00   1.11843920   0.03877413
3864.00   1.19075441   0.03928937
3866.00   1.22776043   0.03954402
3868.00   1.23450518   0.03966022
3870.00   1.18646467   0.03896587
3872.00   1.16522086   0.03947344
3874.00   1.20066702   0.04059942
3876.00   1.18776155   0.03895858
3878.00   1.06465042   0.03733848
3880.00   1.11509728   0.03769596
3882.00   1.13791633   0.03747744
3884.00   1.13995981   0.03769140
3886.00   1.16388237   0.03808613
3888.00   1.16138339   0.03759249
3890.00   1.17745185   0.03786155
3892.00   1.12226045   0.03708565
3894.00   1.03617918   0.03629949
3896.00   0.98500049   0.03572719
3898.00   1.03791678   0.03630864
3900.00   0.98384982   0.03566536
3902.00   0.97626996   0.03575918
3904.00   0.95558298   0.03668530
3906.00   0.94786537   0.03970828
3908.00   1.03187442   0.04091654
3910.00   0.97585189   0.04036347
3912.00   0.98301774   0.04054151
3914.00   1.00968754   0.03828293
3916.00   1.02017474   0.03698376
3918.00   0.98356849   0.03644400
3920.00   0.97039908   0.03539303
3922.00   0.94021326   0.03478565
3924.00   0.89409930   0.03435166
3926.00   0.96965742   0.03487673
3928.00   0.85250473   0.03325922
3930.00   0.94796544   0.03460055
3932.00   0.80164808   0.03459595
3934.00   0.93902278   0.03504473
3936.00   0.96518552   0.03410843
3938.00   0.89560652   0.03347494
3940.00   0.94073623   0.03410570
3942.00   0.99720532   0.03596261
3944.00   0.97433084   0.03599107
3946.00   0.94216895   0.03456439
3948.00   0.93643188   0.03387961
3950.00   1.00059354   0.03458728
3952.00   0.97076964   0.03409655
3954.00   0.99958849   0.03394942
3956.00   0.89129615   0.03272481
3958.00   0.98862904   0.03417319
3960.00   1.05782390   0.03690183
3962.00   1.04438925   0.03590325
3964.00   1.02521801   0.03395673
3966.00   1.04601264   0.03421872
3968.00   1.09588599   0.03464152
3970.00   1.12340403   0.03452876
3972.00   1.10658491   0.03483459
3974.00   1.09135699   0.03462013
3976.00   1.20728838   0.03527492
3978.00   1.24363732   0.03584352
3980.00   1.26653576   0.03612321
3982.00   1.26489735   0.03589018
3984.00   1.28550124   0.03588514
3986.00   1.20059502   0.03496954
3988.00   1.26397181   0.03580054
3990.00   1.38694954   0.03714233
3992.00   1.29297543   0.03590252
3994.00   1.31477118   0.03695895
3996.00   1.29337132   0.03823975
3998.00   1.33919132   0.03703423
4000.00   1.39381838   0.03704648
4002.00   1.38049603   0.03659055
4004.00   1.30494511   0.03572328
4006.00   1.32850826   0.03604698
4008.00   1.34672630   0.03678866
4010.00   1.33572042   0.03639976
4012.00   1.37246585   0.03679923
4014.00   1.30926967   0.03561988
4016.00   1.23007596   0.03507636
4018.00   1.31866193   0.03848525
4020.00   1.31361699   0.04044482
4022.00   1.35085225   0.04099189
4024.00   1.36963177   0.04039272
4026.00   1.28747058   0.03718188
4028.00   1.29868293   0.03644095
4030.00   1.35316288   0.03747583
4032.00   1.32696044   0.03644758
4034.00   1.34353471   0.03623334
4036.00   1.33261991   0.03593563
4038.00   1.32976317   0.03536810
4040.00   1.38026321   0.03609075
4042.00   1.35197198   0.03659584
4044.00   1.41603386   0.04986211
4046.00   1.40963840   0.06617147
4048.00   1.42787731   0.04708527
4050.00   1.45868611   0.03846134
4052.00   1.50117826   0.03823763
4054.00   1.46260178   0.03885319
4056.00   1.43089890   0.03708366
4058.00   1.44748652   0.03619809
4060.00   1.45432389   0.03577591
4062.00   1.40490925   0.03523237
4064.00   1.44213295   0.03566052
4066.00   1.42948079   0.03556011
4068.00   1.36608791   0.03485642
4070.00   1.36265743   0.03450025
4072.00   1.42935252   0.03475802
4074.00   1.39543641   0.03497821
4076.00   1.48013699   0.03954519
4078.00   1.42325139   0.03927673
4080.00   1.45434725   0.03684027
4082.00   1.45035136   0.03743613
4084.00   1.46805060   0.03626178
4086.00   1.41307247   0.03610919
4088.00   1.45151854   0.03504274
4090.00   1.42909145   0.03373189
4092.00   1.38956928   0.03346630
4094.00   1.37138510   0.03338881
4096.00   1.32690895   0.03277094
4098.00   1.36427951   0.03318845
4100.00   1.30325305   0.03259782
4102.00   1.25605941   0.03160446
4104.00   1.30249536   0.03199326
4106.00   1.33254576   0.03242142
4108.00   1.40379369   0.03314094
4110.00   1.29676008   0.03176247
4112.00   1.34259522   0.03230228
4114.00   1.32351983   0.03220947
4116.00   1.37875378   0.03264156
4118.00   1.35496199   0.03191072
4120.00   1.34105253   0.03155899
4122.00   1.36272597   0.03188180
4124.00   1.37871873   0.03203966
4126.00   1.38600409   0.03216989
4128.00   1.40718472   0.03225705
4130.00   1.36901689   0.03238077
4132.00   1.39481091   0.03369180
4134.00   1.34283686   0.03245861
4136.00   1.38416564   0.03213757
4138.00   1.40411830   0.03277145
4140.00   1.37140357   0.03334475
4142.00   1.38989067   0.03219267
4144.00   1.38923275   0.03153982
4146.00   1.35755706   0.03137234
4148.00   1.42737556   0.03200416
4150.00   1.44183791   0.03289639
4152.00   1.47184944   0.03420675
4154.00   1.47574413   0.03286595
4156.00   1.47685540   0.03241032
4158.00   1.48293781   0.03237315
4160.00   1.48940706   0.03268501
4162.00   1.50118256   0.03306072
4164.00   1.50742745   0.03505453
4166.00   1.55614138   0.03444488
4168.00   1.49754739   0.03256258
4170.00   1.52093279   0.03260717
4172.00   1.48374081   0.03200092
4174.00   1.51362932   0.03199503
4176.00   1.48710239   0.03201092
4178.00   1.51670718   0.03255722
4180.00   1.47072637   0.03166156
4182.00   1.54926801   0.03202836
4184.00   1.50968874   0.03172622
4186.00   1.54076087   0.03200873
4188.00   1.49375880   0.03156557
4190.00   1.50310528   0.03156416
4192.00   1.53832066   0.03202247
4194.00   1.51043975   0.03149244
4196.00   1.45804381   0.03077833
4198.00   1.45128787   0.03081201
4200.00   1.43920791   0.03071595
4202.00   1.42922759   0.03071710
4204.00   1.48157847   0.03107706
4206.00   1.48240829   0.03107172
4208.00   1.44876623   0.03102725
4210.00   1.47214270   0.03151267
4212.00   1.38711643   0.03077585
4214.00   1.41738176   0.03054119
4216.00   1.42853451   0.03076017
4218.00   1.45177269   0.03087541
4220.00   1.43131351   0.03061071
4222.00   1.37872827   0.02993704
4224.00   1.41570699   0.03037645
4226.00   1.37731290   0.03002588
4228.00   1.43948340   0.03044075
4230.00   1.37070692   0.02997023
4232.00   1.34585857   0.03019312
4234.00   1.37165082   0.03029096
4236.00   1.32415938   0.03010195
4238.00   1.26982200   0.03008322
4240.00   1.23441112   0.02877316
4242.00   1.41090655   0.02998264
4244.00   1.39019704   0.03084118
4246.00   1.25063038   0.03342808
4248.00   1.25490224   0.03064155
4250.00   1.23711598   0.02868133
4252.00   1.27577913   0.02878714
4254.00   1.30636895   0.02908268
4256.00   1.27934158   0.02901517
4258.00   1.22662449   0.02834416
4260.00   1.23292184   0.02829137
4262.00   1.26284707   0.02835481
4264.00   1.27596867   0.02831660
4266.00   1.27526259   0.02822475
4268.00   1.29851067   0.02845995
4270.00   1.32362115   0.02878125
4272.00   1.31477070   0.02882286
4274.00   1.33058643   0.02891156
4276.00   1.29291439   0.02869391
4278.00   1.32906651   0.02897003
4280.00   1.31275594   0.02891888
4282.00   1.32806110   0.02929747
4284.00   1.29392171   0.02861545
4286.00   1.34848571   0.02898320
4288.00   1.36507881   0.02895452
4290.00   1.34255993   0.02869964
4292.00   1.34151971   0.02873839
4294.00   1.33698976   0.02896186
4296.00   1.40556228   0.02934398
4298.00   1.35923362   0.02892813
4300.00   1.43397045   0.02939942
4302.00   1.32173896   0.02837908
4304.00   1.31595099   0.02865973
4306.00   1.37302065   0.02925955
4308.00   1.30878007   0.02865558
4310.00   1.35320365   0.02891986
4312.00   1.37809074   0.03087228
4314.00   1.34132004   0.03161201
4316.00   1.29580665   0.02904712
4318.00   1.32915664   0.02925093
4320.00   1.28196716   0.03059815
4322.00   1.24100375   0.02887949
4324.00   1.27209389   0.02987734
4326.00   1.24010623   0.02872021
4328.00   1.27553797   0.02816666
4330.00   1.24513113   0.02782399
4332.00   1.26476002   0.02801221
4334.00   1.23426867   0.02785690
4336.00   1.25404155   0.02832297
4338.00   1.23943782   0.02860887
4340.00   1.24369812   0.02876381
4342.00   1.23978353   0.02855473
4344.00   1.23147070   0.02871243
4346.00   1.18951499   0.02971426
4348.00   1.18134499   0.02966840
4350.00   1.13185036   0.02813727
4352.00   1.17685008   0.02847670
4354.00   1.22922266   0.02954706
4356.00   1.24178243   0.04814031
4358.00   1.14552784   0.06621953
4360.00   1.17119074   0.04412430
4362.00   1.17295098   0.03142757
4364.00   1.14767492   0.02944134
4366.00   1.14837348   0.02889342
4368.00   1.09235799   0.02807624
4370.00   1.14822459   0.02832398
4372.00   1.07795131   0.02819704
4374.00   1.10770559   0.02974200
4376.00   1.10318589   0.02816813
4378.00   1.08825862   0.02739451
4380.00   1.09297109   0.02725529
4382.00   1.09300280   0.02720283
4384.00   1.08047771   0.02695454
4386.00   1.06331229   0.02657852
4388.00   1.07963777   0.02666912
4390.00   0.99401385   0.02627822
4392.00   0.99021780   0.02614488
4394.00   0.99335235   0.02598315
4396.00   1.03247178   0.02613164
4398.00   1.02180648   0.02659436
4400.00   1.01808572   0.02775697
4402.00   0.96205783   0.02635890
4404.00   0.98799145   0.02594673
4406.00   0.99373776   0.02601362
4408.00   0.93870193   0.02560894
4410.00   0.94717520   0.02563036
4412.00   0.93769348   0.02566067
4414.00   1.00374675   0.02700392
4416.00   0.96866500   0.02677252
4418.00   0.90688097   0.02526038
4420.00   0.91338205   0.02531308
4422.00   0.90750808   0.02522956
4424.00   0.93547457   0.02530951
4426.00   0.97610390   0.02566622
4428.00   0.98353046   0.02563633
4430.00   0.88208306   0.02491998
4432.00   1.00247121   0.02595001
4434.00   0.97742015   0.02555207
4436.00   0.97284603   0.02544920
4438.00   0.97295183   0.02555726
4440.00   0.92086720   0.02522471
4442.00   0.94185746   0.02507194
4444.00   0.94381434   0.02519137
4446.00   0.96345842   0.02531316
4448.00   0.95200795   0.02512756
4450.00   0.99413246   0.02541819
4452.00   1.00677288   0.02539307
4454.00   0.98416197   0.02530867
4456.00   0.95179892   0.02509845
4458.00   0.94515151   0.02516169
4460.00   0.97878957   0.02532962
4462.00   0.98773831   0.02530379
4464.00   0.98305428   0.02518992
4466.00   0.99094653   0.02518388
4468.00   1.02876580   0.02541066
4470.00   1.01958013   0.02524068
4472.00   1.00500917   0.02515366
4474.00   0.97949183   0.02502573
4476.00   0.93170893   0.02469336
4478.00   1.00461483   0.02513428
4480.00   1.00654173   0.02523674
4482.00   0.99840564   0.02517621
4484.00   1.01699007   0.02529908
4486.00   1.03729343   0.02548164
4488.00   1.12580144   0.02630734
4490.00   1.30111241   0.02797834
4492.00   1.18362975   0.02684004
4494.00   1.07762074   0.02604038
4496.00   1.05889773   0.02567920
4498.00   1.07529342   0.02600829
4500.00   1.06913650   0.02581410
4502.00   1.04424429   0.02534143
4504.00   1.09340596   0.02576550
4506.00   1.06203747   0.02558066
4508.00   1.12638307   0.02574121
4510.00   1.10379422   0.02555133
4512.00   1.13111162   0.02573301
4514.00   1.14468145   0.02597162
4516.00   1.12875664   0.02555230
4518.00   1.13216245   0.02555900
4520.00   1.10554469   0.02532807
4522.00   1.12068343   0.02547996
4524.00   1.12831140   0.02535935
4526.00   1.13333547   0.02528289
4528.00   1.09406137   0.02502430
4530.00   1.15311813   0.02554307
4532.00   1.12024200   0.02520365
4534.00   1.11980605   0.02521579
4536.00   1.16138482   0.02533886
4538.00   1.15430295   0.02521112
4540.00   1.17658830   0.02545022
4542.00   1.12480283   0.02540136
4544.00   1.16792786   0.02581164
4546.00   1.13837218   0.02536084
4548.00   1.20667648   0.02549729
4550.00   1.19423008   0.02529952
4552.00   1.19707096   0.02527635
4554.00   1.18834996   0.02523043
4556.00   1.17151392   0.02532513
4558.00   1.15492618   0.02511615
4560.00   1.15952766   0.02493409
4562.00   1.18227720   0.02507632
4564.00   1.19222414   0.02505736
4566.00   1.20968306   0.02509085
4568.00   1.20451641   0.02504008
4570.00   1.19105601   0.02492523
4572.00   1.19958818   0.02501336
4574.00   1.20793200   0.02522051
4576.00   1.18438947   0.02478147
4578.00   1.17961955   0.02468558
4580.00   1.21477342   0.02482714
4582.00   1.17553759   0.02433849
4584.00   1.21230125   0.02445908
4586.00   1.18012488   0.02430707
4588.00   1.20522952   0.02460035
4590.00   1.17411530   0.02436859
4592.00   1.23642373   0.02485224
4594.00   1.19282079   0.02465069
4596.00   1.24545133   0.02489038
4598.00   1.24819851   0.02484595
4600.00   1.24158955   0.02455331
4602.00   1.21398556   0.02441155
4604.00   1.23466408   0.02470974
4606.00   1.24628329   0.02459081
4608.00   1.23907423   0.02479066
4610.00   1.23320031   0.02485509
4612.00   1.26360857   0.02477560
4614.00   1.24478292   0.02447512
4616.00   1.20673931   0.02414219
4618.00   1.27532446   0.02457166
4620.00   1.26183045   0.02457610
4622.00   1.26897693   0.02454058
4624.00   1.23947191   0.02424577
4626.00   1.26618528   0.02452862
4628.00   1.23846996   0.02432630
4630.00   1.27230883   0.02449602
4632.00   1.27238321   0.02453773
4634.00   1.27563858   0.02450674
4636.00   1.25566506   0.02428479
4638.00   1.25907075   0.02434066
4640.00   1.24140382   0.02424410
4642.00   1.24385202   0.02420132
4644.00   1.21467304   0.02389122
4646.00   1.23118806   0.02405812
4648.00   1.27052271   0.02443796
4650.00   1.23450303   0.02420756
4652.00   1.27525485   0.02452722
4654.00   1.24253285   0.02435226
4656.00   1.19745970   0.02404593
4658.00   1.25115573   0.02449028
4660.00   1.25407088   0.02472960
4662.00   1.23877525   0.02485827
4664.00   1.24371183   0.02512702
4666.00   1.22744679   0.02531966
4668.00   1.21795011   0.02551537
4670.00   1.20027459   0.02551713
4672.00   1.22870541   0.02541821
4674.00   1.22151041   0.02503592
4676.00   1.20722365   0.02463323
4678.00   1.18550515   0.02411988
4680.00   1.21929157   0.02432262
4682.00   1.18279123   0.02392851
4684.00   1.21592832   0.02397750
4686.00   1.17646551   0.02362375
4688.00   1.17145586   0.02346233
4690.00   1.18999434   0.02357546
4692.00   1.22945452   0.02373361
4694.00   1.22404981   0.02374901
4696.00   1.19500542   0.02340812
4698.00   1.19058108   0.02320318
4700.00   1.21082807   0.02328831
4702.00   1.20112646   0.02329650
4704.00   1.21502149   0.02356490
4706.00   1.22060192   0.02375951
4708.00   1.26159298   0.02419798
4710.00   1.22113109   0.02394426
4712.00   1.23826194   0.02385122
4714.00   1.20218992   0.02350230
4716.00   1.23285019   0.02352116
4718.00   1.25273228   0.02356471
4720.00   1.24860942   0.02353218
4722.00   1.30690277   0.02403237
4724.00   1.28240764   0.02382549
4726.00   1.24364376   0.02345966
4728.00   1.27040994   0.02543443
4730.00   1.29705524   0.02539852
4732.00   1.25610518   0.02465212
4734.00   1.26726747   0.02536193
4736.00   1.25202620   0.02530186
4738.00   1.27097332   0.02571842
4740.00   1.23716092   0.02605638
4742.00   1.26106715   0.02677316
4744.00   1.28279650   0.02666130
4746.00   1.28772426   0.02473060
4748.00   1.27280819   0.02382009
4750.00   1.22910011   0.02349834
4752.00   1.22398412   0.02421664
4754.00   1.26212132   0.02412931
4756.00   1.26419187   0.02333576
4758.00   1.24150503   0.02294073
4760.00   1.28159988   0.02303430
4762.00   1.22018099   0.02259189
4764.00   1.28960454   0.02298380
4766.00   1.24991632   0.02271385
4768.00   1.23330081   0.02241808
4770.00   1.28499770   0.02269311
4772.00   1.23252523   0.02237138
4774.00   1.27475023   0.02252872
4776.00   1.21970785   0.02237599
4778.00   1.21715641   0.02319401
4780.00   1.22642708   0.02326174
4782.00   1.22209060   0.02242159
4784.00   1.21682048   0.02218522
4786.00   1.21850395   0.02212758
4788.00   1.18493867   0.02189410
4790.00   1.21831238   0.02238141
4792.00   1.21759057   0.02237442
4794.00   1.23920000   0.02224091
4796.00   1.20148051   0.02183773
4798.00   1.18395185   0.02166478
4800.00   1.23736620   0.02205462
4802.00   1.20149636   0.02174894
4804.00   1.20957696   0.02183551
4806.00   1.19967353   0.02179243
4808.00   1.16283345   0.02166553
4810.00   1.15404129   0.02151959
4812.00   1.09412014   0.02105424
4814.00   1.11178470   0.02119126
4816.00   1.14920521   0.02140097
4818.00   1.12584257   0.02128679
4820.00   1.15971649   0.02163245
4822.00   1.09369707   0.02134753
4824.00   1.11660957   0.02150881
4826.00   1.08332109   0.02129854
4828.00   1.07963371   0.02130267
4830.00   1.14516139   0.02164371
4832.00   1.08899093   0.02149968
4834.00   1.09058285   0.02149328
4836.00   1.08850622   0.02119791
4838.00   1.11672342   0.02181183
4840.00   1.10172987   0.02218729
4842.00   1.09114361   0.02151639
4844.00   1.07676208   0.02110401
4846.00   1.09398556   0.02135188
4848.00   1.09656096   0.02153310
4850.00   1.08163989   0.02122535
4852.00   1.05555129   0.02117964
4854.00   1.07796443   0.02117375
4856.00   1.07927632   0.02096574
4858.00   1.05778670   0.02079756
4860.00   1.06353974   0.02096722
4862.00   1.13149118   0.02154611
4864.00   1.11483264   0.02148796
4866.00   1.03187358   0.02086691
4868.00   1.07418454   0.02102929
4870.00   1.00899386   0.02055749
4872.00   1.06886995   0.02094137
4874.00   1.03376484   0.02076055
4876.00   1.04280233   0.02078401
4878.00   1.03529441   0.02104029
4880.00   1.01883721   0.02075585
4882.00   0.96481603   0.02021302
4884.00   1.01474619   0.02044876
4886.00   1.00510025   0.02023178
4888.00   1.01136434   0.02026669
4890.00   0.96901876   0.01997789
4892.00   0.94354361   0.02001582
4894.00   0.96163601   0.02008164
4896.00   0.94802505   0.01985844
4898.00   0.97953677   0.01998200
4900.00   0.99290705   0.02000649
4902.00   0.95734614   0.01965948
4904.00   0.95701736   0.01963229
4906.00   0.99545133   0.01998406
4908.00   0.98197728   0.02004834
4910.00   0.97440755   0.02030815
4912.00   0.99367255   0.02010926
4914.00   0.97439641   0.02003529
4916.00   0.94266272   0.01992216
4918.00   0.93535930   0.01982581
4920.00   0.97193396   0.01995245
4922.00   1.00341439   0.02032668
4924.00   0.95578343   0.01988803
4926.00   0.95529747   0.01956488
4928.00   0.97370929   0.01959880
4930.00   0.96645212   0.01940839
4932.00   0.97315991   0.01952112
4934.00   1.00667465   0.01992517
4936.00   0.96734703   0.01975643
4938.00   0.97089940   0.01968482
4940.00   1.00646842   0.02002915
4942.00   0.98874122   0.01993588
4944.00   0.98176247   0.01969561
4946.00   0.95313817   0.01933488
4948.00   0.95936698   0.01941060
4950.00   0.97020084   0.01956821
4952.00   0.95484895   0.01982763
4954.00   0.93848038   0.02009847
4956.00   0.95091069   0.01977292
4958.00   0.93966258   0.01944588
4960.00   0.94039112   0.01949069
4962.00   0.98275441   0.01986160
4964.00   0.94889152   0.01970347
4966.00   0.91662443   0.01963834
4968.00   0.94331145   0.02001519
4970.00   0.92230213   0.02008786
4972.00   0.94150585   0.02080492
4974.00   0.95791107   0.02157433
4976.00   0.93673515   0.02164744
4978.00   0.94139642   0.02262348
4980.00   0.89700568   0.02353604
4982.00   0.89731085   0.02405472
4984.00   0.85863471   0.02393736
4986.00   0.91716689   0.02359029
4988.00   0.93219215   0.02269709
4990.00   0.91969717   0.02198261
4992.00   0.90109450   0.02160730
4994.00   0.88147396   0.02066926
4996.00   0.84578007   0.01980498
4998.00   0.88492900   0.01978277
5000.00   0.90032858   0.01967748
5002.00   0.91681486   0.01966266
5004.00   0.87687469   0.01921405
5006.00   0.88531440   0.01907435
5008.00   0.88195056   0.01883964
5010.00   0.89358711   0.01893085
5012.00   0.87120563   0.01879787
5014.00   0.89403760   0.01888572
5016.00   0.87067097   0.01889724
5018.00   0.90288520   0.01939678
5020.00   0.89027101   0.01936527
5022.00   0.89157647   0.01925451
5024.00   0.88109469   0.01879936
5026.00   0.90850472   0.01924125
5028.00   1.06557798   0.02354480
5030.00   1.45994008   0.02587884
5032.00   1.12180412   0.02100064
5034.00   0.95126015   0.01944087
5036.00   0.92605650   0.01899442
5038.00   0.88019645   0.01864748
5040.00   0.89307094   0.01873584
5042.00   0.86061138   0.01854320
5044.00   0.89999324   0.01894124
5046.00   0.92534667   0.01918797
5048.00   0.92471272   0.01907654
5050.00   0.93877357   0.01926953
5052.00   0.92787749   0.01912670
5054.00   0.92770535   0.01918109
5056.00   0.84653825   0.01854847
5058.00   0.86919576   0.01871382
5060.00   0.87970585   0.01876132
5062.00   0.89085114   0.01918762
5064.00   0.88585287   0.02000903
5066.00   0.89047122   0.01988484
5068.00   0.83338910   0.01976940
5070.00   0.85627842   0.02084952
5072.00   0.82918656   0.01980957
5074.00   0.88391489   0.01963890
5076.00   0.87637162   0.01974228
5078.00   0.84582329   0.01916071
5080.00   0.83291113   0.02069609
5082.00   0.82525915   0.02303173
5084.00   0.83112520   0.02402061
5086.00   0.84108478   0.02449412
5088.00   0.83591050   0.02289379
5090.00   0.84638679   0.02110221
5092.00   0.76660734   0.01917457
5094.00   0.75807106   0.01852574
5096.00   0.75871176   0.01912064
5098.00   0.76935524   0.02009172
5100.00   0.77711433   0.02061872
5102.00   0.79089779   0.01979725
5104.00   0.76839870   0.01861981
5106.00   0.77796453   0.01837116
5108.00   0.77600312   0.01847826
5110.00   0.73477250   0.01818649
5112.00   0.73171204   0.01823360
5114.00   0.74139947   0.01846874
5116.00   0.73193043   0.01877437
5118.00   0.72561455   0.01849743
5120.00   0.71946949   0.01793684
5122.00   0.75456589   0.01810074
5124.00   0.73494118   0.01796369
5126.00   0.72773004   0.01784775
5128.00   0.75955361   0.01867454
5130.00   1.01772285   0.02039080
5132.00   0.99854290   0.02009056
5134.00   0.80402225   0.01864029
5136.00   0.72123480   0.01796978
5138.00   0.71194041   0.01792602
5140.00   0.70942777   0.01786229
5142.00   0.71489644   0.01802092
5144.00   0.73099107   0.01824131
5146.00   0.68389523   0.01801292
5148.00   0.69875199   0.01882574
5150.00   0.73532349   0.01969442
5152.00   0.75598025   0.02024656
5154.00   0.73737556   0.02085412
5156.00   0.73048729   0.02014517
5158.00   0.72224182   0.01944276
5160.00   0.74554384   0.01913913
5162.00   0.74548793   0.01879575
5164.00   0.72011954   0.01851765
5166.00   0.72402155   0.01841229
5168.00   0.81778485   0.01905947
5170.00   0.76218534   0.01863030
5172.00   0.78366458   0.01883467
5174.00   0.76584923   0.01870239
5176.00   0.79170358   0.01926713
5178.00   0.94977546   0.02273482
5180.00   1.72643232   0.03423299
5182.00   1.53566253   0.02961113
5184.00   0.89927149   0.01965918
5186.00   0.82201278   0.01938794
5188.00   0.78876162   0.01922076
5190.00   0.80509573   0.01937345
5192.00   0.80443799   0.01926539
5194.00   0.76497668   0.01907084
5196.00   0.82246786   0.01982320
5198.00   0.82388657   0.02043027
5200.00   0.82270271   0.02037656
5202.00   0.82383829   0.02014634
5204.00   0.82979047   0.01993379
5206.00   0.83092797   0.01989471
5208.00   0.84262156   0.02012981
5210.00   0.85432792   0.02102472
5212.00   0.83481967   0.02086035
5214.00   0.87473094   0.02061646
5216.00   0.84966964   0.02034486
5218.00   0.87958878   0.02097820
5220.00   0.89626735   0.02145808
5222.00   0.88746184   0.02101422
5224.00   0.85861206   0.02066431
5226.00   0.91747493   0.02104516
5228.00   0.91331637   0.02095739
5230.00   0.91018146   0.02115776
5232.00   0.89675641   0.02126680
5234.00   0.92076421   0.02121902
5236.00   0.91326046   0.02117590
5238.00   0.96777594   0.02185166
5240.00   0.91875076   0.02161417
5242.00   0.91912019   0.02147694
5244.00   0.91223973   0.02129113
5246.00   0.94546837   0.02165742
5248.00   0.97936165   0.02193171
5250.00   0.94479537   0.02156882
5252.00   0.93506473   0.02154160
5254.00   0.94725287   0.02178847
5256.00   0.94694227   0.02207047
5258.00   0.98112726   0.02292743
5260.00   0.98242688   0.02271593
5262.00   1.00118542   0.02243593
5264.00   0.98251605   0.02215537
5266.00   0.95995283   0.02195950
5268.00   0.96733832   0.02206982
5270.00   0.98084968   0.02217983
5272.00   0.99603921   0.02234099
5274.00   0.97882533   0.02223715
5276.00   0.96417397   0.02228615
5278.00   0.91701156   0.02184083
5280.00   0.95697117   0.02217760
5282.00   0.99601722   0.02259870
5284.00   1.00048399   0.02293611
5286.00   0.96333808   0.02304571
5288.00   0.95369476   0.02274636
5290.00   1.00973225   0.02302193
5292.00   0.99729460   0.02289567
5294.00   0.97616118   0.02273490
5296.00   0.99991453   0.02307844
5298.00   0.99197537   0.02318635
5300.00   1.00948548   0.02342833
5302.00   0.94301885   0.02315859
5304.00   1.00330305   0.02351751
5306.00   0.97969842   0.02326281
5308.00   0.98648542   0.02338033
5310.00   0.98940772   0.02349101
5312.00   0.97021550   0.02365092
5314.00   0.97881961   0.02375395
5316.00   0.96426475   0.02355626
5318.00   0.98221004   0.02367826
5320.00   0.97609758   0.02374939
5322.00   0.97669971   0.02386294
5324.00   0.95091909   0.02375770
5326.00   0.98293990   0.02428515
5328.00   0.98523414   0.02429308
5330.00   0.97226399   0.02442435
5332.00   0.95412278   0.02441484
5334.00   0.95966566   0.02446162
5336.00   0.96818185   0.02445055
5338.00   0.97763216   0.02487023
5340.00   1.01141250   0.02560106
5342.00   1.01225746   0.02597480
5344.00   1.02318859   0.02589424
5346.00   0.95568603   0.02510905
5348.00   1.01244867   0.02652542
5350.00   1.02184200   0.02753252
5352.00   0.93363625   0.02587465
5354.00   0.96101868   0.02646083
5356.00   0.98826122   0.02782570
5358.00   1.00464594   0.02713331
5360.00   1.00474381   0.02633853
5362.00   1.01781762   0.02613520
5364.00   0.97176081   0.02557964
5366.00   0.99136364   0.02576960
5368.00   0.99387789   0.02578118
5370.00   1.00230372   0.02593810
5372.00   0.94714338   0.02572403
5374.00   1.00049102   0.02690708
5376.00   0.97089368   0.02708646
5378.00   1.03498650   0.02717383
5380.00   0.99490768   0.02685625
5382.00   0.94580692   0.02632218
5384.00   0.94101244   0.02634143
5386.00   0.97061658   0.02666340
5388.00   0.95017254   0.02657725
5390.00   0.93703818   0.02693082
5392.00   0.91045660   0.02782090
5394.00   0.90161628   0.02750716
5396.00   0.89222986   0.02685595
5398.00   0.89641869   0.02699495
5400.00   0.93867183   0.02742218
5402.00   0.89416069   0.02729189
5404.00   0.89538944   0.02733333
5406.00   0.89009869   0.02759677
5408.00   0.81260949   0.02697798
5410.00   0.76347446   0.02691343
5412.00   0.85729146   0.02807292
5414.00   0.84214431   0.02871437
5416.00   0.81969142   0.02919148
5418.00   0.81035650   0.02964703
5420.00   0.82276464   0.01139334
5422.00   0.81434786   0.01152542
5424.00   0.80386335   0.01174523
5426.00   0.80285102   0.01178955
5428.00   0.81611764   0.01173953
5430.00   0.81619167   0.01162037
5432.00   0.80265099   0.01133287
5434.00   0.78938913   0.01109906
5436.00   0.78205788   0.01107727
5438.00   0.77779227   0.01117880
5440.00   0.78437519   0.01122129
5442.00   0.80965418   0.01129734
5444.00   0.81822461   0.01131262
5446.00   0.81829047   0.01117251
5448.00   0.81369013   0.01120232
5450.00   0.80122638   0.01131272
5452.00   0.78629047   0.01168568
5454.00   0.78723049   0.01301511
5456.00   0.80368012   0.01536272
5458.00   0.80839437   0.01639627
5460.00   0.81002277   0.01724080
5462.00   0.80755216   0.01719740
5464.00   0.79663223   0.01573970
5466.00   0.78581905   0.01365560
5468.00   0.78966373   0.01251828
5470.00   0.80756068   0.01188036
5472.00   0.80383557   0.01138835
5474.00   0.78467143   0.01139312
5476.00   0.76621455   0.01133700
5478.00   0.73887694   0.01131584
5480.00   0.71993613   0.01127662
5482.00   0.72865766   0.01113410
5484.00   0.75757265   0.01092311
5486.00   0.76627922   0.01071457
5488.00   0.76521707   0.01044189
5490.00   0.76496977   0.01023607
5492.00   0.76346081   0.01004796
5494.00   0.76000589   0.00993788
5496.00   0.75186169   0.00997786
5498.00   0.74192643   0.01010476
5500.00   0.74506027   0.01007619
5502.00   0.76502591   0.00975403
5504.00   0.77041346   0.00991124
5506.00   0.76635599   0.01061276
5508.00   0.76438266   0.01098685
5510.00   0.76664990   0.01080355
5512.00   0.77086639   0.01040657
5514.00   0.77670318   0.01029480
5516.00   0.78704381   0.01030860
5518.00   0.78895992   0.01030167
5520.00   0.77947122   0.01038243
5522.00   0.77930731   0.01036423
5524.00   0.79210377   0.01020040
5526.00   0.80771124   0.01000678
5528.00   0.81710255   0.00990709
5530.00   0.82476825   0.00985455
5532.00   0.82637423   0.00980273
5534.00   0.81973290   0.00978836
5536.00   0.81615090   0.00974515
5538.00   0.81287259   0.00966420
5540.00   0.81204885   0.00959203
5542.00   0.81604385   0.00955699
5544.00   0.82363296   0.00954485
5546.00   0.83045214   0.00955462
5548.00   0.83869267   0.00957102
5550.00   0.84612465   0.00964521
5552.00   0.85838568   0.00985708
5554.00   0.86205453   0.00995648
5556.00   0.84840328   0.00978777
5558.00   0.82636118   0.00950672
5560.00   0.81809270   0.00952500
5562.00   0.82244068   0.00972721
5564.00   0.81250089   0.00996888
5566.00   0.78390014   0.00995026
5568.00   0.77214408   0.01062474
5570.00   0.78730136   0.01216763
5572.00   0.81206453   0.01386358
5574.00   0.82553816   0.01523101
5576.00   0.83768749   0.01687063
5578.00   0.84064841   0.01687943
5580.00   0.83594263   0.01516602
5582.00   0.82648903   0.01382007
5584.00   0.80686617   0.01286449
5586.00   0.78844440   0.01196126
5588.00   0.78354192   0.01086494
5590.00   0.78754288   0.00957972
5592.00   0.78619325   0.00898966
5594.00   0.78489852   0.00933226
5596.00   0.78159189   0.00931640
5598.00   0.77293074   0.00907901
5600.00   0.76827735   0.00891777
5602.00   0.77443010   0.00902042
5604.00   0.78690493   0.00926284
5606.00   0.79213423   0.00930007
5608.00   0.79714745   0.00922576
5610.00   0.79455596   0.00914422
5612.00   0.78198755   0.00898311
5614.00   0.77151543   0.00885533
5616.00   0.76676404   0.00880124
5618.00   0.76407748   0.00878132
5620.00   0.75956780   0.00874130
5622.00   0.75351679   0.00866608
5624.00   0.75108200   0.00870848
5626.00   0.75109541   0.00881814
5628.00   0.75235885   0.00900042
5630.00   0.75521642   0.00937885
5632.00   0.75904322   0.00968810
5634.00   0.76295638   0.00955339
5636.00   0.76772720   0.00902340
5638.00   0.77063417   0.00881133
5640.00   0.77171344   0.00872934
5642.00   0.77356440   0.00867994
5644.00   0.77515990   0.00868482
5646.00   0.77805382   0.00872756
5648.00   0.78525257   0.00876825
5650.00   0.79577851   0.00881977
5652.00   0.79498214   0.00906693
5654.00   0.78137165   0.00971592
5656.00   0.77608335   0.00983959
5658.00   0.77485645   0.00941401
5660.00   0.77615350   0.00907734
5662.00   0.78065932   0.00912981
5664.00   0.78739130   0.00937757
5666.00   0.79056609   0.00966718
5668.00   0.78992295   0.01018215
5670.00   0.79381382   0.01043036
5672.00   0.80190372   0.01045093
5674.00   0.80819321   0.01058025
5676.00   0.81041867   0.01078977
5678.00   0.81192225   0.01114679
5680.00   0.81819749   0.01192452
5682.00   0.82996029   0.01316641
5684.00   0.83300894   0.01376150
5686.00   0.82499951   0.01417487
5688.00   0.82613021   0.01423258
5690.00   0.84372759   0.01383930
5692.00   0.85919040   0.01321033
5694.00   0.85186982   0.01254811
5696.00   0.82800370   0.01168532
5698.00   0.81548381   0.01107151
5700.00   0.80048805   0.01062542
5702.00   0.79768443   0.01023137
5704.00   0.81015146   0.00990744
5706.00   0.82423049   0.00969291
5708.00   0.83198130   0.00964803
5710.00   0.83764124   0.00974432
5712.00   0.84259582   0.00970808
5714.00   0.84604418   0.00963051
5716.00   0.84903562   0.00952411
5718.00   0.85211587   0.00935967
5720.00   0.85310602   0.00920130
5722.00   0.85034448   0.00907227
5724.00   0.84572929   0.00895489
5726.00   0.84422261   0.00882753
5728.00   0.84597611   0.00858466
5730.00   0.84312934   0.00866873
5732.00   0.83426541   0.00914539
5734.00   0.83025759   0.00941513
5736.00   0.83286870   0.00943347
5738.00   0.83891565   0.00931411
5740.00   0.84551638   0.00907790
5742.00   0.85353035   0.00859885
5744.00   0.86489958   0.00848457
5746.00   0.88668281   0.00867985
5748.00   0.89549428   0.00879714
5750.00   0.88891900   0.00887042
5752.00   0.87818426   0.00892375
5754.00   0.87067258   0.00892185
5756.00   0.86230451   0.00886219
5758.00   0.86205518   0.00903599
5760.00   0.87060905   0.00937839
5762.00   0.87608355   0.00974600
5764.00   0.88505155   0.01008155
5766.00   0.88715100   0.01058202
5768.00   0.87364513   0.01156647
5770.00   0.85095137   0.01266336
5772.00   0.84136558   0.01247015
5774.00   0.83655977   0.01071803
5776.00   0.83767450   0.00984154
5778.00   0.85044295   0.00897747
5780.00   0.85824519   0.00879827
5782.00   0.85396761   0.00983489
5784.00   0.84655631   0.01118694
5786.00   0.85176265   0.01157948
5788.00   0.86995339   0.01153266
5790.00   0.87260783   0.01136162
5792.00   0.86225605   0.01076859
5794.00   0.85722250   0.01028849
5796.00   0.85985374   0.00991550
5798.00   0.86394638   0.00965916
5800.00   0.86422920   0.00967342
5802.00   0.86311615   0.00999736
5804.00   0.85957575   0.00987977
5806.00   0.85070789   0.00933116
5808.00   0.84656680   0.00903668
5810.00   0.84817868   0.00895928
5812.00   0.84962261   0.00899266
5814.00   0.84681940   0.00913600
5816.00   0.84176141   0.00939232
5818.00   0.83714098   0.00939265
5820.00   0.82929438   0.00912094
5822.00   0.82718235   0.00904601
5824.00   0.83005953   0.00910640
5826.00   0.83431399   0.00917829
5828.00   0.84026819   0.00922220
5830.00   0.84682745   0.00926385
5832.00   0.84578305   0.00930103
5834.00   0.83656216   0.00932956
5836.00   0.83214450   0.00936768
5838.00   0.82847065   0.00941004
5840.00   0.82606626   0.00945617
5842.00   0.82521129   0.00950824
5844.00   0.82544762   0.00956220
5846.00   0.82644439   0.00961038
5848.00   0.83015567   0.00965635
5850.00   0.82727182   0.00969803
5852.00   0.81920707   0.00973576
5854.00   0.81046969   0.00977075
5856.00   0.79686147   0.00979205
5858.00   0.78666943   0.00982322
5860.00   0.79069161   0.00989508
5862.00   0.80593354   0.01000007
5864.00   0.81270635   0.01006379
5866.00   0.81548911   0.01011895
5868.00   0.82071763   0.01014149
5870.00   0.83079284   0.01015839
5872.00   0.83693737   0.01011489
5874.00   0.83398807   0.00991884
5876.00   0.82481778   0.00962281
5878.00   0.81211096   0.00965006
5880.00   0.79564601   0.00912973
5882.00   0.77301657   0.01044095
5884.00   0.73401195   0.01282557
5886.00   0.70778775   0.01523539
5888.00   0.70782560   0.01795980
5890.00   0.71990216   0.02042341
5892.00   0.71827209   0.02114570
5894.00   0.71210426   0.02086268
5896.00   0.70378852   0.01987896
5898.00   0.67877704   0.01720760
5900.00   0.67696005   0.01465983
5902.00   0.71316397   0.01239871
5904.00   0.75832653   0.01037649
5906.00   0.77491790   0.00930666
5908.00   0.77601737   0.00959693
5910.00   0.77777374   0.00943533
5912.00   0.77247918   0.00923058
5914.00   0.76795030   0.00954110
5916.00   0.76075023   0.01067073
5918.00   0.75655305   0.01158006
5920.00   0.76164770   0.01158004
5922.00   0.77355433   0.01101569
5924.00   0.78247237   0.01066208
5926.00   0.79848558   0.01007774
5928.00   0.79972643   0.00981492
5930.00   0.78338653   0.00993312
5932.00   0.76859891   0.01003169
5934.00   0.76551384   0.00992576
5936.00   0.76717156   0.00973235
5938.00   0.76148725   0.00956852
5940.00   0.74662787   0.00934931
5942.00   0.74357796   0.00921607
5944.00   0.74888802   0.00912548
5946.00   0.75506985   0.00909113
5948.00   0.76101416   0.00914358
5950.00   0.76758450   0.00923421
5952.00   0.77353776   0.00925528
5954.00   0.77778333   0.00923635
5956.00   0.78752780   0.00923704
5958.00   0.81074095   0.00924822
5960.00   0.81730914   0.00924246
5962.00   0.79854286   0.00922462
5964.00   0.77556545   0.00918733
5966.00   0.77131957   0.00910991
5968.00   0.77761757   0.00898723
5970.00   0.77975368   0.00892410
5972.00   0.78275144   0.00889288
5974.00   0.78587979   0.00887599
5976.00   0.78981590   0.00889426
5978.00   0.79322159   0.00890500
5980.00   0.79424930   0.00887088
5982.00   0.79377383   0.00881010
5984.00   0.79903191   0.00878699
5986.00   0.81110883   0.00879300
5988.00   0.81821477   0.00878385
5990.00   0.82446021   0.00877363
5992.00   0.82666034   0.00875385
5994.00   0.82210851   0.00872259
5996.00   0.81359220   0.00868018
5998.00   0.80881172   0.00861691
6000.00   0.80190891   0.00846489
6002.00   0.80401433   0.00848722
6004.00   0.81560534   0.00850219
6006.00   0.82586849   0.00879770
6008.00   0.83660227   0.00967725
6010.00   0.84395075   0.01048150
6012.00   0.83650309   0.01027419
6014.00   0.81291956   0.00911781
6016.00   0.80520427   0.00862084
6018.00   0.80567551   0.00836099
6020.00   0.80710208   0.00821738
6022.00   0.81078821   0.00828547
6024.00   0.81533372   0.00839794
6026.00   0.81944394   0.00836151
6028.00   0.82437569   0.00824635
6030.00   0.82238787   0.00826752
6032.00   0.81141549   0.00849213
6034.00   0.80623633   0.00847639
6036.00   0.80219328   0.00815243
6038.00   0.80379164   0.00788648
6040.00   0.81802171   0.00792255
6042.00   0.83993900   0.00812147
6044.00   0.84137070   0.00823787
6046.00   0.82525945   0.00849308
6048.00   0.81513989   0.00843673
6050.00   0.80169928   0.00801360
6052.00   0.79268646   0.00768129
6054.00   0.79103661   0.00762117
6056.00   0.79368943   0.00767661
6058.00   0.79662466   0.00765178
6060.00   0.80446666   0.00759162
6062.00   0.80440968   0.00761990
6064.00   0.79579890   0.00773011
6066.00   0.79188329   0.00782862
6068.00   0.79461515   0.00793014
6070.00   0.79968375   0.00800982
6072.00   0.80331314   0.00800237
6074.00   0.80726665   0.00789970
6076.00   0.81044739   0.00793876
6078.00   0.81382567   0.00819387
6080.00   0.81549704   0.00819709
6082.00   0.81675071   0.00786223
6084.00   0.81518954   0.00751312
6086.00   0.80705267   0.00743544
6088.00   0.79349768   0.00751082
6090.00   0.79028571   0.00753807
6092.00   0.79762888   0.00760070
6094.00   0.79745770   0.00764847
6096.00   0.78896648   0.00766165
6098.00   0.78461200   0.00772006
6100.00   0.78996605   0.00776552
6102.00   0.80125469   0.00787631
6104.00   0.81467378   0.00852398
6106.00   0.84170991   0.00991070
6108.00   0.84743375   0.01038865
6110.00   0.83315337   0.01037765
6112.00   0.82400250   0.01031537
6114.00   0.82529056   0.01026106
6116.00   0.83077216   0.01016024
6118.00   0.83694661   0.01005556
6120.00   0.85108405   0.00995955
6122.00   0.84521216   0.00972657
6124.00   0.81866378   0.00914541
6126.00   0.79923600   0.00894255
6128.00   0.78583461   0.00942401
6130.00   0.77714592   0.00986958
6132.00   0.77580929   0.00954928
6134.00   0.78188539   0.00862813
6136.00   0.78464484   0.00812509
6138.00   0.78595817   0.00768916
6140.00   0.79098815   0.00746238
6142.00   0.80432826   0.00754985
6144.00   0.81283557   0.00769267
6146.00   0.80533475   0.00770763
6148.00   0.78773659   0.00769230
6150.00   0.78320396   0.00785692
6152.00   0.78352875   0.00818162
6154.00   0.78920859   0.00845778
6156.00   0.80603474   0.00886647
6158.00   0.81832534   0.00906433
6160.00   0.82013065   0.00890249
6162.00   0.81636775   0.00852242
6164.00   0.81235689   0.00820231
6166.00   0.80500251   0.00774500
6168.00   0.79852372   0.00747533
6170.00   0.78949112   0.00736455
6172.00   0.78406620   0.00726103
6174.00   0.78351635   0.00714283
6176.00   0.78566736   0.00704637
6178.00   0.78866935   0.00699648
6180.00   0.79460287   0.00698513
6182.00   0.79602373   0.00700819
6184.00   0.79384911   0.00703329
6186.00   0.79244608   0.00716086
6188.00   0.79063040   0.00748771
6190.00   0.79003698   0.00775389
6192.00   0.79354769   0.00771486
6194.00   0.80060095   0.00745822
6196.00   0.80064660   0.00739532
6198.00   0.79384273   0.00746934
6200.00   0.79098004   0.00742940
6202.00   0.79174519   0.00726573
6204.00   0.79149586   0.00712310
6206.00   0.78838652   0.00703201
6208.00   0.78339696   0.00699109
6210.00   0.77505249   0.00726055
6212.00   0.75683230   0.00807985
6214.00   0.75242072   0.00822486
6216.00   0.76169127   0.00788980
6218.00   0.76680380   0.00754744
6220.00   0.76051140   0.00728640
6222.00   0.75135309   0.00705895
6224.00   0.75376475   0.00697908
6226.00   0.76720965   0.00690729
6228.00   0.77008557   0.00727736
6230.00   0.76645845   0.00837951
6232.00   0.76380008   0.00878396
6234.00   0.76309234   0.00830092
6236.00   0.76191312   0.00752367
6238.00   0.75791699   0.00721463
6240.00   0.75155663   0.00712330
6242.00   0.74670839   0.00698848
6244.00   0.74383521   0.00693828
6246.00   0.73762858   0.00684950
6248.00   0.72395772   0.00668083
6250.00   0.71421641   0.00656565
6252.00   0.72008491   0.00661930
6254.00   0.73668092   0.00678816
6256.00   0.73430878   0.00693229
6258.00   0.71811521   0.00722779
6260.00   0.70442963   0.00724966
6262.00   0.68399870   0.00699115
6264.00   0.67096633   0.00672220
6266.00   0.67512673   0.00654233
6268.00   0.68795776   0.00640037
6270.00   0.68652862   0.00636311
6272.00   0.67486125   0.00644613
6274.00   0.66847199   0.00651693
6276.00   0.66082120   0.00666599
6278.00   0.65730381   0.00674599
6280.00   0.66299415   0.00672234
6282.00   0.66951746   0.00664657
6284.00   0.66057742   0.00656256
6286.00   0.63767302   0.00637592
6288.00   0.62562358   0.00646051
6290.00   0.61748844   0.00667340
6292.00   0.61085254   0.00706448
6294.00   0.61073363   0.00772492
6296.00   0.60677564   0.00835528
6298.00   0.58335203   0.00875284
6300.00   0.54236704   0.00908061
6302.00   0.53296065   0.00896954
6304.00   0.55095106   0.00824116
6306.00   0.55843800   0.00777731
6308.00   0.56441337   0.00754489
6310.00   0.56328768   0.00731563
6312.00   0.54692614   0.00693541
6314.00   0.52008450   0.00647131
6316.00   0.50909466   0.00616935
6318.00   0.50676215   0.00593542
6320.00   0.50636482   0.00586227
6322.00   0.51284516   0.00602975
6324.00   0.51769245   0.00617661
6326.00   0.51805502   0.00622757
6328.00   0.51631176   0.00624741
6330.00   0.51421863   0.00627580
6332.00   0.50887275   0.00633047
6334.00   0.50908238   0.00628337
6336.00   0.51302058   0.00611863
6338.00   0.51827818   0.00598558
6340.00   0.52791739   0.00589153
6342.00   0.53608656   0.00582956
6344.00   0.53165787   0.00583276
6346.00   0.51545733   0.00592222
6348.00   0.51001853   0.00589307
6350.00   0.50450307   0.00569991
6352.00   0.51010901   0.00567608
6354.00   0.53197187   0.00583491
6356.00   0.55563509   0.00605706
6358.00   0.57084841   0.00630197
6360.00   0.58344126   0.00660229
6362.00   0.57800537   0.00664633
6364.00   0.54198778   0.00647537
6366.00   0.53245771   0.00631234
6368.00   0.54640090   0.00603829
6370.00   0.56120437   0.00582070
6372.00   0.56657475   0.00577298
6374.00   0.56886876   0.00583151
6376.00   0.57304168   0.00589158
6378.00   0.57955128   0.00609800
6380.00   0.58084303   0.00608279
6382.00   0.57434595   0.00585427
6384.00   0.57312047   0.00567395
6386.00   0.58164126   0.00555469
6388.00   0.59452540   0.00552807
6390.00   0.60437000   0.00580243
6392.00   0.61480212   0.00639409
6394.00   0.62250525   0.00670744
6396.00   0.63185704   0.00709870
6398.00   0.63298905   0.00711821
6400.00   0.62006402   0.00652887
6402.00   0.60587209   0.00577514
6404.00   0.60665154   0.00560652
6406.00   0.61784190   0.00583145
6408.00   0.62071782   0.00588118
6410.00   0.62022918   0.00598795
6412.00   0.61988139   0.00600226
6414.00   0.61712027   0.00591081
6416.00   0.61672902   0.00579773
6418.00   0.62435549   0.00571127
6420.00   0.63746834   0.00562636
6422.00   0.63860160   0.00559763
6424.00   0.62699896   0.00564300
6426.00   0.62482977   0.00564537
6428.00   0.62967855   0.00564604
6430.00   0.63393742   0.00561071
6432.00   0.63366073   0.00541287
6434.00   0.63229549   0.00519265
6436.00   0.63736838   0.00556454
6438.00   0.64810175   0.00655069
6440.00   0.65721613   0.00694441
6442.00   0.67277640   0.00727195
6444.00   0.67816204   0.00723242
6446.00   0.66696393   0.00653040
6448.00   0.64951724   0.00552204
6450.00   0.64072031   0.00524405
6452.00   0.63470232   0.00554904
6454.00   0.63075495   0.00556055
6456.00   0.63032436   0.00554421
6458.00   0.62973183   0.00552981
6460.00   0.62830782   0.00547547
6462.00   0.62818140   0.00546659
6464.00   0.63204408   0.00562710
6466.00   0.63957441   0.00592442
6468.00   0.64107084   0.00598847
6470.00   0.63927817   0.00591100
6472.00   0.63568324   0.00580935
6474.00   0.62771541   0.00561088
6476.00   0.62101924   0.00542908
6478.00   0.61990196   0.00530744
6480.00   0.62178421   0.00523319
6482.00   0.61884880   0.00542274
6484.00   0.61069816   0.00601598
6486.00   0.60784584   0.00620628
6488.00   0.60662770   0.00619673
6490.00   0.60929710   0.00609013
6492.00   0.61804312   0.00582730
6494.00   0.63007426   0.00548999
6496.00   0.63847435   0.00546661
6498.00   0.64663285   0.00575156
6500.00   0.65146816   0.00579841
6502.00   0.65382618   0.00570896
6504.00   0.65397012   0.00567673
6506.00   0.65103525   0.00572432
6508.00   0.64669901   0.00580519
6510.00   0.64338845   0.00590435
6512.00   0.63969344   0.00606841
6514.00   0.63808477   0.00603313
6516.00   0.63792479   0.00579336
6518.00   0.63874513   0.00561314
6520.00   0.64319873   0.00533874
6522.00   0.64535421   0.00525326
6524.00   0.63918883   0.00571562
6526.00   0.62707520   0.00651189
6528.00   0.61938077   0.00677707
6530.00   0.60900629   0.00686365
6532.00   0.60756159   0.00673347
6534.00   0.61745352   0.00620055
6536.00   0.62608367   0.00568408
6538.00   0.62779582   0.00545936
6540.00   0.62618184   0.00538859
6542.00   0.62351507   0.00528662
6544.00   0.61519426   0.00501993
6546.00   0.61406505   0.00527948
6548.00   0.61890072   0.00615936
6550.00   0.62260264   0.00664482
6552.00   0.62472045   0.00660192
6554.00   0.62512481   0.00630324
6556.00   0.62031752   0.00599739
6558.00   0.60893834   0.00543430
6560.00   0.60362583   0.00520338
6562.00   0.60136688   0.00521637
6564.00   0.59950036   0.00528685
6566.00   0.59714514   0.00548117
6568.00   0.59643292   0.00567048
6570.00   0.60005575   0.00567746
6572.00   0.60759151   0.00555610
6574.00   0.61281085   0.00553250
6576.00   0.61861235   0.00554760
6578.00   0.62228417   0.00555692
6580.00   0.62415957   0.00558751
6582.00   0.62448382   0.00559175
6584.00   0.62369376   0.00552493
6586.00   0.62158239   0.00540758
6588.00   0.61521500   0.00533102
6590.00   0.59875995   0.00524399
6592.00   0.59476161   0.00521344
6594.00   0.60171378   0.00524488
6596.00   0.60883921   0.00528238
6598.00   0.61280823   0.00528226
6600.00   0.61587733   0.00529095
6602.00   0.61785662   0.00544237
6604.00   0.61895460   0.00581382
6606.00   0.61865544   0.00589144
6608.00   0.61798668   0.00579304
6610.00   0.61446881   0.00564553
6612.00   0.60503691   0.00540878
6614.00   0.59519953   0.00514769
6616.00   0.59481978   0.00503808
6618.00   0.60248095   0.00500890
6620.00   0.60403836   0.00511064
6622.00   0.60308588   0.00547955
6624.00   0.60224450   0.00562444
6626.00   0.60008770   0.00547056
6628.00   0.59920806   0.00531376
6630.00   0.60369766   0.00547344
6632.00   0.61286455   0.00583681
6634.00   0.61211526   0.00582706
6636.00   0.60084569   0.00550003
6638.00   0.59649175   0.00528786
6640.00   0.59890705   0.00504099
6642.00   0.60001427   0.00493392
6644.00   0.59514374   0.00517040
6646.00   0.58715218   0.00558683
6648.00   0.58176255   0.00561446
6650.00   0.57458055   0.00531535
6652.00   0.57352340   0.00518329
6654.00   0.57857382   0.00507991
6656.00   0.58384138   0.00502002
6658.00   0.58799094   0.00502645
6660.00   0.59208030   0.00506978
6662.00   0.59609634   0.00507668
6664.00   0.60153025   0.00506820
6666.00   0.60215342   0.00507426
6668.00   0.59974635   0.00509979
6670.00   0.59466547   0.00510371
6672.00   0.58358771   0.00507203
6674.00   0.57308966   0.00503403
6676.00   0.57356262   0.00501672
6678.00   0.58300292   0.00498965
6680.00   0.58526278   0.00508090
6682.00   0.58404613   0.00537730
6684.00   0.58394390   0.00546458
6686.00   0.58439630   0.00523070
6688.00   0.58527291   0.00507478
6690.00   0.58720624   0.00541209
6692.00   0.59005368   0.00602308
6694.00   0.58955550   0.00606691
6696.00   0.58788723   0.00557227
6698.00   0.58269268   0.00542361
6700.00   0.56937885   0.00549387
6702.00   0.56114101   0.00563133
6704.00   0.56640154   0.00585681
6706.00   0.57832569   0.00611136
6708.00   0.57933307   0.00601646
6710.00   0.57244307   0.00549043
6712.00   0.56945062   0.00524888
6714.00   0.56624639   0.00505186
6716.00   0.56453937   0.00502152
6718.00   0.56605452   0.00530632
6720.00   0.56801367   0.00564409
6722.00   0.56461108   0.00558042
6724.00   0.55552322   0.00515731
6726.00   0.55338633   0.00502779
6728.00   0.55562210   0.00505530
6730.00   0.55820352   0.00507378
6732.00   0.56354952   0.00510844
6734.00   0.56709820   0.00512896
6736.00   0.56173778   0.00506439
6738.00   0.54857701   0.00491857
6740.00   0.54604650   0.00491918
6742.00   0.55180734   0.00508695
6744.00   0.55419439   0.00512177
6746.00   0.55397952   0.00501885
6748.00   0.55409461   0.00491545
6750.00   0.55695415   0.00487830
6752.00   0.56123883   0.00487465
6754.00   0.55959338   0.00499788
6756.00   0.54917765   0.00536735
6758.00   0.54786664   0.00544836
6760.00   0.55488539   0.00527560
6762.00   0.56013405   0.00514201
6764.00   0.55747360   0.00511953
6766.00   0.55338717   0.00517613
6768.00   0.56360090   0.00542578
6770.00   0.59147424   0.00602409
6772.00   0.60137540   0.00610748
6774.00   0.59972250   0.00570284
6776.00   0.59889650   0.00552065
6778.00   0.57733202   0.00562295
6780.00   0.57579917   0.00594110
6782.00   0.67305750   0.00654552
6784.00   0.86239088   0.00742653
6786.00   0.99664760   0.00799842
6788.00   1.18776906   0.00871033
6790.00   1.23725867   0.00887926
6792.00   1.10896575   0.00844785
6794.00   0.93080616   0.00772629
6796.00   0.79680473   0.00686518
6798.00   0.65762931   0.00557365
6800.00   0.58718461   0.00514110
6802.00   0.57123911   0.00568643
6804.00   0.57602805   0.00596630
6806.00   0.63096976   0.00626105
6808.00   0.67948276   0.00651073
6810.00   0.69097859   0.00659283
6812.00   0.68392742   0.00661611
6814.00   0.67404675   0.00707369
6816.00   0.65538216   0.00840396
6818.00   0.62907016   0.00832380
6820.00   0.58372760   0.00681191
6822.00   0.54960126   0.00538841
6824.00   0.53625059   0.00494986
6826.00   0.53320694   0.00503579
6828.00   0.52785558   0.00502883
6830.00   0.52564502   0.00528283
6832.00   0.52410811   0.00530371
6834.00   0.52701014   0.00514157
6836.00   0.52554411   0.00509756
6838.00   0.51556480   0.00527480
6840.00   0.50604612   0.00544272
6842.00   0.50870115   0.00533870
6844.00   0.52081686   0.00501364
6846.00   0.52573407   0.00485345
6848.00   0.52987576   0.00474224
6850.00   0.53002197   0.00467324
6852.00   0.52291441   0.00463333
6854.00   0.51727599   0.00466189
6856.00   0.52158499   0.00479302
6858.00   0.53212738   0.00500372
6860.00   0.52980322   0.00521965
6862.00   0.51445752   0.00553343
6864.00   0.50796407   0.00570791
6866.00   0.50809866   0.00574369
6868.00   0.50730604   0.00581212
6870.00   0.49967420   0.00604376
6872.00   0.49084002   0.00630308
6874.00   0.49876639   0.00621743
6876.00   0.53140724   0.00575278
6878.00   0.53678221   0.00547876
6880.00   0.52017725   0.00515474
6882.00   0.51022339   0.00499349
6884.00   0.51568139   0.00506947
6886.00   0.52353466   0.00529206
6888.00   0.51515216   0.00558570
6890.00   0.49022540   0.00611211
6892.00   0.48777753   0.00611291
6894.00   0.50515443   0.00559856
6896.00   0.51377386   0.00524146
6898.00   0.51261783   0.00507187
6900.00   0.50858378   0.00498139
6902.00   0.50529462   0.00492422
6904.00   0.50017548   0.00492806
6906.00   0.50258487   0.00495570
6908.00   0.51588279   0.00508217
6910.00   0.51967734   0.00510606
6912.00   0.51424909   0.00501645
6914.00   0.50785094   0.00492924
6916.00   0.50498831   0.00491322
6918.00   0.50318962   0.00493206
6920.00   0.50018287   0.00495685
6922.00   0.49753723   0.00501470
6924.00   0.49268678   0.00504798
6926.00   0.48268116   0.00509353
6928.00   0.47723404   0.00509410
6930.00   0.48159191   0.00497598
6932.00   0.49007365   0.00482932
6934.00   0.49058101   0.00492858
6936.00   0.48303947   0.00519803
6938.00   0.48588943   0.00548556
6940.00   0.49045783   0.00587023
6942.00   0.50562418   0.00621425
6944.00   0.54075056   0.00659703
6946.00   0.57788014   0.00688009
6948.00   0.59031105   0.00682722
6950.00   0.58814394   0.00648361
6952.00   0.57750499   0.00617439
6954.00   0.53610545   0.00530497
6956.00   0.52611524   0.00531656
6958.00   0.55336505   0.00651107
6960.00   0.58820212   0.00757709
6962.00   0.61436015   0.00798917
6964.00   0.64242262   0.00815703
6966.00   0.62468612   0.00769592
6968.00   0.54768586   0.00587836
6970.00   0.50662047   0.00479999
6972.00   0.48640123   0.00459637
6974.00   0.47406480   0.00462712
6976.00   0.46608865   0.00462027
6978.00   0.46423316   0.00472393
6980.00   0.46371973   0.00473813
6982.00   0.46825168   0.00468516
6984.00   0.47112191   0.00473397
6986.00   0.47502211   0.00481535
6988.00   0.47790948   0.00497734
6990.00   0.48020473   0.00534057
6992.00   0.48094076   0.00568261
6994.00   0.47632438   0.00555180
6996.00   0.46359268   0.00487962
6998.00   0.46184185   0.00467561
7000.00   0.47078767   0.00479436
7002.00   0.47391072   0.00483774
7004.00   0.46891391   0.00478506
7006.00   0.46206874   0.00471884
7008.00   0.45865777   0.00469047
7010.00   0.45588166   0.00467905
7012.00   0.45763713   0.00467793
7014.00   0.46585459   0.00471925
7016.00   0.47056386   0.00470959
7018.00   0.47382125   0.00462715
7020.00   0.47439203   0.00455577
7022.00   0.47034135   0.00451273
7024.00   0.46257424   0.00448554
7026.00   0.45643434   0.00478130
7028.00   0.44666839   0.00562275
7030.00   0.44446799   0.00576494
7032.00   0.44994780   0.00531265
7034.00   0.45569190   0.00486003
7036.00   0.46070948   0.00465540
7038.00   0.46477765   0.00457432
7040.00   0.46005854   0.00467116
7042.00   0.44149360   0.00512063
7044.00   0.43828303   0.00516633
7046.00   0.44639602   0.00492109
7048.00   0.45252433   0.00472233
7050.00   0.45513329   0.00461681
7052.00   0.45616311   0.00456110
7054.00   0.45554605   0.00457420
7056.00   0.45344001   0.00466266
7058.00   0.44915891   0.00475106
7060.00   0.43873802   0.00494057
7062.00   0.43476427   0.00499165
7064.00   0.43858913   0.00481637
7066.00   0.44485265   0.00465360
7068.00   0.45029733   0.00479835
7070.00   0.45738411   0.00515547
7072.00   0.45529124   0.00514443
7074.00   0.44173628   0.00479808
7076.00   0.43538934   0.00462027
7078.00   0.43422484   0.00455373
7080.00   0.43455338   0.00453393
7082.00   0.43577293   0.00455372
7084.00   0.43801400   0.00461341
7086.00   0.43500879   0.00460662
7088.00   0.42465007   0.00454590
7090.00   0.42136699   0.00451434
7092.00   0.42267498   0.00449583
7094.00   0.42471826   0.00447359
7096.00   0.42720887   0.00444141
7098.00   0.42991683   0.00440540
7100.00   0.42974377   0.00437121
7102.00   0.42486626   0.00429859
7104.00   0.42758870   0.00434347
7106.00   0.43919232   0.00447232
7108.00   0.44511008   0.00463441
7110.00   0.44320169   0.00490928
7112.00   0.43801904   0.00512858
7114.00   0.43322775   0.00503862
7116.00   0.42642030   0.00466010
7118.00   0.42314765   0.00450121
7120.00   0.42312092   0.00442370
7122.00   0.42176217   0.00438264
7124.00   0.41576278   0.00429577
7126.00   0.41405058   0.00436942
7128.00   0.42715496   0.00487373
7130.00   0.45153505   0.00562949
7132.00   0.45441443   0.00564072
7134.00   0.44014442   0.00492026
7136.00   0.43062305   0.00455994
7138.00   0.41824797   0.00440517
7140.00   0.41010240   0.00434154
7142.00   0.41076282   0.00435084
7144.00   0.41683915   0.00443807
7146.00   0.42095765   0.00450502
7148.00   0.43031260   0.00465521
7150.00   0.42942280   0.00465271
7152.00   0.41802269   0.00449524
7154.00   0.40954319   0.00437997
7156.00   0.40701270   0.00434892
7158.00   0.40692821   0.00436448
7160.00   0.40663391   0.00442029
7162.00   0.40787083   0.00453644
7164.00   0.40738922   0.00462082
7166.00   0.40467969   0.00469174
7168.00   0.40423828   0.00478029
7170.00   0.40668455   0.00490869
7172.00   0.41018391   0.00502341
7174.00   0.41371340   0.00506191
7176.00   0.41862008   0.00504194
7178.00   0.41734886   0.00506663
7180.00   0.40651408   0.00499382
7182.00   0.40447098   0.00516243
7184.00   0.41350642   0.00565764
7186.00   0.42093605   0.00606539
7188.00   0.41677862   0.00616740
7190.00   0.40617204   0.00610575
7192.00   0.40807438   0.00610456
7194.00   0.42477646   0.00617975
7196.00   0.42703882   0.00602185
7198.00   0.41818604   0.00555236
7200.00   0.40879333   0.00511184
7202.00   0.40001220   0.00483153
7204.00   0.39233914   0.00466375
7206.00   0.39615256   0.00471270
7208.00   0.41580731   0.00514984
7210.00   0.42027402   0.00516581
7212.00   0.41672528   0.00489119
7214.00   0.41129780   0.00464842
7216.00   0.40295082   0.00446346
7218.00   0.39385140   0.00431976
7220.00   0.38924536   0.00428533
7222.00   0.38669717   0.00436292
7224.00   0.38781759   0.00440921
7226.00   0.39715409   0.00444708
7228.00   0.39939541   0.00454223
7230.00   0.39010206   0.00462207
7232.00   0.38244656   0.00482357
7234.00   0.39054602   0.00530585
7236.00   0.41023299   0.00596826
7238.00   0.41123495   0.00632988
7240.00   0.39914536   0.00647906
7242.00   0.38836896   0.00676604
7244.00   0.37299186   0.00736848
7246.00   0.36066455   0.00763580
7248.00   0.35480729   0.00713258
7250.00   0.35371208   0.00605050
7252.00   0.36236477   0.00553619
7254.00   0.39080241   0.00540914
7256.00   0.39940324   0.00518775
7258.00   0.39331755   0.00501876
7260.00   0.38855833   0.00489705
7262.00   0.38940167   0.00482360
7264.00   0.39182791   0.00480219
7266.00   0.39301643   0.00481736
7268.00   0.39419895   0.00475599
7270.00   0.39475203   0.00511355
7272.00   0.39529034   0.00597931
7274.00   0.39457798   0.00643386
7276.00   0.39172792   0.00648979
7278.00   0.38857156   0.00635093
7280.00   0.38749808   0.00611429
7282.00   0.38760924   0.00565228
7284.00   0.38808849   0.00539991
7286.00   0.38889238   0.00525771
7288.00   0.39096782   0.00515135
7290.00   0.39659387   0.00513070
7292.00   0.40017307   0.00511392
7294.00   0.39713266   0.00500934
7296.00   0.38961339   0.00485112
7298.00   0.38082314   0.00484643
7300.00   0.36263350   0.00496678
7302.00   0.35793522   0.00507699
7304.00   0.36627772   0.00522882
7306.00   0.37529480   0.00536272
7308.00   0.38128713   0.00542598
7310.00   0.38611645   0.00547117
7312.00   0.38479519   0.00566849
7314.00   0.37429026   0.00618824
7316.00   0.37163967   0.00616962
7318.00   0.37365705   0.00566480
7320.00   0.37511206   0.00521072
7322.00   0.37514174   0.00491438
7324.00   0.37472254   0.00471139
7326.00   0.37383956   0.00467463
7328.00   0.37096712   0.00486002
7330.00   0.37356988   0.00489439
7332.00   0.38075447   0.00454129
7334.00   0.38824970   0.00485596
7336.00   0.40011930   0.00614567
7338.00   0.40834767   0.00715716
7340.00   0.40212461   0.00710484
7342.00   0.38439766   0.00631384
7344.00   0.37252572   0.00590703
7346.00   0.35687762   0.00548868
7348.00   0.34982932   0.00516129
7350.00   0.35364610   0.00491216
7352.00   0.35764533   0.00478345
7354.00   0.35414743   0.00483173
7356.00   0.34734735   0.00502641
7358.00   0.34899333   0.00518355
7360.00   0.35812342   0.00545546
7362.00   0.36433271   0.00553896
7364.00   0.37186691   0.00547013
7366.00   0.37657827   0.00537939
7368.00   0.37635839   0.00530018
7370.00   0.37329561   0.00521054
7372.00   0.37117395   0.00513092
7374.00   0.36565405   0.00506757
7376.00   0.36806750   0.00496694
7378.00   0.38007644   0.00482976
7380.00   0.38710943   0.00469385
7382.00   0.38777682   0.00453423
7384.00   0.38446644   0.00439829
7386.00   0.37711975   0.00437500
7388.00   0.36349303   0.00441221
7390.00   0.35678044   0.00461582
7392.00   0.35239512   0.00509606
7394.00   0.35154811   0.00533938
7396.00   0.35605988   0.00540030
7398.00   0.36154747   0.00534884
7400.00   0.36447176   0.00517908
7402.00   0.36669236   0.00486131
7404.00   0.36536247   0.00466230
7406.00   0.35898930   0.00450359
7408.00   0.35543498   0.00437085
7410.00   0.35342914   0.00427342
7412.00   0.35208794   0.00420617
7414.00   0.35149428   0.00416997
7416.00   0.35147047   0.00416474
7418.00   0.34980527   0.00416964
7420.00   0.34505150   0.00419685
7422.00   0.34475589   0.00423014
7424.00   0.34769815   0.00427173
7426.00   0.35131145   0.00432710
7428.00   0.35639757   0.00440591
7430.00   0.36130008   0.00449185
7432.00   0.36045799   0.00455250
7434.00   0.35434410   0.00462506
7436.00   0.35034534   0.00460537
7438.00   0.34389570   0.00446012
7440.00   0.34172690   0.00437656
7442.00   0.34611252   0.00438809
7444.00   0.35192406   0.00441997
7446.00   0.35296494   0.00439910
7448.00   0.35091892   0.00434778
7450.00   0.35304213   0.00433144
7452.00   0.35788369   0.00433014
7454.00   0.36265177   0.00434082
7456.00   0.37160364   0.00424711
7458.00   0.37569430   0.00432433
7460.00   0.36537451   0.00484578
7462.00   0.34486639   0.00558910
7464.00   0.33855784   0.00583170
7466.00   0.33968210   0.00589745
7468.00   0.34299159   0.00572035
7470.00   0.35432392   0.00499685
7472.00   0.36172003   0.00441551
7474.00   0.35881048   0.00450462
7476.00   0.35085541   0.00491364
7478.00   0.34825113   0.00503496
7480.00   0.34902102   0.00515357
7482.00   0.34650698   0.00507876
7484.00   0.34030309   0.00473612
7486.00   0.33714002   0.00445906
7488.00   0.33783892   0.00430153
7490.00   0.34146494   0.00423442
7492.00   0.34898645   0.00431860
7494.00   0.36351988   0.00460455
7496.00   0.36721846   0.00467431
7498.00   0.36364451   0.00465767
7500.00   0.35887551   0.00457607
7502.00   0.35085124   0.00436238
7504.00   0.34296954   0.00413935
7506.00   0.33980519   0.00406574
7508.00   0.33974907   0.00408354
7510.00   0.33806595   0.00414827
7512.00   0.33403796   0.00427835
7514.00   0.33489612   0.00444813
7516.00   0.34193689   0.00470828
7518.00   0.34875494   0.00492624
7520.00   0.35269588   0.00504316
7522.00   0.35507518   0.00510049
7524.00   0.35048035   0.00508422
7526.00   0.33384618   0.00497093
7528.00   0.32836422   0.00485195
7530.00   0.33122623   0.00465291
7532.00   0.33341172   0.00449697
7534.00   0.33251023   0.00444565
7536.00   0.33039245   0.00444603
7538.00   0.32722521   0.00440724
7540.00   0.32124826   0.00437024
7542.00   0.31925863   0.00430785
7544.00   0.31980577   0.00419425
7546.00   0.32112363   0.00412388
7548.00   0.32396293   0.00411190
7550.00   0.32688877   0.00413335
7552.00   0.32696557   0.00417409
7554.00   0.32438114   0.00425557
7556.00   0.32552570   0.00427645
7558.00   0.32956499   0.00421338
7560.00   0.33280829   0.00423893
7562.00   0.33584428   0.00433598
7564.00   0.33834088   0.00448966
7566.00   0.33949733   0.00473923
7568.00   0.33954787   0.00507167
7570.00   0.34116709   0.00510998
7572.00   0.34615806   0.00489594
7574.00   0.34578735   0.00473013
7576.00   0.33964136   0.00450492
7578.00   0.33353868   0.00432049
7580.00   0.32995072   0.00424178
7582.00   0.32739034   0.00423748
7584.00   0.32569540   0.00428044
7586.00   0.32638639   0.00437465
7588.00   0.32451269   0.00453099
7590.00   0.32028010   0.00460054
7592.00   0.31712401   0.00496219
7594.00   0.31453604   0.00549586
7596.00   0.31380340   0.00628743
7598.00   0.32044235   0.00768426
7600.00   0.33963564   0.00969927
7602.00   0.33796191   0.01043573
7604.00   0.31217158   0.01072343
7606.00   0.30233401   0.01053978
7608.00   0.31497577   0.00959342
7610.00   0.33253407   0.00828371
7612.00   0.33883128   0.00733847
7614.00   0.34101975   0.00647228
7616.00   0.33837253   0.00583502
7618.00   0.32838899   0.00552094
7620.00   0.31961966   0.00541881
7622.00   0.30828565   0.00566005
7624.00   0.30018479   0.00599930
7626.00   0.30062646   0.00633547
7628.00   0.30698523   0.00671523
7630.00   0.31087777   0.00675295
7632.00   0.31742564   0.00647889
7634.00   0.31931543   0.00625719
7636.00   0.31566760   0.00594199
7638.00   0.31350005   0.00566156
7640.00   0.31600186   0.00548064
7642.00   0.32048577   0.00536486
7644.00   0.32245806   0.00528521
7646.00   0.32190320   0.00523534
7648.00   0.32504374   0.00529169
7650.00   0.33458132   0.00555945
7652.00   0.33757758   0.00566269
7654.00   0.32941583   0.00550565
7656.00   0.31777063   0.00524777
7658.00   0.31324747   0.00510038
7660.00   0.31180379   0.00494145
7662.00   0.31205121   0.00498782
7664.00   0.31624395   0.00520855
7666.00   0.31890091   0.00547298
7668.00   0.32102448   0.00600007
7670.00   0.32151267   0.00630150
7672.00   0.31783682   0.00582049
7674.00   0.31025869   0.00450649
7676.00   0.30917937   0.00405166
7678.00   0.31501895   0.00431755
7680.00   0.31543347   0.00445957
7682.00   0.31202230   0.00473185
7684.00   0.30667159   0.00489666
7686.00   0.29787996   0.00472849
7688.00   0.28701171   0.00436328
7690.00   0.28873488   0.00451920
7692.00   0.30827710   0.00524542
7694.00   0.31079680   0.00542049
7696.00   0.29965016   0.00525044
7698.00   0.29153353   0.00509754
7700.00   0.29121813   0.00507157
7702.00   0.29436511   0.00507964
7704.00   0.29806027   0.00504205
7706.00   0.30743316   0.00482801
7708.00   0.30587342   0.00509850
7710.00   0.29120156   0.00590521
7712.00   0.28444752   0.00633347
7714.00   0.29062790   0.00639324
7716.00   0.29918337   0.00625592
7718.00   0.29759726   0.00596879
7720.00   0.28866166   0.00539555
7722.00   0.28870180   0.00506432
7724.00   0.29718590   0.00486327
7726.00   0.29962388   0.00469165
7728.00   0.29557425   0.00451447
7730.00   0.29040039   0.00446005
7732.00   0.28768787   0.00469727
7734.00   0.28575441   0.00514083
7736.00   0.28313467   0.00518189
7738.00   0.27725476   0.00475446
7740.00   0.27807653   0.00477626
7742.00   0.28744394   0.00512985
7744.00   0.29492414   0.00555545
7746.00   0.29476848   0.00607472
7748.00   0.29127041   0.00659937
7750.00   0.29333550   0.00660831
7752.00   0.30225566   0.00594869
7754.00   0.30241391   0.00583974
7756.00   0.29411379   0.00611139
7758.00   0.28936231   0.00627030
7760.00   0.29149798   0.00628129
7762.00   0.29620939   0.00616793
7764.00   0.29856738   0.00575533
7766.00   0.30132517   0.00477742
7768.00   0.30066758   0.00443542
7770.00   0.29567793   0.00468844
7772.00   0.29259557   0.00481823
7774.00   0.29296887   0.00483605
7776.00   0.29274514   0.00482757
7778.00   0.28690150   0.00480624
7780.00   0.27608016   0.00476260
7782.00   0.27394998   0.00472448
7784.00   0.27911580   0.00450491
7786.00   0.28190860   0.00466166
7788.00   0.28327784   0.00524572
7790.00   0.28481206   0.00578507
7792.00   0.28763163   0.00612056
7794.00   0.29114625   0.00637215
7796.00   0.29191428   0.00634795
7798.00   0.29073113   0.00597880
7800.00   0.28892100   0.00570541
7802.00   0.28504014   0.00536787
7804.00   0.28202465   0.00508059
7806.00   0.27953410   0.00488506
7808.00   0.27862108   0.00477681
7810.00   0.28583717   0.00482022
7812.00   0.30744168   0.00502790
7814.00   0.31029391   0.00524643
7816.00   0.30053735   0.00552117
7818.00   0.28910795   0.00582391
7820.00   0.27405092   0.00628779
7822.00   0.25936145   0.00664483
7824.00   0.25452727   0.00645678
7826.00   0.25561514   0.00571492
7828.00   0.26286942   0.00530584
7830.00   0.27966651   0.00466587
7832.00   0.29553008   0.00471935
7834.00   0.31710473   0.00587011
7836.00   0.33199573   0.00675809
7838.00   0.32488343   0.00658539
7840.00   0.30061066   0.00567977
7842.00   0.28970161   0.00523416
7844.00   0.27977189   0.00468598
7846.00   0.27779984   0.00465509
7848.00   0.28980091   0.00527311
7850.00   0.29724270   0.00585780
7852.00   0.28814158   0.00624193
7854.00   0.27023643   0.00654323
7856.00   0.26197088   0.00645480
7858.00   0.25610992   0.00581687
7860.00   0.25487790   0.00547720
7862.00   0.26041624   0.00517785
7864.00   0.26518360   0.00502194
7866.00   0.26719293   0.00511329
7868.00   0.26834270   0.00532167
7870.00   0.27010077   0.00537502
7872.00   0.27330610   0.00539201
7874.00   0.27194756   0.00532640
7876.00   0.26424485   0.00500481
7878.00   0.26077843   0.00496135
7880.00   0.26326752   0.00537260
7882.00   0.26765183   0.00582070
7884.00   0.27033779   0.00591892
7886.00   0.27335566   0.00582350
7888.00   0.27324829   0.00576536
7890.00   0.26933566   0.00568339
7892.00   0.26717499   0.00553025
7894.00   0.26583877   0.00527921
7896.00   0.26567176   0.00498354
7898.00   0.26695314   0.00458466
7900.00   0.26947376   0.00404870
7902.00   0.27543736   0.00435605
7904.00   0.28675118   0.00517583
7906.00   0.29474464   0.00611154
7908.00   0.30451277   0.00756195
7910.00   0.30806458   0.00841981
7912.00   0.29988855   0.00842644
7914.00   0.28474382   0.00794312
7916.00   0.27530003   0.00744677
7918.00   0.26267791   0.00642698
7920.00   0.26188058   0.00582207
7922.00   0.27262756   0.00549512
7924.00   0.28321317   0.00525925
7926.00   0.29526359   0.00507236
7928.00   0.30486566   0.00501404
7930.00   0.29890388   0.00519113
7932.00   0.27608797   0.00571203
7934.00   0.26861873   0.00572843
7936.00   0.26723412   0.00531199
7938.00   0.26958445   0.00504496
7940.00   0.27837700   0.00493838
7942.00   0.28819075   0.00492776
7944.00   0.29299584   0.00505322
7946.00   0.29567397   0.00534716
7948.00   0.29451686   0.00524274
7950.00   0.28779495   0.00459639
7952.00   0.28274253   0.00437696
7954.00   0.27585033   0.00438891
7956.00   0.27255955   0.00479074
7958.00   0.27847898   0.00579933
7960.00   0.29039448   0.00701862
7962.00   0.29283118   0.00734490
7964.00   0.28837186   0.00724330
7966.00   0.28641278   0.00688660
7968.00   0.28114411   0.00569509
7970.00   0.28153729   0.00476896
7972.00   0.29339844   0.00497767
7974.00   0.31030700   0.00569524
7976.00   0.31750798   0.00602521
7978.00   0.32217598   0.00648191
7980.00   0.31797940   0.00643322
7982.00   0.29827464   0.00570590
7984.00   0.28763685   0.00528930
7986.00   0.29167452   0.00548400
7988.00   0.29994446   0.00586021
7990.00   0.30118144   0.00603998
7992.00   0.30070364   0.00624985
7994.00   0.29466698   0.00611754
7996.00   0.27742100   0.00554854
7998.00   0.26993054   0.00510496
8000.00   0.27345386   0.00474803
8002.00   0.27983409   0.00447946
8004.00   0.28356647   0.00437193
8006.00   0.28736919   0.00442186
8008.00   0.28949711   0.00445960
8010.00   0.28977263   0.00450844
8012.00   0.29065427   0.00467103
8014.00   0.29076082   0.00492207
8016.00   0.29228282   0.00523441
8018.00   0.29769289   0.00567056
8020.00   0.30500633   0.00613862
8022.00   0.30564296   0.00621850
8024.00   0.29915449   0.00594440
8026.00   0.29744768   0.00577707
8028.00   0.29821199   0.00558897
8030.00   0.29837587   0.00535476
8032.00   0.29563397   0.00500224
8034.00   0.29326671   0.00461718
8036.00   0.29842973   0.00447795
8038.00   0.31128749   0.00453100
8040.00   0.31876817   0.00464020
8042.00   0.32511309   0.00493359
8044.00   0.32968715   0.00512720
8046.00   0.33320582   0.00522996
8048.00   0.33426046   0.00527274
8050.00   0.33028030   0.00524759
8052.00   0.32111639   0.00514722
8054.00   0.31625289   0.00504781
8056.00   0.31129387   0.00484203
8058.00   0.31034809   0.00477964
8060.00   0.31700554   0.00493496
8062.00   0.32133776   0.00505072
8064.00   0.31462401   0.00493484
8066.00   0.30095816   0.00467096
8068.00   0.29608315   0.00454766
8070.00   0.29482996   0.00449105
8072.00   0.29639560   0.00443718
8074.00   0.30366156   0.00437062
8076.00   0.30960795   0.00437469
8078.00   0.31189016   0.00448619
8080.00   0.31195793   0.00466952
8082.00   0.30887052   0.00488159
8084.00   0.29917341   0.00530458
8086.00   0.29666817   0.00530673
8088.00   0.29656404   0.00484259
8090.00   0.30074680   0.00456087
8092.00   0.31298083   0.00467339
8094.00   0.32667097   0.00491351
8096.00   0.32957843   0.00499719
8098.00   0.32591501   0.00500934
8100.00   0.31939113   0.00512321
8102.00   0.30359814   0.00531803
8104.00   0.29429266   0.00547839
8106.00   0.29213649   0.00570213
8108.00   0.29284209   0.00580283
8110.00   0.29345602   0.00552047
8112.00   0.29526499   0.00484975
8114.00   0.29886040   0.00458338
8116.00   0.30641702   0.00458202
8118.00   0.31041372   0.00458611
8120.00   0.31084663   0.00456134
8122.00   0.31114542   0.00471182
8124.00   0.31427482   0.00523049
8126.00   0.31838197   0.00590705
8128.00   0.31485957   0.00607388
8130.00   0.29975751   0.00589405
8132.00   0.29634798   0.00575432
8134.00   0.30285299   0.00538618
8136.00   0.30725756   0.00520859
8138.00   0.30567688   0.00550315
8140.00   0.30166525   0.00593394
8142.00   0.29891512   0.00588870
8144.00   0.29675135   0.00536712
8146.00   0.29223108   0.00531065
8148.00   0.28023526   0.00563748
8150.00   0.27814227   0.00577644
8152.00   0.29172710   0.00561055
8154.00   0.30951211   0.00539332
8156.00   0.31730968   0.00544954
8158.00   0.32049358   0.00569171
8160.00   0.32264486   0.00580509
8162.00   0.32083991   0.00588635
8164.00   0.32053506   0.00595547
8166.00   0.32200310   0.00586581
8168.00   0.32308796   0.00594941
8170.00   0.32175434   0.00645349
8172.00   0.31869361   0.00718303
8174.00   0.31942117   0.00810017
8176.00   0.32381690   0.00923103
8178.00   0.32623908   0.01025153
8180.00   0.32642403   0.01162227
8182.00   0.32816920   0.01237240
8184.00   0.33244932   0.01193258
8186.00   0.33893844   0.01077905
8188.00   0.35107476   0.01074765
8190.00   0.38348565   0.01174132
8192.00   0.38234073   0.01189116
8194.00   0.34847671   0.01169771
8196.00   0.32351249   0.01134443
8198.00   0.31737316   0.01081160
8200.00   0.31879300   0.01010622
8202.00   0.31908470   0.00935969
8204.00   0.32683793   0.00838869
8206.00   0.31819636   0.00762699
8208.00   0.28704339   0.00690232
8210.00   0.27329281   0.00645386
8212.00   0.28441793   0.00646051
8214.00   0.30051816   0.00666276
8216.00   0.30152816   0.00677537
8218.00   0.29428506   0.00693953
8220.00   0.29471329   0.00700553
8222.00   0.29606596   0.00693019
8224.00   0.30320606   0.00700845
8226.00   0.32025734   0.00740393
8228.00   0.33551961   0.00759381
8230.00   0.34172559   0.00714532
8232.00   0.34263578   0.00618750
8234.00   0.33619791   0.00580070
8236.00   0.31375214   0.00587910
8238.00   0.30613250   0.00576587
8240.00   0.31053880   0.00554321
8242.00   0.31424826   0.00541848
8244.00   0.31258324   0.00554531
8246.00   0.30917343   0.00576637
8248.00   0.30745408   0.00568802
8250.00   0.30475473   0.00524588
8252.00   0.30627534   0.00519717
8254.00   0.31391248   0.00546295
8256.00   0.31785095   0.00563674
8258.00   0.31443131   0.00570244
8260.00   0.30987617   0.00569071
8262.00   0.31377450   0.00553173
8264.00   0.32605916   0.00516423
8266.00   0.32596672   0.00499782
8268.00   0.31614974   0.00485357
8270.00   0.30837002   0.00491723
8272.00   0.29935306   0.00517850
8274.00   0.29386085   0.00558228
8276.00   0.29974777   0.00613983
8278.00   0.31537598   0.00683830
8280.00   0.31685975   0.00718325
8282.00   0.30712748   0.00738995
8284.00   0.30219996   0.00743698
8286.00   0.29901847   0.00708244
8288.00   0.29746050   0.00694042
8290.00   0.29899737   0.00751264
8292.00   0.30249801   0.00838787
8294.00   0.30030262   0.00860409
8296.00   0.28951031   0.00856947
8298.00   0.28893280   0.00821211
8300.00   0.29505867   0.00715816
8302.00   0.30334672   0.00622117
8304.00   0.31580648   0.00585631
8306.00   0.32863501   0.00579401
8308.00   0.32843283   0.00561717
8310.00   0.31669027   0.00551547
8312.00   0.30863249   0.00538851
8314.00   0.29542169   0.00525040
8316.00   0.28923774   0.00515141
8318.00   0.29358953   0.00512987
8320.00   0.30104026   0.00511383
8322.00   0.30303046   0.00499237
8324.00   0.30293041   0.00477155
8326.00   0.30246136   0.00468543
8328.00   0.29727086   0.00467652
8330.00   0.29907605   0.00470641
8332.00   0.31189463   0.00439077
8334.00   0.32282531   0.00463659
8336.00   0.32200795   0.00606411
8338.00   0.31410441   0.00785916
8340.00   0.30325118   0.00908649
8342.00   0.27892515   0.01082152
8344.00   0.27073309   0.01106814
8346.00   0.27607644   0.00978944
8348.00   0.28444871   0.00833778
8350.00   0.29274276   0.00756267
8352.00   0.30250090   0.00706143
8354.00   0.30940527   0.00645014
8356.00   0.31657979   0.00577282
8358.00   0.31863177   0.00541857
8360.00   0.31518292   0.00548675
8362.00   0.31174099   0.00555694
8364.00   0.30866110   0.00560387
8366.00   0.30592194   0.00562690
8368.00   0.30566120   0.00545113
8370.00   0.30838010   0.00498662
8372.00   0.30761513   0.00491300
8374.00   0.30495894   0.00512887
8376.00   0.30165315   0.00533976
8378.00   0.29714826   0.00561683
8380.00   0.29243669   0.00584256
8382.00   0.28785497   0.00586248
8384.00   0.28193921   0.00573821
8386.00   0.28639352   0.00559431
8388.00   0.30439097   0.00509200
8390.00   0.31388223   0.00514297
8392.00   0.31866705   0.00565437
8394.00   0.31858632   0.00638012
8396.00   0.31110391   0.00739208
8398.00   0.29761896   0.00852226
8400.00   0.29064474   0.00861023
8402.00   0.28423506   0.00780112
8404.00   0.28363824   0.00713009
8406.00   0.28978571   0.00591051
8408.00   0.29664716   0.00501881
8410.00   0.30526391   0.00529072
8412.00   0.31303364   0.00608804
8414.00   0.30571026   0.00630753
8416.00   0.27664548   0.00642725
8418.00   0.27185890   0.00632437
8420.00   0.28525969   0.00557122
8422.00   0.29460037   0.00544025
8424.00   0.29803663   0.00639962
8426.00   0.29845315   0.00745686
8428.00   0.29509631   0.00783434
8430.00   0.28694406   0.00801340
8432.00   0.28158388   0.00766641
8434.00   0.27209494   0.00630333
8436.00   0.27220118   0.00532988
8438.00   0.28676972   0.00495075
8440.00   0.30171180   0.00486617
8442.00   0.30431506   0.00485745
8444.00   0.29989132   0.00503705
8446.00   0.29737139   0.00534864
8448.00   0.29178444   0.00603256
8450.00   0.28947660   0.00626546
8452.00   0.28991348   0.00606209
8454.00   0.29120761   0.00590070
8456.00   0.29217201   0.00599906
8458.00   0.29361910   0.00623488
8460.00   0.29799587   0.00668350
8462.00   0.31180227   0.00771562
8464.00   0.31022993   0.00783017
8466.00   0.29319847   0.00725898
8468.00   0.28011081   0.00659335
8470.00   0.27711049   0.00590019
8472.00   0.27750066   0.00513616
8474.00   0.27290964   0.00469507
8476.00   0.26488218   0.00458774
8478.00   0.26073217   0.00449374
8480.00   0.25657636   0.00452698
8482.00   0.25721052   0.00467550
8484.00   0.26713005   0.00499386
8486.00   0.27695128   0.00533232
8488.00   0.27319479   0.00553936
8490.00   0.25818321   0.00570787
8492.00   0.25663066   0.00573245
8494.00   0.26232454   0.00548691
8496.00   0.26976970   0.00547588
8498.00   0.28257403   0.00563688
8500.00   0.29413605   0.00593850
8502.00   0.29994190   0.00649422
8504.00   0.30238283   0.00721297
8506.00   0.29652271   0.00717076
8508.00   0.27688554   0.00635464
8510.00   0.26686099   0.00581367
8512.00   0.26212099   0.00521683
8514.00   0.25969663   0.00481216
8516.00   0.25810376   0.00489053
8518.00   0.25862548   0.00523128
8520.00   0.26463294   0.00520307
8522.00   0.28176427   0.00494204
8524.00   0.28551334   0.00478331
8526.00   0.27760902   0.00457470
8528.00   0.27367428   0.00446364
8530.00   0.27781475   0.00450545
8532.00   0.28416204   0.00462748
8534.00   0.28573465   0.00473759
8536.00   0.28465068   0.00488625
8538.00   0.28428742   0.00499372
8540.00   0.28311065   0.00503177
8542.00   0.28255263   0.00516435
8544.00   0.28206217   0.00548598
8546.00   0.28258973   0.00574102
8548.00   0.28607404   0.00568397
8550.00   0.29256549   0.00539563
8552.00   0.29298565   0.00518500
8554.00   0.28736985   0.00487222
8556.00   0.28506967   0.00468738
8558.00   0.28498554   0.00464610
8560.00   0.28572419   0.00464485
8562.00   0.28703487   0.00462923
8564.00   0.28901622   0.00462847
8566.00   0.28965476   0.00463305
8568.00   0.29022190   0.00464139
8570.00   0.28883934   0.00466965
8572.00   0.28540358   0.00470013
8574.00   0.28151360   0.00476765
8576.00   0.27661788   0.00491667
8578.00   0.27180195   0.00508349
8580.00   0.27171487   0.00510585
8582.00   0.27626821   0.00500944
8584.00   0.27886397   0.00494636
8586.00   0.28304338   0.00481345
8588.00   0.28436866   0.00477243
8590.00   0.28174642   0.00486827
8592.00   0.27726158   0.00501527
8594.00   0.27254549   0.00513094
8596.00   0.26475731   0.00527944
8598.00   0.26691011   0.00528130
8600.00   0.27903727   0.00513102
8602.00   0.28837249   0.00502033
8604.00   0.29869190   0.00490919
8606.00   0.30479750   0.00484130
8608.00   0.29959279   0.00488183
8610.00   0.28543252   0.00500566
8612.00   0.27924106   0.00509980
8614.00   0.27623448   0.00483308
8616.00   0.27345866   0.00538737
8618.00   0.27139118   0.00674023
8620.00   0.27040458   0.00774947
8622.00   0.27095303   0.00823815
8624.00   0.27263510   0.00846433
8626.00   0.27345154   0.00827667
8628.00   0.27362469   0.00722838
8630.00   0.27483347   0.00687908
8632.00   0.27574250   0.00709757
8634.00   0.27868715   0.00714837
8636.00   0.28451151   0.00675358
8638.00   0.29216528   0.00622972
8640.00   0.30030930   0.00619095
8642.00   0.31089920   0.00651441
8644.00   0.31750685   0.00674830
8646.00   0.32663569   0.00717252
8648.00   0.32497376   0.00734956
8650.00   0.30610907   0.00718420
8652.00   0.28442535   0.00693994
8654.00   0.27692294   0.00692780
8656.00   0.27756044   0.00704712
8658.00   0.27600920   0.00705863
8660.00   0.27589265   0.00702243
8662.00   0.27637446   0.00699424
8664.00   0.27697903   0.00697918
8666.00   0.27913606   0.00694493
8668.00   0.28522757   0.00688248
8670.00   0.29422808   0.00679704
8672.00   0.29464874   0.00659267
8674.00   0.28427094   0.00617592
8676.00   0.28335455   0.00591599
8678.00   0.28928748   0.00572895
8680.00   0.29607308   0.00563618
8682.00   0.30282959   0.00568660
8684.00   0.30952594   0.00582732
8686.00   0.31074163   0.00587934
8688.00   0.30587804   0.00598635
8690.00   0.30446088   0.00586815
8692.00   0.30116335   0.00542195
8694.00   0.30298746   0.00512523
8696.00   0.31494510   0.00513903
8698.00   0.32846066   0.00526538
8700.00   0.32902387   0.00527733
8702.00   0.32083529   0.00527150
8704.00   0.31260136   0.00522438
8706.00   0.29719874   0.00511214
8708.00   0.28783408   0.00502397
8710.00   0.28531349   0.00495115
8712.00   0.28538239   0.00489841
8714.00   0.28481188   0.00488323
8716.00   0.28492245   0.00490223
8718.00   0.28740513   0.00491227
8720.00   0.29280007   0.00489776
8722.00   0.29760891   0.00495346
8724.00   0.30147582   0.00503518
8726.00   0.30689746   0.00520092
8728.00   0.31750408   0.00556552
8730.00   0.33080396   0.00601494
8732.00   0.33086759   0.00599722
8734.00   0.31693566   0.00545952
8736.00   0.31031120   0.00523047
8738.00   0.30333716   0.00510755
8740.00   0.30112338   0.00507751
8742.00   0.30845487   0.00517300
8744.00   0.31918582   0.00534125
8746.00   0.31773981   0.00543402
8748.00   0.30432987   0.00547924
8750.00   0.30231282   0.00560001
8752.00   0.30811518   0.00556873
8754.00   0.31149912   0.00592579
8756.00   0.31385660   0.00680560
8758.00   0.31270099   0.00770136
8760.00   0.30080691   0.00821078
8762.00   0.27703947   0.00857490
8764.00   0.26804072   0.00878088
8766.00   0.26632679   0.00887314
8768.00   0.26868272   0.00878261
8770.00   0.27861705   0.00824346
8772.00   0.28901783   0.00784502
8774.00   0.29389676   0.00835254
8776.00   0.29613969   0.00940511
8778.00   0.29598778   0.00923025
8780.00   0.28719142   0.00778199
8782.00   0.28971562   0.00694688
8784.00   0.30582511   0.00643795
8786.00   0.31851050   0.00621903
8788.00   0.31902838   0.00646398
8790.00   0.31352004   0.00698121
8792.00   0.31231788   0.00693667
8794.00   0.31275186   0.00645015
8796.00   0.31115574   0.00613120
8798.00   0.30856773   0.00573102
8800.00   0.30511162   0.00542751
8802.00   0.29982495   0.00529100
8804.00   0.29433614   0.00526895
8806.00   0.29252481   0.00529980
8808.00   0.29388380   0.00545852
8810.00   0.29365930   0.00550297
8812.00   0.29459178   0.00532023
8814.00   0.29292750   0.00547156
8816.00   0.28058311   0.00522903
8818.00   0.27488491   0.00601511
8820.00   0.30323061   0.00914922
8822.00   0.36495245   0.01304794
8824.00   0.36486956   0.01388680
8826.00   0.30837348   0.01301951
8828.00   0.27599022   0.01221346
8830.00   0.25837064   0.01081900
8832.00   0.24651673   0.00945905
8834.00   0.23713119   0.00907897
8836.00   0.23191065   0.00936597
8838.00   0.23447402   0.00882282
8840.00   0.25036314   0.00735997
8842.00   0.25717956   0.00660294
8844.00   0.25674009   0.00650378
8846.00   0.25902456   0.00653010
8848.00   0.26831797   0.00656533
8850.00   0.28088668   0.00665277
8852.00   0.29072708   0.00650390
8854.00   0.30019790   0.00604417
8856.00   0.30884039   0.00590861
8858.00   0.31979796   0.00586015
8860.00   0.32451963   0.00606896
8862.00   0.31900364   0.00672194
8864.00   0.31027216   0.00737010
8866.00   0.30925679   0.00744088
8868.00   0.31424874   0.00709310
8870.00   0.31011122   0.00693934
8872.00   0.29325765   0.00667801
8874.00   0.28900772   0.00663659
8876.00   0.30055770   0.00663172
8878.00   0.31537044   0.00700151
8880.00   0.32533818   0.00819997
8882.00   0.33568299   0.00988296
8884.00   0.32802156   0.01027037
8886.00   0.29590926   0.00998608
8888.00   0.27950999   0.00941140
8890.00   0.27334133   0.00791810
8892.00   0.27138242   0.00643025
8894.00   0.27221584   0.00599365
8896.00   0.27641782   0.00629312
8898.00   0.27892420   0.00659529
8900.00   0.28194073   0.00751173
8902.00   0.28410625   0.00770771
8904.00   0.28580004   0.00747556
8906.00   0.28701940   0.00713046
8908.00   0.28586322   0.00643557
8910.00   0.28525472   0.00572913
8912.00   0.29383475   0.00653217
8914.00   0.31428793   0.00845699
8916.00   0.32126880   0.00940417
8918.00   0.32399777   0.01053895
8920.00   0.31819573   0.01075018
8922.00   0.29770207   0.00960720
8924.00   0.27499086   0.00784763
8926.00   0.26716724   0.00694516
8928.00   0.26789403   0.00653869
8930.00   0.27077648   0.00615857
8932.00   0.28098336   0.00603319
8934.00   0.28890634   0.00609725
8936.00   0.29615268   0.00636407
8938.00   0.30203274   0.00679162
8940.00   0.30652907   0.00746776
8942.00   0.30997667   0.00831912
8944.00   0.30351079   0.00833025
8946.00   0.27995536   0.00712495
8948.00   0.27248418   0.00709352
8950.00   0.28021136   0.00781760
8952.00   0.28589410   0.00890334
8954.00   0.28289515   0.01060266
8956.00   0.27548259   0.01229913
8958.00   0.26459771   0.01213906
8960.00   0.23645110   0.00982810
8962.00   0.23812725   0.00867379
8964.00   0.27061436   0.00791156
8966.00   0.29213047   0.00729784
8968.00   0.29188433   0.00684052
8970.00   0.28429052   0.00658864
8972.00   0.28583699   0.00647692
8974.00   0.29225007   0.00664106
8976.00   0.29246795   0.00662595
8978.00   0.28878707   0.00638075
8980.00   0.28463069   0.00647811
8982.00   0.27764434   0.00693357
8984.00   0.27233455   0.00755574
8986.00   0.27436757   0.00832461
8988.00   0.28154424   0.00931468
8990.00   0.29087052   0.00945664
8992.00   0.30919275   0.00855059
8994.00   0.31804210   0.00846964
8996.00   0.32248521   0.00925983
8998.00   0.31795275   0.00999540
9000.00   0.29529533   0.01036205
9002.00   0.25973940   0.01056785
9004.00   0.25341082   0.01016187
9006.00   0.27251869   0.00861784
9008.00   0.28092998   0.00785899
9010.00   0.29159454   0.00779903
9012.00   0.29482707   0.00769047
9014.00   0.28297561   0.00720456
9016.00   0.26462221   0.00659393
9018.00   0.26179928   0.00635070
9020.00   0.27034727   0.00642292
9022.00   0.27432299   0.00644311
9024.00   0.27898085   0.00659458
9026.00   0.28305843   0.00666796
9028.00   0.28710216   0.00660229
9030.00   0.29005820   0.00651255
9032.00   0.28958279   0.00655523
9034.00   0.28560781   0.00669331
9036.00   0.28412661   0.00676075
9038.00   0.28314552   0.00672743
9040.00   0.28294337   0.00684795
9042.00   0.28562602   0.00717503
9044.00   0.28640535   0.00749950
9046.00   0.27897564   0.00769579
9048.00   0.26491827   0.00784496
9050.00   0.26449177   0.00776832
9052.00   0.27559584   0.00739125
9054.00   0.28315771   0.00711960
9056.00   0.29480305   0.00682822
9058.00   0.29914156   0.00662992
9060.00   0.28634930   0.00664693
9062.00   0.26357168   0.00679707
9064.00   0.25618789   0.00677821
9066.00   0.26103759   0.00656907
9068.00   0.25816646   0.00660367
9070.00   0.25148562   0.00693717
9072.00   0.24586715   0.00706808
9074.00   0.24042873   0.00676543
9076.00   0.23729256   0.00631419
9078.00   0.24464510   0.00635019
9080.00   0.26388529   0.00677558
9082.00   0.27502680   0.00695121
9084.00   0.28651255   0.00696701
9086.00   0.29159811   0.00715325
9088.00   0.28875253   0.00766924
9090.00   0.28157559   0.00811510
9092.00   0.27262881   0.00803687
9094.00   0.25853369   0.00750813
9096.00   0.25590768   0.00745310
9098.00   0.26432109   0.00774208
9100.00   0.26840681   0.00786739
9102.00   0.26867488   0.00793534
9104.00   0.26920864   0.00788305
9106.00   0.27316001   0.00758115
9108.00   0.27913922   0.00705427
9110.00   0.27940848   0.00678736
9112.00   0.27431625   0.00660713
9114.00   0.27140048   0.00659910
9116.00   0.26937953   0.00692418
9118.00   0.26695126   0.00710649
9120.00   0.26367405   0.00689608
9122.00   0.25985363   0.00649954
9124.00   0.25562182   0.00645712
9126.00   0.24902363   0.00656735
9128.00   0.24690896   0.00686378
9130.00   0.24725556   0.00753936
9132.00   0.25000769   0.00792731
9134.00   0.25706935   0.00796569
9136.00   0.26506606   0.00780106
9138.00   0.26677459   0.00748374
9140.00   0.26241836   0.00681325
9142.00   0.26556221   0.00653797
9144.00   0.27861571   0.00624297
9146.00   0.28162986   0.00656675
9148.00   0.26984534   0.00773583
9150.00   0.25692531   0.00881663
9152.00   0.25675234   0.00925404
9154.00   0.26474881   0.00941598
9156.00   0.26366553   0.00928244
9158.00   0.25716704   0.00863707
9160.00   0.25168961   0.00811588
9162.00   0.24484371   0.00751119
9164.00   0.23962028   0.00704692
9166.00   0.23802926   0.00694278
9168.00   0.23896362   0.00711216
9170.00   0.24157591   0.00738204
9172.00   0.24437609   0.00809080
9174.00   0.25331187   0.00823418
9176.00   0.27487049   0.00796868
9178.00   0.28741539   0.00764164
9180.00   0.28218460   0.00731616
9182.00   0.26780212   0.00696030
9184.00   0.25719914   0.00673536
9186.00   0.24154255   0.00660621
9188.00   0.23655404   0.00651893
9190.00   0.24164997   0.00654843
9192.00   0.24476445   0.00653695
9194.00   0.24601555   0.00646100
9196.00   0.24524324   0.00636492
9198.00   0.23891443   0.00627963
9200.00   0.22612977   0.00616941
9202.00   0.22142191   0.00617392
9204.00   0.21989410   0.00626854
9206.00   0.22234417   0.00639139
9208.00   0.23048566   0.00651810
9210.00   0.24021053   0.00671404
9212.00   0.24785978   0.00703155
9214.00   0.25505564   0.00743337
9216.00   0.26404247   0.00783311
9218.00   0.27940181   0.00849991
9220.00   0.28391117   0.00864165
9222.00   0.27759016   0.00830079
9224.00   0.26974913   0.00784047
9226.00   0.26312876   0.00736281
9228.00   0.25657529   0.00681208
9230.00   0.25684902   0.00658217
9232.00   0.26603240   0.00670194
9234.00   0.26882917   0.00670353
9236.00   0.26980054   0.00673877
9238.00   0.26869664   0.00676684
9240.00   0.26451021   0.00676823
9242.00   0.25886005   0.00676979
9244.00   0.25556245   0.00682311
9246.00   0.25379232   0.00694342
9248.00   0.25052190   0.00696571
9250.00   0.24791646   0.00693013
9252.00   0.24234723   0.00687056
9254.00   0.22972915   0.00674778
9256.00   0.21885584   0.00663637
9258.00   0.22230275   0.00664897
9260.00   0.23835956   0.00675486
9262.00   0.23727781   0.00681355
9264.00   0.22185571   0.00681185
9266.00   0.21357827   0.00693375
9268.00   0.20789573   0.00726142
9270.00   0.20765217   0.00750907
9272.00   0.21750201   0.00742346
9274.00   0.23524632   0.00712575
9276.00   0.24624741   0.00735890
9278.00   0.25789562   0.00812302
9280.00   0.26251557   0.00846277
9282.00   0.25734580   0.00851354
9284.00   0.25455558   0.00861587
9286.00   0.26162049   0.00895256
9288.00   0.27145085   0.00933501
9290.00   0.26649976   0.00935690
9292.00   0.24480309   0.00875867
9294.00   0.23760641   0.00907280
9296.00   0.23829576   0.00969344
9298.00   0.23909916   0.01084457
9300.00   0.24475880   0.01237875
9302.00   0.24622373   0.01418470
9304.00   0.21946104   0.01606761
9306.00   0.15284114   0.01739504
9308.00   0.15986837   0.02135524
9310.00   0.23382884   0.02698834
9312.00   0.28731227   0.03121903
9314.00   0.34155205   0.03560559
9316.00   0.36732316   0.03842812
9318.00   0.31064931   0.03773058
9320.00   0.17987216   0.03400886
9322.00   0.16260901   0.03251547
9324.00   0.25138557   0.03292336
9326.00   0.27164572   0.03107686
9328.00   0.24625681   0.02507763
9330.00   0.20089717   0.01958410
9332.00   0.13281184   0.02074696
9334.00   0.04638409   0.02546883
9336.00   0.02331746   0.02761533
9338.00   0.05257379   0.03001104
9340.00   0.07444808   0.03097632
9342.00   0.10991844   0.03155554
9344.00   0.14629669   0.03053918
9346.00   0.18106855   0.02612667
9348.00   0.21568744   0.01906564
9350.00   0.24716119   0.01663619
9352.00   0.27990684   0.01886384
9354.00   0.30042091   0.02001198
9356.00   0.30759999   0.02306527
9358.00   0.31658632   0.02398980
9360.00   0.33011079   0.02102594
9362.00   0.34234866   0.01765619
9364.00   0.34448931   0.01950231
9366.00   0.33255595   0.02188993
9368.00   0.35661027   0.03417904
9370.00   0.44072908   0.05283593
9372.00   0.46140963   0.06113579
9374.00   0.40508765   0.06484567
9376.00   0.33971509   0.06492788
9378.00   0.31551883   0.05982555
9380.00   0.30938062   0.04838680
9382.00   0.29221895   0.03921400
9384.00   0.26966837   0.02626387
9386.00   0.25546989   0.01447268
9388.00   0.25190201   0.01128891
9390.00   0.24529158   0.01140871
9392.00   0.22603913   0.00987848
9394.00   0.20198880   0.01005130
9396.00   0.19643039   0.01062989
9398.00   0.20794281   0.01271235
9400.00   0.21231344   0.01358038
9402.00   0.21738595   0.01416834
9404.00   0.22126448   0.01443222
9406.00   0.22133401   0.01413426
9408.00   0.22180061   0.01368496
9410.00   0.23150367   0.01400342
9412.00   0.24851102   0.01460917
9414.00   0.26547620   0.01589175
9416.00   0.29854074   0.01843956
9418.00   0.30656993   0.01961596
9420.00   0.27783510   0.01925976
9422.00   0.24211693   0.01852847
9424.00   0.23051420   0.01866836
9426.00   0.23135772   0.01934027
9428.00   0.22691104   0.01872049
9430.00   0.22174861   0.01574484
9432.00   0.21972586   0.01521058
9434.00   0.21595752   0.01562917
9436.00   0.22065061   0.01889226
9438.00   0.24688531   0.02666003
9440.00   0.28782722   0.03509773
9442.00   0.29479370   0.03514062
9444.00   0.27551168   0.02669438
9446.00   0.26030377   0.02178688
9448.00   0.23095354   0.01741262
9450.00   0.21542138   0.01530599
9452.00   0.23240295   0.01761682
9454.00   0.26254347   0.02201612
9456.00   0.25776246   0.02518557
9458.00   0.22293644   0.03020233
9460.00   0.20771773   0.03019751
9462.00   0.19433640   0.02492923
9464.00   0.19085498   0.02058421
9466.00   0.19577707   0.01900166
9468.00   0.21216209   0.01918439
9470.00   0.25245884   0.02088889
9472.00   0.33007774   0.02467092
9474.00   0.34171948   0.02580227
9476.00   0.29665384   0.02597931
9478.00   0.26581129   0.02534488
9480.00   0.23799454   0.02327664
9482.00   0.22215323   0.02074058
9484.00   0.24037908   0.01900524
9486.00   0.28876850   0.01760249
9488.00   0.28371745   0.01662753
9490.00   0.23612796   0.01565491
9492.00   0.20047468   0.01632363
9494.00   0.15204987   0.01867137
9496.00   0.12544404   0.02112551
9498.00   0.14975385   0.02376546
9500.00   0.20516852   0.02632196
9502.00   0.22379000   0.02566320
9504.00   0.22721903   0.02079681
9506.00   0.22412539   0.01786983
9508.00   0.20464998   0.01523394
9510.00   0.18903856   0.01323541
9512.00   0.18116495   0.01221562
9514.00   0.17827143   0.01242308
9516.00   0.18372570   0.01403533
9518.00   0.20120606   0.01734885
9520.00   0.20948957   0.01882003
9522.00   0.21398731   0.02006125
9524.00   0.21787977   0.02030325
9526.00   0.22112922   0.01914153
9528.00   0.22363496   0.01735205
9530.00   0.22511601   0.01610087
9532.00   0.22424692   0.01483720
9534.00   0.23107268   0.01414953
9536.00   0.23986028   0.01385128
9538.00   0.25832802   0.01421903
9540.00   0.29250482   0.01529816
9542.00   0.32583976   0.01668714
9544.00   0.34914777   0.01833364
9546.00   0.36778280   0.02021602
9548.00   0.35743356   0.02088004
9550.00   0.31629568   0.02075543
9552.00   0.27729991   0.02045465
9554.00   0.22303908   0.01964217
9556.00   0.17887534   0.01874913
9558.00   0.15600701   0.01763085
9560.00   0.14678524   0.01652710
9562.00   0.14557403   0.01746870
9564.00   0.15839522   0.02093882
9566.00   0.17127377   0.02180592
9568.00   0.19952030   0.02177789
9570.00   0.21190476   0.02090159
9572.00   0.19359702   0.01842873
9574.00   0.16743574   0.01496199
9576.00   0.17158999   0.01331944
9578.00   0.19816744   0.01323721
9580.00   0.21116775   0.01297405
9582.00   0.22248487   0.01318022
9584.00   0.23013496   0.01364745
9586.00   0.22969319   0.01426835
9588.00   0.23090021   0.01521513
9590.00   0.24914537   0.01694472
9592.00   0.28380397   0.01942293
9594.00   0.27571431   0.01911266
9596.00   0.21847828   0.01533975
9598.00   0.19369134   0.01339322
9600.00   0.19280209   0.01352394
9602.00   0.20189287   0.01413083
9604.00   0.22160673   0.01461230
9606.00   0.25100458   0.01524979
9608.00   0.24395518   0.01476972
9610.00   0.19372487   0.01259984
9612.00   0.17613956   0.01172337
9614.00   0.17838210   0.01149055
9616.00   0.18205121   0.01200193
9618.00   0.18124229   0.01355812
9620.00   0.18089774   0.01540720
9622.00   0.18575069   0.01615115
9624.00   0.19945697   0.01672622
9626.00   0.20075767   0.01609149
9628.00   0.19157204   0.01333134
9630.00   0.18483792   0.01121980
9632.00   0.18284468   0.01071691
9634.00   0.18139221   0.01113227
9636.00   0.17544837   0.01194282
9638.00   0.16375954   0.01363023
9640.00   0.16596720   0.01384501
9642.00   0.18080130   0.01269182
9644.00   0.19309956   0.01230812
9646.00   0.21155016   0.01296463
9648.00   0.22041018   0.01359242
9650.00   0.19932559   0.01341423
9652.00   0.15447268   0.01273439
9654.00   0.13894859   0.01254000
9656.00   0.13626386   0.01233088
9658.00   0.14206262   0.01268608
9660.00   0.16416189   0.01380424
9662.00   0.18513046   0.01471731
9664.00   0.19557208   0.01507876
9666.00   0.20140924   0.01516272
9668.00   0.20974091   0.01508986
9670.00   0.22675447   0.01453270
9672.00   0.22298433   0.01443671
9674.00   0.18516926   0.01458282
9676.00   0.17295323   0.01483970
9678.00   0.21690850   0.01541154
9680.00   0.27652952   0.01592827
9682.00   0.27548498   0.01544320
9684.00   0.22662733   0.01380432
9686.00   0.20426697   0.01295118
9688.00   0.17725322   0.01214948
9690.00   0.16990280   0.01198834
9692.00   0.19565719   0.01276132
9694.00   0.22512899   0.01378634
9696.00   0.22076310   0.01449750
9698.00   0.19269569   0.01528970
9700.00   0.18643972   0.01519293
9702.00   0.19211042   0.01393241
9704.00   0.19456449   0.01328021
9706.00   0.19727080   0.01325154
9708.00   0.19738106   0.01333920
9710.00   0.18968709   0.01314702
9712.00   0.17638423   0.01284950
9714.00   0.17805712   0.01340983
9716.00   0.19472131   0.01497664
9718.00   0.20316495   0.01569597
9720.00   0.21626380   0.01577496
9722.00   0.21489425   0.01602721
9724.00   0.18048950   0.01707147
9726.00   0.13186060   0.01820945
9728.00   0.12953797   0.01763885
9730.00   0.16933936   0.01455952
9732.00   0.18561365   0.01371166
9734.00   0.19899954   0.01472141
9736.00   0.20656797   0.01523330
9738.00   0.20781805   0.01486869
9740.00   0.20342945   0.01421410
9742.00   0.19330956   0.01381394
9744.00   0.17509395   0.01348967
9746.00   0.16112915   0.01306449
9748.00   0.13691165   0.01243372
9750.00   0.13436769   0.01205464
9752.00   0.16606593   0.01203228
9754.00   0.19907846   0.01211198
9756.00   0.19947317   0.01205387
9758.00   0.17945364   0.01194752
9760.00   0.17266396   0.01199000
9762.00   0.16879264   0.01239424
9764.00   0.16523927   0.01227396
9766.00   0.16185781   0.01148773
9768.00   0.16018300   0.01069898
9770.00   0.16044199   0.01034624
9772.00   0.16261081   0.01023930
9774.00   0.17055404   0.01037913
9776.00   0.19227888   0.01077177
9778.00   0.19657536   0.01134882
9780.00   0.17900676   0.01209685
9782.00   0.17396124   0.01298054
9784.00   0.20163752   0.01412002
9786.00   0.23875855   0.01526294
9788.00   0.23349451   0.01582940
9790.00   0.18551372   0.01603521
9792.00   0.17549391   0.01616771
9794.00   0.19045010   0.01610040
9796.00   0.19709481   0.01596566
9798.00   0.19447814   0.01545726
9800.00   0.18487395   0.01515474
9802.00   0.16192745   0.01623000
9804.00   0.11935192   0.01858833
9806.00   0.11292088   0.01865192
9808.00   0.13675986   0.01684976
9810.00   0.15424468   0.01542748
9812.00   0.17242223   0.01409842
9814.00   0.18542315   0.01298804
9816.00   0.18305930   0.01251562
9818.00   0.16872765   0.01261337
9820.00   0.17054932   0.01273739
9822.00   0.19089855   0.01340445
9824.00   0.19139065   0.01351089
9826.00   0.16922915   0.01299354
9828.00   0.15270692   0.01263199
9830.00   0.15632646   0.01292942
9832.00   0.17018652   0.01351200
9834.00   0.17838849   0.01357660
9836.00   0.18851535   0.01321417
9838.00   0.19433090   0.01312540
9840.00   0.19556586   0.01275815
9842.00   0.19804189   0.01307560
9844.00   0.20213436   0.01466383
9846.00   0.20796186   0.01637156
9848.00   0.21785060   0.01662044
9850.00   0.22913523   0.01587222
9852.00   0.24986142   0.01534642
9854.00   0.27953276   0.01413466
9856.00   0.31226185   0.01371895
9858.00   0.36097309   0.01446229
9860.00   0.39947569   0.01551082
9862.00   0.39259106   0.01607516
9864.00   0.35144219   0.01637781
9866.00   0.31057739   0.01760664
9868.00   0.23710343   0.01993650
9870.00   0.19867346   0.02113933
9872.00   0.19673060   0.02184792
9874.00   0.20218234   0.02179492
9876.00   0.19981033   0.02036837
9878.00   0.19753852   0.01757664
9880.00   0.18424699   0.01597886
9882.00   0.14954908   0.01487929
9884.00   0.14026082   0.01424328
9886.00   0.15393847   0.01408872
9888.00   0.16661093   0.01464107
9890.00   0.17051004   0.01630865
9892.00   0.17101467   0.01828783
9894.00   0.16869874   0.01876559
9896.00   0.15891807   0.01843836
9898.00   0.15816396   0.01771024
9900.00   0.16294794   0.01554704
9902.00   0.16913293   0.01414464
9904.00   0.17753333   0.01388899
9906.00   0.18645088   0.01471205
9908.00   0.19260797   0.01706179
9910.00   0.20076467   0.02089349
9912.00   0.19244905   0.02240738
9914.00   0.16588205   0.02342594
9916.00   0.14401290   0.02314506
9918.00   0.12003756   0.02072910
9920.00   0.10419744   0.01766517
9922.00   0.11075566   0.01616259
9924.00   0.13521907   0.01560590
9926.00   0.15289633   0.01515399
9928.00   0.17564596   0.01529347
9930.00   0.19185862   0.01554488
9932.00   0.20362481   0.01552842
9934.00   0.21132256   0.01638820
9936.00   0.21634164   0.01866637
9938.00   0.21753168   0.02157676
9940.00   0.20528574   0.02411849
9942.00   0.16440469   0.02776230
9944.00   0.15716304   0.02882306
9946.00   0.17496738   0.02782400
9948.00   0.19469304   0.02679259
9950.00   0.21121064   0.02584832
9952.00   0.22844295   0.02520067
9954.00   0.24574126   0.02679129
9956.00   0.26937303   0.03097043
9958.00   0.27426514   0.03197392
9960.00   0.26918498   0.03177196
9962.00   0.25089651   0.03037214
9964.00   0.20734434   0.02646288
9966.00   0.16248170   0.02153065
9968.00   0.15439159   0.01993137
9970.00   0.17749077   0.02125848
9972.00   0.16184369   0.02088061
9974.00   0.10552254   0.02020718
9976.00   0.08371605   0.01942184
9978.00   0.09549534   0.01827118
9980.00   0.12001674   0.01720458
9982.00   0.14800800   0.01670988
9984.00   0.18505444   0.01662339
9986.00   0.20584249   0.01664554
9988.00   0.22048600   0.01697132
9990.00   0.22410247   0.01729527
9992.00   0.21112061   0.01780634
9994.00   0.19867995   0.01817888
9996.00   0.19470842   0.01815475
9998.00   0.19379203   0.01797059
10000.00   0.19016257   0.01839015
10002.00   0.18096924   0.01822622
10004.00   0.18337572   0.02048624
10006.00   0.19719554   0.02427759
10008.00   0.20878881   0.02789377
10010.00   0.22029956   0.03210824
10012.00   0.22659551   0.03555244
10014.00   0.20907925   0.03551273
10016.00   0.16010575   0.03225317
10018.00   0.15135601   0.03041048
10020.00   0.16685396   0.02802206
10022.00   0.18785402   0.02660205
10024.00   0.22660153   0.02697842
10026.00   0.25976196   0.02754726
10028.00   0.25358394   0.02649455
10030.00   0.21613976   0.02423942
10032.00   0.20829539   0.02310793
10034.00   0.21791078   0.02246520
10036.00   0.22044356   0.02219593
10038.00   0.22455116   0.02242699
10040.00   0.21932790   0.02293986
10042.00   0.18820278   0.02384461
10044.00   0.14014553   0.02502766
10046.00   0.14154224   0.02467857
10048.00   0.19412470   0.02222535
10050.00   0.21578588   0.02144778
10052.00   0.22351123   0.02154335
10054.00   0.22770540   0.02235332
10056.00   0.22864304   0.02418658
10058.00   0.22773801   0.02635237
10060.00   0.23759595   0.02711003
10062.00   0.26775232   0.02716653
10064.00   0.26361951   0.02676631
10066.00   0.21995996   0.02483843
10068.00   0.19872686   0.02409696
10070.00   0.21009074   0.02512925
10072.00   0.23675640   0.02699325
10074.00   0.26921862   0.02894011
10076.00   0.32882023   0.03123608
10078.00   0.31670171   0.03353128
10080.00   0.24142975   0.03705869
10082.00   0.17207561   0.03831272
10084.00   0.07289112   0.03737398
10086.00   0.00751559   0.03527263
10088.00   0.05655754   0.03219651
10090.00   0.19481987   0.02718027
10092.00   0.25078151   0.02578983
10094.00   0.29036298   0.02867944
10096.00   0.28629318   0.02918557
10098.00   0.20842732   0.02785122
10100.00   0.14609556   0.02681562
10102.00   0.15397549   0.02757340
10104.00   0.19699523   0.02909493
10106.00   0.20346704   0.02873450
10108.00   0.20772259   0.02628524
10110.00   0.18035054   0.02545195
10112.00   0.08953958   0.02512864
10114.00   0.04483745   0.02570167
10116.00   0.09521464   0.02718201
10118.00   0.18082662   0.02938755
10120.00   0.19446661   0.03236528
10122.00   0.14728373   0.03702693
10124.00   0.16971061   0.03828950
10126.00   0.26119334   0.03743973
10128.00   0.30633041   0.03614466
10130.00   0.29434395   0.03406557
10132.00   0.25423291   0.03155059
10134.00   0.20108801   0.02948947
10136.00   0.11652220   0.02735770
10138.00   0.08515150   0.02646080
10140.00   0.09135790   0.02706861
10142.00   0.09885897   0.02744541
10144.00   0.12130809   0.02758789
10146.00   0.13886358   0.02808528
10148.00   0.13252036   0.02942951
10150.00   0.11108845   0.03131757
10152.00   0.09668044   0.03233150
10154.00   0.06359396   0.03342418
10156.00   0.07099246   0.03326529
10158.00   0.12365433   0.03085416
10160.00   0.17341521   0.02944914
10162.00   0.20672230   0.03067040
10164.00   0.23004945   0.03333424
10166.00   0.22085083   0.03656354
10168.00   0.14522280   0.04233573
10170.00   0.15313075   0.04372080
10172.00   0.23946592   0.04188377
10174.00   0.29339078   0.04031410
10176.00   0.28950539   0.03984674
10178.00   0.26258141   0.03946720
10180.00   0.24540266   0.03806607
10182.00   0.21470709   0.03510220
10184.00   0.22110938   0.03501640
10186.00   0.27640036   0.03785530
10188.00   0.29803476   0.03935211
10190.00   0.28055778   0.03975605
10192.00   0.24886452   0.03950999
10194.00   0.21450622   0.03834157
10196.00   0.16422370   0.03590230
10198.00   0.17661647   0.03587937
10200.00   0.28231195   0.03715024
10202.00   0.30267650   0.03943663
10204.00   0.23885360   0.04397722
10206.00   0.16548149   0.04717901
10208.00   0.11904785   0.04729710
10210.00   0.08019232   0.04554441
10212.00   0.06220337   0.04363455
10214.00   0.05767365   0.03935948
10216.00   0.07573733   0.03746698
10218.00   0.13982382   0.03737467
10220.00   0.18086714   0.03797103
10222.00   0.16830987   0.03931146
10224.00   0.13241808   0.04101804
10226.00   0.12500224   0.04142874
10228.00   0.12865362   0.04105326
10230.00   0.13490167   0.04051780
10232.00   0.14346790   0.03893968
10234.00   0.16252775   0.03823905
10236.00   0.20630574   0.03938614
10238.00   0.24765946   0.04058165
10240.00   0.23520532   0.03920037
10242.00   0.16027914   0.03500212
10244.00   0.20252679   0.03483608
10246.00   0.40526932   0.03894259
10248.00   0.46154201   0.04002507
10250.00   0.33442241   0.03751172
10252.00   0.18703979   0.03481506
10254.00   0.14683749   0.03540711
10256.00   0.15752719   0.03791446
10258.00   0.14964148   0.03831511
10260.00   0.14892495   0.03687556
10262.00   0.14779055   0.03723464
10264.00   0.13315439   0.03929096
10266.00   0.14215800   0.04118774
10268.00   0.21010336   0.04231316
10270.00   0.30894306   0.04308232
10272.00   0.32779372   0.04326927
10274.00   0.27519384   0.04054741
10276.00   0.25694981   0.04307477
10278.00   0.23661035   0.04832063
10280.00   0.23019409   0.05485765
10282.00   0.23201528   0.06411274
10284.00   0.25357234   0.07247345
10286.00   0.33936992   0.07367629
10288.00   0.54101473   0.06896947
10290.00   0.55031604   0.06678737
10292.00   0.37885088   0.06454293
10294.00   0.27211571   0.06215614
10296.00   0.23192924   0.05922965
10298.00   0.23273258   0.05651160
10300.00   0.28944305   0.05532267
10302.00   0.41843751   0.05560231
10304.00   0.44505695   0.05435063
10306.00   0.40452644   0.05126776
10308.00   0.36378226   0.05011525
10310.00   0.31051722   0.05161216
10312.00   0.24973804   0.05291038
10314.00   0.18397768   0.05203322
10316.00   0.11142045   0.04990575
10318.00   0.06283744   0.04892221
10320.00   0.00717636   0.04845831
10322.00   0.01149519   0.04796660
10324.00   0.10024790   0.04769046
10326.00   0.16716278   0.04735439
10328.00   0.16214365   0.04655323
10330.00   0.12632927   0.04571918
10332.00   0.12815794   0.04646053
10334.00   0.11811240   0.04899634
10336.00   0.18468387   0.05014298
10338.00   0.36059484   0.04994026
10340.00   0.47871330   0.05109422
10342.00   0.51965821   0.05514714
10344.00   0.50717139   0.05903796
10346.00   0.42883560   0.05848124
10348.00   0.24855429   0.05396396
10350.00   0.18064123   0.05208658
10352.00   0.16224211   0.05009611
10354.00   0.18001553   0.05034113
10356.00   0.27431330   0.05416209
10358.00   0.35982078   0.05783549
10360.00   0.33575508   0.05803476
10362.00   0.23488471   0.05594832
10364.00   0.20080893   0.05685361
10366.00   0.17373770   0.05778120
10368.00   0.19240974   0.06231394
10370.00   0.29497564   0.07306687
10372.00   0.36962280   0.07962500
10374.00   0.33644351   0.07677853
10376.00   0.24327922   0.06781946
10378.00   0.22273006   0.06462374
10380.00   0.23158498   0.06561773
10382.00   0.25794134   0.06345440
10384.00   0.32626364   0.05842020
10386.00   0.37926334   0.05444165
10388.00   0.41660553   0.05351070
10390.00   0.42845637   0.05410364
10392.00   0.34199986   0.05377124
10394.00   0.07649438   0.05298680
10396.00   0.07351968   0.05361167
10398.00   0.30047831   0.05553799
10400.00   0.46291974   0.05729959
10402.00   0.55342078   0.05921794
10404.00   0.59248596   0.06072527
10406.00   0.54087543   0.06026052
10408.00   0.37867483   0.05701954
10410.00   0.33697131   0.06014018
10412.00   0.41727799   0.07001921
10414.00   0.38784412   0.07430812
10416.00   0.19789453   0.07431176
10418.00   0.03014042   0.07244810
10420.00   0.03865294   0.06964892
10422.00   0.15773229   0.06511982
10424.00   0.21188170   0.06114832
10426.00   0.28034186   0.05596724
10428.00   0.29904890   0.05254510
10430.00   0.26106727   0.05107366
10432.00   0.21996050   0.05026448
10434.00   0.18476018   0.04941086
10436.00   0.15588523   0.04903708
10438.00   0.20822857   0.05002428
10440.00   0.37899882   0.05294127
10442.00   0.44890770   0.05447430
10444.00   0.47619733   0.05458526
10446.00   0.47888288   0.05623740
10448.00   0.44676590   0.06146860
10450.00   0.39909086   0.06654777
10452.00   0.38751704   0.06552189
10454.00   0.39865619   0.05856122
10456.00   0.40032724   0.05539514
10458.00   0.40417281   0.05252280
10460.00   0.40523720   0.05204675
10462.00   0.41570947   0.05566160
10464.00   0.41073558   0.05940863
10466.00   0.34779486   0.05925092
10468.00   0.22624980   0.05646463
10470.00   0.20637320   0.05605053
10472.00   0.29970479   0.05679101
10474.00   0.30621260   0.05746840
10476.00   0.21541493   0.05918191
10478.00   0.12988579   0.05974804
10480.00   0.11478496   0.05660722
10482.00   0.13660334   0.05056490
10484.00   0.14993738   0.05116539
10486.00   0.15349273   0.05909910
10488.00   0.20336697   0.06086094
10490.00   0.32039708   0.05872361
10492.00   0.41275278   0.05637871
10494.00   0.44765747   0.05497355
10496.00   0.44984940   0.05382229
10498.00   0.43610585   0.05335055
10500.00   0.39429089   0.05313555
10502.00   0.34651130   0.05425798
10504.00   0.25088280   0.05791160
10506.00   0.20761675   0.05949194
10508.00   0.26328802   0.05794076
10510.00   0.33658442   0.05521451
10512.00   0.29587385   0.05391752
10514.00   0.14467907   0.05294597
10516.00   0.15747091   0.05281757
10518.00   0.31844839   0.05374721
10520.00   0.41338557   0.05461283
10522.00   0.45932603   0.05584197
10524.00   0.46441197   0.05671828
10526.00   0.39933380   0.05632623
10528.00   0.26121309   0.05492755
10530.00   0.25370866   0.05444660
10532.00   0.37955591   0.05459935
10534.00   0.41330272   0.05428344
10536.00   0.37253901   0.05359595
10538.00   0.32339031   0.05281246
10540.00   0.29154351   0.05188180
10542.00   0.26346490   0.05087187
10544.00   0.26068255   0.05093212
10546.00   0.29058033   0.05243686
10548.00   0.30277541   0.05276132
10550.00   0.30992365   0.05227918
10552.00   0.31558913   0.05198207
10554.00   0.32760113   0.05230079
10556.00   0.33448052   0.05274047
10558.00   0.30419049   0.05242287
10560.00   0.22954229   0.05121930
10562.00   0.19254310   0.05105190
10564.00   0.13240157   0.05079853
10566.00   0.15314114   0.05203425
10568.00   0.32461774   0.05615381
10570.00   0.50321048   0.05983878
10572.00   0.48929927   0.05913024
10574.00   0.33147570   0.05476612
10576.00   0.27494919   0.05328089
10578.00   0.25235021   0.05303036
10580.00   0.22810569   0.05292479
10582.00   0.19788316   0.05328380
10584.00   0.18289700   0.05371471
10586.00   0.20575023   0.05388704
10588.00   0.25805378   0.05397323
10590.00   0.26796234   0.05376691
10592.00   0.23378347   0.05301046
10594.00   0.24062094   0.05275721
10596.00   0.28307188   0.05206525
10598.00   0.32516661   0.05275912
10600.00   0.35199779   0.05606954
10602.00   0.37369964   0.06057638
10604.00   0.39939177   0.06327818
10606.00   0.44909877   0.06703247
10608.00   0.44123751   0.06620967
10610.00   0.36457181   0.05923687
10612.00   0.31800589   0.05437788
10614.00   0.33627477   0.05534546
10616.00   0.36973855   0.05797814
10618.00   0.34242427   0.05668671
10620.00   0.25727466   0.05219525
10622.00   0.24595354   0.05109388
10624.00   0.29507658   0.05261555
10626.00   0.32243115   0.05331582
10628.00   0.31976780   0.05315147
10630.00   0.31620222   0.05275603
10632.00   0.34064516   0.05233398
10634.00   0.38770136   0.05161408
10636.00   0.38943845   0.05219720
10638.00   0.37595487   0.05460089
10640.00   0.32269788   0.05541896
10642.00   0.18255031   0.05497081
10644.00   0.07969148   0.05401287
10646.00   0.10907596   0.05277412
10648.00   0.21936859   0.05110169
10650.00   0.26541686   0.04989564
10652.00   0.29908031   0.04873773
10654.00   0.31629986   0.04803804
10656.00   0.31018931   0.04800807
10658.00   0.30183530   0.04786835
10660.00   0.29794204   0.04737056
10662.00   0.29340184   0.04669304
10664.00   0.28517792   0.04587547
10666.00   0.25933978   0.04459438
10668.00   0.27411422   0.04399345
10670.00   0.33657554   0.04398255
10672.00   0.37617841   0.04389359
10674.00   0.38165581   0.04368294
10676.00   0.37275946   0.04341659
10678.00   0.36718440   0.04308459
10680.00   0.36112404   0.04280504
10682.00   0.33448279   0.04190319
10684.00   0.26179618   0.03966940
10686.00   0.23992352   0.03877221
10688.00   0.28112131   0.03922895
10690.00   0.33463582   0.04051190
10692.00   0.36129656   0.04264260
10694.00   0.37912294   0.04567034
10696.00   0.39368510   0.04655170
10698.00   0.40247151   0.04627078
10700.00   0.40754810   0.04530056
10702.00   0.41357437   0.04293585
10704.00   0.40777925   0.04044041
10706.00   0.38001239   0.03856612
10708.00   0.33755082   0.03694186
10710.00   0.30554885   0.03554268
10712.00   0.26082122   0.03430904
10714.00   0.25115019   0.03363614
10716.00   0.28275105   0.03374313
10718.00   0.30140400   0.03383723
10720.00   0.28593102   0.03364922
10722.00   0.26176235   0.03348564
10724.00   0.26996076   0.03380084
10726.00   0.30462188   0.03469995
10728.00   0.32218048   0.03491307
10730.00   0.33250892   0.03495951
10732.00   0.34589535   0.03448508
10734.00   0.36287576   0.03307102
10736.00   0.38163483   0.03147660
10738.00   0.40609184   0.03087456
10740.00   0.44409057   0.03093603
10742.00   0.42650262   0.03081485
10744.00   0.34383449   0.03116442
10746.00   0.29496741   0.03081172
10748.00   0.26539311   0.02945234
10750.00   0.25541472   0.02809029
10752.00   0.27840510   0.02767818
10754.00   0.32949251   0.02783040
10756.00   0.33798289   0.02714737
10758.00   0.29909459   0.02458813
10760.00   0.30764589   0.02497343
10762.00   0.36929461   0.02878473
10764.00   0.41123793   0.03129143
10766.00   0.40038288   0.03121967
10768.00   0.36210462   0.02980552
10770.00   0.33359537   0.02820434
10772.00   0.27956727   0.02455117
10774.00   0.27752098   0.02335332
10776.00   0.33548623   0.02476928
10778.00   0.36598071   0.02525469
10780.00   0.34634310   0.02398025
10782.00   0.30946958   0.02208446
10784.00   0.29332605   0.02116788
10786.00   0.28207099   0.02077746
10788.00   0.27883515   0.02038584
10790.00   0.28289700   0.02025268
10792.00   0.29348359   0.02014259
10794.00   0.31930691   0.01983743
10796.00   0.34173688   0.01984892
10798.00   0.34180406   0.02089614
10800.00   0.32904255   0.02277090
10802.00   0.29367992   0.02314440
10804.00   0.20499329   0.02280417
10806.00   0.17042701   0.02188871
10808.00   0.19389911   0.01964372
10810.00   0.21837617   0.01741070
10812.00   0.20767181   0.01643470
10814.00   0.18228795   0.01628367
10816.00   0.18783189   0.01636280
10818.00   0.23547764   0.01677190
10820.00   0.23481129   0.01784310
