# File created by shivutils (I.Shivvers)
# 
# wl(A)   flm    er(optional)
3440.00   0.99663925   0.04211347
3442.00   1.02035940   0.04298057
3444.00   1.08142424   0.04375530
3446.00   1.03948307   0.04415843
3448.00   1.00887072   0.04470653
3450.00   1.13763690   0.04712187
3452.00   1.09078753   0.04641961
3454.00   1.13278902   0.04730552
3456.00   1.11237109   0.04655184
3458.00   1.12709379   0.04621162
3460.00   1.16651189   0.04648151
3462.00   1.16989696   0.04680550
3464.00   1.21945298   0.04710060
3466.00   1.11178374   0.04622503
3468.00   1.14444518   0.04651541
3470.00   1.14399874   0.04624806
3472.00   1.13642061   0.04571458
3474.00   1.15858555   0.04572592
3476.00   1.16611528   0.04646515
3478.00   1.10701752   0.04741689
3480.00   1.10840762   0.04759468
3482.00   1.11042190   0.04728930
3484.00   1.09299755   0.04702041
3486.00   1.13220584   0.04733801
3488.00   1.11863542   0.04603708
3490.00   1.20640719   0.04700979
3492.00   1.16758013   0.04618976
3494.00   1.20204926   0.04625816
3496.00   1.13517129   0.04528189
3498.00   1.23118043   0.04652251
3500.00   1.09388947   0.04546495
3502.00   1.14053404   0.04610949
3504.00   1.17991638   0.04615359
3506.00   1.18773139   0.04606878
3508.00   1.24566019   0.04668882
3510.00   1.22043729   0.04612684
3512.00   1.17778349   0.04503021
3514.00   1.21711946   0.04555063
3516.00   1.25030398   0.04650283
3518.00   1.23411846   0.04585866
3520.00   1.22252679   0.04505570
3522.00   1.20841253   0.04453977
3524.00   1.15905654   0.04330027
3526.00   1.30311346   0.04482377
3528.00   1.23809552   0.04459048
3530.00   1.30834484   0.04531660
3532.00   1.20682490   0.04421438
3534.00   1.25673652   0.04466606
3536.00   1.35469007   0.04569862
3538.00   1.25404441   0.04512727
3540.00   1.23807812   0.04544409
3542.00   1.24219334   0.04588363
3544.00   1.32282770   0.04700153
3546.00   1.32389498   0.04581220
3548.00   1.27390194   0.04491423
3550.00   1.32457292   0.04536681
3552.00   1.26042295   0.04439832
3554.00   1.25610888   0.04373538
3556.00   1.29384720   0.04426556
3558.00   1.30410051   0.04388539
3560.00   1.27351570   0.04274730
3562.00   1.24619365   0.04203390
3564.00   1.28086400   0.04179010
3566.00   1.30519712   0.04178782
3568.00   1.25773287   0.04079640
3570.00   1.26414108   0.04092069
3572.00   1.38127530   0.04208673
3574.00   1.33707511   0.04133731
3576.00   1.30733466   0.04071829
3578.00   1.43472993   0.04118646
3580.00   1.36781621   0.03991048
3582.00   1.25651681   0.03982917
3584.00   1.30548370   0.03824379
3586.00   1.39554715   0.03923996
3588.00   1.32577527   0.03936528
3590.00   1.36094832   0.03965591
3592.00   1.40054297   0.03946536
3594.00   1.32266462   0.03885967
3596.00   1.25647068   0.03793424
3598.00   1.31303656   0.03847484
3600.00   1.39619446   0.03897635
3602.00   1.40934718   0.03832612
3604.00   1.36572313   0.03778064
3606.00   1.35191238   0.03710382
3608.00   1.42396355   0.03748565
3610.00   1.44477153   0.03814707
3612.00   1.40964544   0.03867745
3614.00   1.46543169   0.03917636
3616.00   1.50327241   0.03842675
3618.00   1.52130163   0.03802392
3620.00   1.42719889   0.03706005
3622.00   1.47353244   0.03764469
3624.00   1.52433515   0.03822455
3626.00   1.61982071   0.03908160
3628.00   1.55182540   0.03862360
3630.00   1.55897629   0.03874870
3632.00   1.58408141   0.03811593
3634.00   1.54246938   0.03772075
3636.00   1.58869743   0.03817513
3638.00   1.60769296   0.03817605
3640.00   1.61399353   0.03873748
3642.00   1.60200155   0.03902059
3644.00   1.64390552   0.03896698
3646.00   1.56380594   0.04048987
3648.00   1.60563195   0.04667146
3650.00   1.57265258   0.04711525
3652.00   1.54340017   0.04370651
3654.00   1.57516778   0.04237723
3656.00   1.65825915   0.04012976
3658.00   1.65414429   0.03843169
3660.00   1.71554112   0.04022036
3662.00   1.76003253   0.04180314
3664.00   1.74577463   0.03943258
3666.00   1.74186409   0.03721064
3668.00   1.70331728   0.03622644
3670.00   1.68668044   0.03588702
3672.00   1.73913848   0.03598242
3674.00   1.69999683   0.03560417
3676.00   1.61224926   0.03572664
3678.00   1.68132389   0.03506373
3680.00   1.66136777   0.03430288
3682.00   1.68072355   0.03449962
3684.00   1.70427358   0.03426894
3686.00   1.73091018   0.03408687
3688.00   1.72117519   0.03420127
3690.00   1.71125031   0.03442186
3692.00   1.72689581   0.03447631
3694.00   1.72521591   0.03406236
3696.00   1.68887770   0.03391219
3698.00   1.71116805   0.03421983
3700.00   1.68845022   0.03400654
3702.00   1.63474023   0.03337762
3704.00   1.63051844   0.03272789
3706.00   1.60293758   0.03236470
3708.00   1.69234014   0.03281603
3710.00   1.61918879   0.03236863
3712.00   1.60948014   0.03231635
3714.00   1.65527737   0.03262802
3716.00   1.60220265   0.03192263
3718.00   1.58404756   0.03127942
3720.00   1.59833848   0.03122790
3722.00   1.63059604   0.03139655
3724.00   1.56909037   0.03112036
3726.00   1.62896562   0.03161843
3728.00   1.56417954   0.03100687
3730.00   1.55898368   0.03087809
3732.00   1.58634889   0.03070565
3734.00   1.54109430   0.03003967
3736.00   1.52786887   0.03008164
3738.00   1.58859539   0.03110766
3740.00   1.58247626   0.03115541
3742.00   1.58453548   0.03074044
3744.00   1.57825351   0.03016685
3746.00   1.63509607   0.03013775
3748.00   1.60959339   0.02992292
3750.00   1.61044967   0.03016001
3752.00   1.58129895   0.03035151
3754.00   1.61004782   0.03048183
3756.00   1.67192984   0.03055301
3758.00   1.60996127   0.02983723
3760.00   1.65907836   0.03027390
3762.00   1.71892345   0.03047970
3764.00   1.64051569   0.02991791
3766.00   1.63367105   0.02966725
3768.00   1.65746200   0.02982777
3770.00   1.65102518   0.03013243
3772.00   1.65098405   0.03013811
3774.00   1.61052930   0.02993875
3776.00   1.59995186   0.02967114
3778.00   1.64873004   0.03005521
3780.00   1.68332553   0.03023464
3782.00   1.61974752   0.02996704
3784.00   1.59765589   0.02962588
3786.00   1.61040914   0.02915819
3788.00   1.62095642   0.02934521
3790.00   1.57452130   0.02925668
3792.00   1.54707587   0.02883889
3794.00   1.52154589   0.02841753
3796.00   1.51741600   0.02809405
3798.00   1.52676129   0.02807529
3800.00   1.49602878   0.02817525
3802.00   1.43846202   0.02809226
3804.00   1.38789201   0.02754798
3806.00   1.29067349   0.02672026
3808.00   1.30294907   0.02679756
3810.00   1.24462914   0.02638830
3812.00   1.25291467   0.02617628
3814.00   1.18189156   0.02546480
3816.00   1.13596976   0.02503095
3818.00   1.17738926   0.02518835
3820.00   1.11952710   0.02453543
3822.00   1.04033601   0.02397718
3824.00   1.03908598   0.02368416
3826.00   1.11814940   0.02433403
3828.00   1.06725895   0.02435013
3830.00   1.05668581   0.02420456
3832.00   1.01201952   0.02347269
3834.00   0.95969802   0.02294268
3836.00   0.93308115   0.02259753
3838.00   0.94260687   0.02253091
3840.00   0.95854640   0.02274916
3842.00   1.00189734   0.02330077
3844.00   1.05496109   0.02358712
3846.00   1.06535769   0.02356657
3848.00   1.00439239   0.02286731
3850.00   0.97571367   0.02243201
3852.00   1.04981124   0.02309146
3854.00   1.46900690   0.02573430
3856.00   2.00499225   0.02885951
3858.00   2.17353773   0.03015642
3860.00   1.76299262   0.02748512
3862.00   1.13790035   0.02475421
3864.00   0.93614322   0.02187594
3866.00   0.92311233   0.02167922
3868.00   0.95654565   0.02166589
3870.00   1.00366652   0.02188502
3872.00   1.03677309   0.02261947
3874.00   0.98457146   0.02272822
3876.00   0.94059825   0.02177206
3878.00   0.91991162   0.02131740
3880.00   0.90383643   0.02102300
3882.00   0.94180322   0.02108939
3884.00   0.99875265   0.02174003
3886.00   1.04091442   0.02189642
3888.00   0.99694914   0.02152529
3890.00   1.03050709   0.02201962
3892.00   1.01419079   0.02206476
3894.00   1.07745790   0.02259171
3896.00   1.05754781   0.02262535
3898.00   0.94997805   0.02188010
3900.00   0.97732121   0.02200417
3902.00   0.94997346   0.02191750
3904.00   1.01130641   0.02295494
3906.00   1.05276608   0.02456956
3908.00   1.06251061   0.02513926
3910.00   1.11438537   0.02563855
3912.00   1.14795649   0.02571198
3914.00   1.18937278   0.02482760
3916.00   1.13799703   0.02374893
3918.00   1.15891933   0.02341741
3920.00   1.12462711   0.02264347
3922.00   1.07696307   0.02222130
3924.00   1.07478034   0.02211720
3926.00   1.04680848   0.02147956
3928.00   1.01412439   0.02086425
3930.00   0.99860722   0.02078523
3932.00   0.95862889   0.02080609
3934.00   1.05640662   0.02127143
3936.00   1.14447331   0.02146169
3938.00   1.20117569   0.02210758
3940.00   1.21130490   0.02257344
3942.00   1.24957931   0.02322048
3944.00   1.25820804   0.02357397
3946.00   1.25252020   0.02324418
3948.00   1.27403021   0.02308663
3950.00   1.31375837   0.02329006
3952.00   1.34095550   0.02335920
3954.00   1.32416070   0.02310786
3956.00   1.31251502   0.02297136
3958.00   1.34491682   0.02331573
3960.00   1.33319318   0.02361005
3962.00   1.30479562   0.02286150
3964.00   1.29432285   0.02194319
3966.00   1.26907277   0.02142650
3968.00   1.25244784   0.02113016
3970.00   1.30918503   0.02170353
3972.00   1.28085518   0.02190179
3974.00   1.36419570   0.02257528
3976.00   1.42954981   0.02306613
3978.00   1.53490520   0.02381187
3980.00   1.59506059   0.02419953
3982.00   1.65907216   0.02444905
3984.00   1.70165980   0.02453676
3986.00   1.75793767   0.02500077
3988.00   1.76068377   0.02512411
3990.00   1.77948833   0.02512359
3992.00   1.81672680   0.02534177
3994.00   1.85107672   0.02578989
3996.00   1.88773286   0.02622266
3998.00   1.90403330   0.02594831
4000.00   1.91689754   0.02574823
4002.00   2.01246786   0.02608864
4004.00   2.13278699   0.02640432
4006.00   2.03046632   0.02610032
4008.00   1.97920275   0.02605849
4010.00   1.95550084   0.02601866
4012.00   2.01867366   0.02614655
4014.00   2.01206946   0.02595028
4016.00   1.97812617   0.02593630
4018.00   1.93834925   0.02677734
4020.00   1.87143195   0.02736596
4022.00   1.88232112   0.02743768
4024.00   1.94093895   0.02721667
4026.00   1.99085617   0.02655423
4028.00   1.93672383   0.02590077
4030.00   1.95954704   0.02586879
4032.00   1.99708366   0.02574345
4034.00   2.03932357   0.02587678
4036.00   2.02133965   0.02578270
4038.00   2.11174655   0.02616659
4040.00   2.08007884   0.02599111
4042.00   2.12937927   0.02704228
4044.00   2.19897652   0.03373770
4046.00   2.19610953   0.03749874
4048.00   2.16831374   0.03210127
4050.00   2.16101313   0.02719399
4052.00   2.23758459   0.02711116
4054.00   2.16749644   0.02685626
4056.00   2.17355680   0.02633844
4058.00   2.21000338   0.02610247
4060.00   2.21762609   0.02595627
4062.00   2.18416190   0.02567185
4064.00   2.16428256   0.02559667
4066.00   2.09706521   0.02534802
4068.00   1.99206412   0.02474718
4070.00   1.82271147   0.02377850
4072.00   1.96725512   0.02431213
4074.00   2.08440471   0.02528757
4076.00   2.13711548   0.02679208
4078.00   2.16661024   0.02694141
4080.00   2.10778570   0.02606466
4082.00   2.10597754   0.02587548
4084.00   2.14751267   0.02570289
4086.00   2.07968163   0.02534212
4088.00   2.04954195   0.02479319
4090.00   2.06047297   0.02438518
4092.00   2.03514171   0.02420842
4094.00   1.93384194   0.02367492
4096.00   1.92380762   0.02348480
4098.00   1.94993877   0.02356594
4100.00   1.86332011   0.02282180
4102.00   1.72700512   0.02199393
4104.00   1.64775920   0.02173798
4106.00   1.60855365   0.02177389
4108.00   1.71303010   0.02219325
4110.00   1.70247722   0.02205228
4112.00   1.67399323   0.02203231
4114.00   1.71539307   0.02224733
4116.00   1.72345889   0.02222317
4118.00   1.78079700   0.02219342
4120.00   1.77271223   0.02214252
4122.00   1.76110017   0.02209694
4124.00   1.83538258   0.02245857
4126.00   1.82265890   0.02238369
4128.00   1.87570298   0.02254748
4130.00   1.85431314   0.02265159
4132.00   1.86059964   0.02287191
4134.00   1.87297595   0.02277418
4136.00   1.88029039   0.02264222
4138.00   1.87627828   0.02289243
4140.00   1.87090480   0.02291979
4142.00   1.87262404   0.02240089
4144.00   1.87169540   0.02210956
4146.00   1.92249441   0.02240770
4148.00   1.90144897   0.02238961
4150.00   1.92205775   0.02279402
4152.00   1.94598234   0.02308840
4154.00   1.93851674   0.02271126
4156.00   1.95362747   0.02255142
4158.00   1.99485314   0.02270705
4160.00   1.95332706   0.02263661
4162.00   1.96099949   0.02299673
4164.00   1.97744679   0.02358017
4166.00   2.01199675   0.02338100
4168.00   2.04265523   0.02292137
4170.00   2.05375886   0.02287541
4172.00   2.05761051   0.02259767
4174.00   2.06631947   0.02254505
4176.00   2.09940934   0.02279286
4178.00   2.15924025   0.02312172
4180.00   2.16462755   0.02298023
4182.00   2.12434649   0.02263825
4184.00   2.11772180   0.02261712
4186.00   2.07806325   0.02243088
4188.00   2.09702539   0.02239119
4190.00   2.13483334   0.02260797
4192.00   2.17206287   0.02285218
4194.00   2.11664891   0.02250433
4196.00   2.13016343   0.02232080
4198.00   2.11605930   0.02219500
4200.00   2.14950776   0.02232372
4202.00   2.14707303   0.02233379
4204.00   2.18403697   0.02258850
4206.00   2.14340377   0.02250525
4208.00   2.17045474   0.02269593
4210.00   2.21671081   0.02290528
4212.00   2.24683094   0.02299486
4214.00   2.19950414   0.02255660
4216.00   2.22764254   0.02263548
4218.00   2.16880703   0.02240048
4220.00   2.16075850   0.02235304
4222.00   2.17730689   0.02227529
4224.00   2.20489693   0.02219694
4226.00   2.18519497   0.02199602
4228.00   2.19478011   0.02217311
4230.00   2.13583732   0.02216019
4232.00   2.16733313   0.02232001
4234.00   2.10719895   0.02199605
4236.00   2.08815384   0.02194224
4238.00   2.06021023   0.02189440
4240.00   2.00281262   0.02133818
4242.00   2.00427675   0.02124998
4244.00   2.12155390   0.02249055
4246.00   2.12642956   0.02327362
4248.00   2.01620269   0.02207678
4250.00   1.97556090   0.02109552
4252.00   2.05607414   0.02129824
4254.00   2.06794739   0.02139082
4256.00   2.05652404   0.02140083
4258.00   2.06538296   0.02128880
4260.00   2.02987695   0.02093255
4262.00   2.06526875   0.02115672
4264.00   2.04924655   0.02108266
4266.00   2.03612280   0.02098154
4268.00   2.03843832   0.02093709
4270.00   2.03366041   0.02080033
4272.00   2.05821705   0.02084258
4274.00   2.04243946   0.02084503
4276.00   2.00562978   0.02088131
4278.00   1.97918832   0.02080088
4280.00   2.03887320   0.02095827
4282.00   2.08423901   0.02119108
4284.00   2.06038642   0.02097321
4286.00   2.05458522   0.02081107
4288.00   2.01755619   0.02063023
4290.00   2.02824473   0.02061932
4292.00   2.03475499   0.02078972
4294.00   2.03369045   0.02076928
4296.00   2.01877284   0.02063699
4298.00   1.97245741   0.02029406
4300.00   1.99248743   0.02024533
4302.00   1.98753154   0.02018285
4304.00   2.02622318   0.02044998
4306.00   2.03129029   0.02054866
4308.00   2.02529716   0.02043372
4310.00   2.03886199   0.02064147
4312.00   2.03109384   0.02135022
4314.00   1.99657857   0.02151923
4316.00   2.01237679   0.02114525
4318.00   1.92892134   0.02093985
4320.00   1.95692182   0.02126962
4322.00   1.93514180   0.02089015
4324.00   1.92197800   0.02060322
4326.00   1.91774535   0.02050002
4328.00   1.95651186   0.02044716
4330.00   1.97107399   0.02047963
4332.00   1.89534974   0.02022207
4334.00   1.91754127   0.02030623
4336.00   1.92719889   0.02036161
4338.00   1.91776836   0.02029257
4340.00   1.91976070   0.02021763
4342.00   1.86790824   0.02009462
4344.00   1.80903053   0.02020908
4346.00   1.81720078   0.02069581
4348.00   1.78226757   0.02065040
4350.00   1.79943585   0.02022734
4352.00   1.80508614   0.02006196
4354.00   1.86120665   0.02253919
4356.00   1.93774843   0.03130605
4358.00   1.83706892   0.03550347
4360.00   1.70926034   0.02837027
4362.00   1.77283299   0.02190377
4364.00   1.74203289   0.02059444
4366.00   1.76680815   0.02034014
4368.00   1.78646314   0.02022529
4370.00   1.71795917   0.01990254
4372.00   1.68565261   0.02005765
4374.00   1.65287101   0.02005576
4376.00   1.67686081   0.01983560
4378.00   1.73819363   0.01970788
4380.00   1.73297608   0.01956963
4382.00   1.66991925   0.01911207
4384.00   1.67316961   0.01895385
4386.00   1.61274922   0.01881669
4388.00   1.64664042   0.01900692
4390.00   1.68172443   0.01920975
4392.00   1.67348528   0.01914808
4394.00   1.64028275   0.01892806
4396.00   1.66468799   0.01903592
4398.00   1.61869812   0.01919405
4400.00   1.61086810   0.01934671
4402.00   1.58274150   0.01895435
4404.00   1.58235264   0.01864873
4406.00   1.59597147   0.01873935
4408.00   1.57537818   0.01878274
4410.00   1.55666983   0.01873873
4412.00   1.62437844   0.01905758
4414.00   1.59333563   0.01912368
4416.00   1.56792688   0.01900634
4418.00   1.54199398   0.01867374
4420.00   1.45871639   0.01829637
4422.00   1.45537627   0.01822533
4424.00   1.46948969   0.01823717
4426.00   1.42488873   0.01807765
4428.00   1.44315636   0.01809205
4430.00   1.42417407   0.01805560
4432.00   1.43567479   0.01804296
4434.00   1.43353927   0.01794020
4436.00   1.41040719   0.01784846
4438.00   1.37762046   0.01782900
4440.00   1.32028770   0.01748367
4442.00   1.36486697   0.01760338
4444.00   1.39231062   0.01776152
4446.00   1.36924124   0.01764665
4448.00   1.34083259   0.01749178
4450.00   1.34215844   0.01748561
4452.00   1.31092894   0.01729150
4454.00   1.33424127   0.01732473
4456.00   1.36165118   0.01739155
4458.00   1.34876072   0.01732201
4460.00   1.35341251   0.01734284
4462.00   1.41530514   0.01759254
4464.00   1.41296721   0.01762736
4466.00   1.43053365   0.01768800
4468.00   1.46904778   0.01778367
4470.00   1.48597205   0.01782105
4472.00   1.45988572   0.01779759
4474.00   1.42134607   0.01766173
4476.00   1.41606760   0.01762068
4478.00   1.41384244   0.01756009
4480.00   1.44421673   0.01762862
4482.00   1.45991182   0.01768962
4484.00   1.42604053   0.01762765
4486.00   1.42877817   0.01766133
4488.00   1.41241562   0.01755022
4490.00   1.57628238   0.01817169
4492.00   1.72514808   0.01883262
4494.00   1.63134396   0.01846285
4496.00   1.44132459   0.01768018
4498.00   1.40147281   0.01762633
4500.00   1.45834053   0.01777999
4502.00   1.45284021   0.01765363
4504.00   1.41889620   0.01759478
4506.00   1.48084164   0.01777956
4508.00   1.48917973   0.01774274
4510.00   1.51045012   0.01777281
4512.00   1.54962945   0.01792729
4514.00   1.55727899   0.01786456
4516.00   1.55554020   0.01779004
4518.00   1.56543601   0.01786407
4520.00   1.54122663   0.01778916
4522.00   1.56673229   0.01781827
4524.00   1.55995429   0.01769776
4526.00   1.58011782   0.01765953
4528.00   1.56608963   0.01761787
4530.00   1.58740342   0.01772498
4532.00   1.60911858   0.01782267
4534.00   1.66253543   0.01800319
4536.00   1.55085480   0.01756987
4538.00   1.51757467   0.01742271
4540.00   1.51297212   0.01742508
4542.00   1.54266119   0.01765088
4544.00   1.55371678   0.01771480
4546.00   1.61230946   0.01780939
4548.00   1.59620464   0.01761971
4550.00   1.58653164   0.01751369
4552.00   1.60544908   0.01755996
4554.00   1.59628367   0.01755384
4556.00   1.56610703   0.01746228
4558.00   1.53773773   0.01740466
4560.00   1.54881668   0.01735000
4562.00   1.54039073   0.01724641
4564.00   1.54785645   0.01722781
4566.00   1.58919811   0.01733164
4568.00   1.57757688   0.01731369
4570.00   1.53187239   0.01709956
4572.00   1.51618481   0.01713471
4574.00   1.54774284   0.01726348
4576.00   1.52360511   0.01714340
4578.00   1.55823600   0.01720080
4580.00   1.56050825   0.01708968
4582.00   1.54105079   0.01692747
4584.00   1.56002176   0.01693905
4586.00   1.53179121   0.01691312
4588.00   1.56473732   0.01709248
4590.00   1.53413200   0.01692399
4592.00   1.56424570   0.01750603
4594.00   1.58666778   0.01747345
4596.00   1.55389285   0.01699603
4598.00   1.57172203   0.01698196
4600.00   1.61769187   0.01702275
4602.00   1.64140856   0.01715649
4604.00   1.64954591   0.01721463
4606.00   1.64925969   0.01724700
4608.00   1.68735492   0.01745705
4610.00   1.65586603   0.01729965
4612.00   1.61510277   0.01707272
4614.00   1.64858687   0.01711916
4616.00   1.67944491   0.01716519
4618.00   1.69625115   0.01725931
4620.00   1.70200348   0.01724868
4622.00   1.72386158   0.01734049
4624.00   1.71492279   0.01732371
4626.00   1.73452044   0.01738014
4628.00   1.71371460   0.01733671
4630.00   1.78390694   0.01750918
4632.00   1.78710949   0.01754723
4634.00   1.78102458   0.01748811
4636.00   1.74572277   0.01730650
4638.00   1.73874664   0.01730634
4640.00   1.75573373   0.01734212
4642.00   1.79979455   0.01747447
4644.00   1.81742823   0.01749426
4646.00   1.79690921   0.01742481
4648.00   1.80632579   0.01746321
4650.00   1.80596983   0.01750426
4652.00   1.77289081   0.01743272
4654.00   1.81393123   0.01755896
4656.00   1.82267082   0.01763181
4658.00   1.84192502   0.01776890
4660.00   1.83639359   0.01787248
4662.00   1.89681387   0.01806800
4664.00   1.90800357   0.01819340
4666.00   1.86410487   0.01811067
4668.00   1.86687601   0.01821668
4670.00   1.87101722   0.01833753
4672.00   1.85468411   0.01814384
4674.00   1.85103214   0.01806316
4676.00   1.88744247   0.01803357
4678.00   1.83149517   0.01773834
4680.00   1.84977174   0.01769910
4682.00   1.86044586   0.01771476
4684.00   1.82903540   0.01754102
4686.00   1.81173635   0.01744375
4688.00   1.81604052   0.01738351
4690.00   1.78609920   0.01726212
4692.00   1.78674316   0.01725382
4694.00   1.76029980   0.01717341
4696.00   1.76812661   0.01714900
4698.00   1.80132580   0.01715518
4700.00   1.82776892   0.01720941
4702.00   1.80400646   0.01714849
4704.00   1.81049848   0.01723607
4706.00   1.81772029   0.01727506
4708.00   1.74092603   0.01712146
4710.00   1.78392935   0.01727553
4712.00   1.75001895   0.01712667
4714.00   1.79678202   0.01721818
4716.00   1.79522407   0.01716964
4718.00   1.81848705   0.01721549
4720.00   1.79325616   0.01715254
4722.00   1.80338132   0.01721074
4724.00   1.81305957   0.01721870
4726.00   1.80872023   0.01731871
4728.00   1.83182085   0.01777130
4730.00   1.84125471   0.01781625
4732.00   1.82444263   0.01769015
4734.00   1.83103848   0.01787491
4736.00   1.82395279   0.01795705
4738.00   1.83047903   0.01810109
4740.00   1.81139410   0.01824599
4742.00   1.80150390   0.01845401
4744.00   1.78062165   0.01818433
4746.00   1.81057155   0.01763697
4748.00   1.78797579   0.01718125
4750.00   1.79032874   0.01721175
4752.00   1.83951616   0.01753769
4754.00   1.80876470   0.01732594
4756.00   1.80703688   0.01705358
4758.00   1.85307956   0.01707624
4760.00   1.79810572   0.01681694
4762.00   1.81227505   0.01678912
4764.00   1.79844797   0.01671689
4766.00   1.76965749   0.01657647
4768.00   1.83266711   0.01675382
4770.00   1.81124425   0.01668749
4772.00   1.80321527   0.01664992
4774.00   1.81057155   0.01667816
4776.00   1.76452649   0.01663776
4778.00   1.74459171   0.01679145
4780.00   1.71259379   0.01667006
4782.00   1.77255666   0.01662903
4784.00   1.77990353   0.01651645
4786.00   1.76429701   0.01643717
4788.00   1.74018300   0.01635711
4790.00   1.72995734   0.01635561
4792.00   1.71695566   0.01631282
4794.00   1.72667027   0.01630093
4796.00   1.66407549   0.01602340
4798.00   1.65203106   0.01593047
4800.00   1.67942834   0.01598512
4802.00   1.62428272   0.01574016
4804.00   1.61059189   0.01575767
4806.00   1.62987041   0.01582875
4808.00   1.56309938   0.01558070
4810.00   1.55209792   0.01556967
4812.00   1.56630266   0.01557942
4814.00   1.58628774   0.01565514
4816.00   1.57333887   0.01559793
4818.00   1.56825137   0.01559493
4820.00   1.57678640   0.01567025
4822.00   1.60047042   0.01576680
4824.00   1.57726979   0.01567853
4826.00   1.56733572   0.01568415
4828.00   1.53470075   0.01554324
4830.00   1.49803305   0.01537215
4832.00   1.50582552   0.01547384
4834.00   1.54246569   0.01556278
4836.00   1.54660010   0.01552531
4838.00   1.53933978   0.01566227
4840.00   1.57024491   0.01583104
4842.00   1.55905533   0.01564817
4844.00   1.54998970   0.01551105
4846.00   1.56831825   0.01566882
4848.00   1.58470500   0.01570919
4850.00   1.58851814   0.01566551
4852.00   1.57596397   0.01562976
4854.00   1.56221640   0.01544844
4856.00   1.53464496   0.01521723
4858.00   1.55174875   0.01525466
4860.00   1.56506097   0.01521855
4862.00   1.53583717   0.01515192
4864.00   1.53530049   0.01526212
4866.00   1.51195323   0.01521322
4868.00   1.51598656   0.01517597
4870.00   1.50175059   0.01511690
4872.00   1.52465296   0.01515996
4874.00   1.51932681   0.01517846
4876.00   1.48953724   0.01512577
4878.00   1.49176931   0.01519735
4880.00   1.50260687   0.01524971
4882.00   1.51413095   0.01523814
4884.00   1.48310435   0.01503357
4886.00   1.48328125   0.01493654
4888.00   1.48581862   0.01488127
4890.00   1.46667409   0.01478678
4892.00   1.42890596   0.01472465
4894.00   1.41897631   0.01474531
4896.00   1.40611351   0.01472673
4898.00   1.39005482   0.01458979
4900.00   1.40248001   0.01458245
4902.00   1.40699100   0.01459536
4904.00   1.42887437   0.01467346
4906.00   1.37887359   0.01451164
4908.00   1.40042758   0.01464379
4910.00   1.43592358   0.01476893
4912.00   1.38405323   0.01452255
4914.00   1.40939593   0.01464073
4916.00   1.41375637   0.01469508
4918.00   1.42950952   0.01464090
4920.00   1.38093555   0.01440628
4922.00   1.36761093   0.01438098
4924.00   1.36965203   0.01436287
4926.00   1.38422060   0.01437091
4928.00   1.41038644   0.01447041
4930.00   1.38228846   0.01436045
4932.00   1.37779140   0.01430745
4934.00   1.35774636   0.01423391
4936.00   1.42443538   0.01452989
4938.00   1.40522194   0.01444387
4940.00   1.44568670   0.01462630
4942.00   1.40726519   0.01451489
4944.00   1.45536661   0.01463721
4946.00   1.45055532   0.01457086
4948.00   1.43378568   0.01448694
4950.00   1.43927610   0.01454197
4952.00   1.43417847   0.01465255
4954.00   1.42206657   0.01471464
4956.00   1.43816960   0.01460521
4958.00   1.43180370   0.01448006
4960.00   1.43876088   0.01454452
4962.00   1.44706202   0.01464038
4964.00   1.45134091   0.01469180
4966.00   1.45345724   0.01475211
4968.00   1.43696201   0.01472054
4970.00   1.40321755   0.01470956
4972.00   1.42359054   0.01501026
4974.00   1.37454069   0.01506049
4976.00   1.38149738   0.01528972
4978.00   1.38514614   0.01562971
4980.00   1.35457587   0.01592037
4982.00   1.36035466   0.01611872
4984.00   1.36832809   0.01614445
4986.00   1.36020446   0.01586130
4988.00   1.33250570   0.01547544
4990.00   1.34040511   0.01523139
4992.00   1.33290601   0.01499082
4994.00   1.30923104   0.01466706
4996.00   1.27119923   0.01430541
4998.00   1.25970173   0.01411786
5000.00   1.23774958   0.01388449
5002.00   1.23967755   0.01382879
5004.00   1.23664868   0.01372715
5006.00   1.23212171   0.01367327
5008.00   1.21980369   0.01359713
5010.00   1.18942964   0.01345380
5012.00   1.18389964   0.01337517
5014.00   1.22215223   0.01347554
5016.00   1.16716933   0.01335783
5018.00   1.16726470   0.01342501
5020.00   1.16237903   0.01349685
5022.00   1.16381502   0.01343335
5024.00   1.13336623   0.01321700
5026.00   1.14460921   0.01318540
5028.00   1.25108397   0.01370571
5030.00   1.73378885   0.01562666
5032.00   1.97995746   0.01645881
5034.00   1.75050104   0.01557838
5036.00   1.37339330   0.01413645
5038.00   1.21624839   0.01348833
5040.00   1.13817394   0.01310144
5042.00   1.13407445   0.01311763
5044.00   1.15629661   0.01329995
5046.00   1.16247082   0.01337665
5048.00   1.20627809   0.01352036
5050.00   1.23986793   0.01363924
5052.00   1.24082792   0.01364538
5054.00   1.24595308   0.01368550
5056.00   1.26280570   0.01373122
5058.00   1.24862230   0.01373229
5060.00   1.24079621   0.01373790
5062.00   1.26710570   0.01394621
5064.00   1.24906743   0.01408295
5066.00   1.28059232   0.01422684
5068.00   1.32043052   0.01452738
5070.00   1.31680655   0.01475152
5072.00   1.32435644   0.01454916
5074.00   1.31379771   0.01436824
5076.00   1.34649789   0.01443302
5078.00   1.33947933   0.01441984
5080.00   1.35437596   0.01500581
5082.00   1.29325545   0.01567655
5084.00   1.30481076   0.01623541
5086.00   1.31533825   0.01634562
5088.00   1.30545688   0.01577469
5090.00   1.31114614   0.01508917
5092.00   1.28722620   0.01448795
5094.00   1.28882039   0.01430089
5096.00   1.30722296   0.01452818
5098.00   1.30118144   0.01476873
5100.00   1.29500580   0.01491139
5102.00   1.34565568   0.01485145
5104.00   1.35503542   0.01454437
5106.00   1.35338461   0.01439312
5108.00   1.32924461   0.01430814
5110.00   1.31659389   0.01428560
5112.00   1.30591226   0.01430818
5114.00   1.34462857   0.01452113
5116.00   1.34104049   0.01459452
5118.00   1.33790910   0.01456414
5120.00   1.35611165   0.01450704
5122.00   1.35163593   0.01437816
5124.00   1.37380612   0.01447441
5126.00   1.37703204   0.01445804
5128.00   1.38526428   0.01450761
5130.00   1.44690621   0.01479746
5132.00   1.58951735   0.01537562
5134.00   1.70429492   0.01584537
5136.00   1.57940400   0.01538731
5138.00   1.43155956   0.01479662
5140.00   1.33468068   0.01449743
5142.00   1.29337835   0.01434602
5144.00   1.29706120   0.01442681
5146.00   1.31026316   0.01455767
5148.00   1.30113161   0.01472011
5150.00   1.31265450   0.01499628
5152.00   1.30175531   0.01518289
5154.00   1.28227377   0.01526346
5156.00   1.30211937   0.01522716
5158.00   1.28583622   0.01494258
5160.00   1.27132237   0.01473807
5162.00   1.30682993   0.01473473
5164.00   1.31550241   0.01493024
5166.00   1.32641530   0.01468578
5168.00   1.34134758   0.01469212
5170.00   1.36336660   0.01479955
5172.00   1.38035345   0.01485432
5174.00   1.42756307   0.01514060
5176.00   1.46250641   0.01541576
5178.00   1.56429088   0.01588845
5180.00   1.87074280   0.01702755
5182.00   2.35366082   0.01864312
5184.00   2.59832001   0.01940531
5186.00   2.08400106   0.01778823
5188.00   1.67993402   0.01643643
5190.00   1.48048007   0.01570735
5192.00   1.40625381   0.01543387
5194.00   1.37578893   0.01536225
5196.00   1.37706089   0.01548848
5198.00   1.39398789   0.01568609
5200.00   1.39057755   0.01574335
5202.00   1.40243101   0.01574351
5204.00   1.39106297   0.01561162
5206.00   1.40848696   0.01636779
5208.00   1.44820487   0.01602579
5210.00   1.42682266   0.01610536
5212.00   1.40564072   0.01607530
5214.00   1.39087069   0.01587228
5216.00   1.40431368   0.01586984
5218.00   1.41091454   0.01601565
5220.00   1.40178382   0.01612169
5222.00   1.42864406   0.01621466
5224.00   1.45001078   0.01620807
5226.00   1.44387817   0.01609994
5228.00   1.40561259   0.01595403
5230.00   1.41777968   0.01607602
5232.00   1.45698941   0.01630390
5234.00   1.45224595   0.01624696
5236.00   1.46038496   0.01636675
5238.00   1.47060180   0.01650554
5240.00   1.48178160   0.01662807
5242.00   1.47594213   0.01656581
5244.00   1.48593223   0.01653388
5246.00   1.46370304   0.01645641
5248.00   1.46863031   0.01651139
5250.00   1.47784722   0.01654452
5252.00   1.48445058   0.01661419
5254.00   1.50756490   0.01680030
5256.00   1.50354517   0.01688282
5258.00   1.51374960   0.01714775
5260.00   1.49345982   0.01707616
5262.00   1.47003734   0.01680118
5264.00   1.51775384   0.01690130
5266.00   1.50424778   0.01682500
5268.00   1.50881171   0.01684006
5270.00   1.54320502   0.01704632
5272.00   1.54998565   0.01715941
5274.00   1.52850926   0.01714939
5276.00   1.53586161   0.01725237
5278.00   1.50069046   0.01719290
5280.00   1.49391496   0.01717880
5282.00   1.53126788   0.01732462
5284.00   1.52840292   0.01751805
5286.00   1.52947915   0.01767809
5288.00   1.52399385   0.01767423
5290.00   1.50590563   0.01760799
5292.00   1.54040515   0.01775469
5294.00   1.50934660   0.01766326
5296.00   1.53896213   0.01784347
5298.00   1.55762088   0.01798888
5300.00   1.55063450   0.01803678
5302.00   1.54729903   0.01814126
5304.00   1.52668118   0.01808620
5306.00   1.50123155   0.01803513
5308.00   1.49078655   0.01800378
5310.00   1.52022684   0.01827627
5312.00   1.50208569   0.01832348
5314.00   1.55016971   0.01857818
5316.00   1.53305697   0.01848421
5318.00   1.51978505   0.01841413
5320.00   1.52909911   0.01859150
5322.00   1.54718173   0.01869776
5324.00   1.51952267   0.01865122
5326.00   1.53419435   0.01877030
5328.00   1.48258662   0.01861507
5330.00   1.49573958   0.01877380
5332.00   1.56801033   0.01919805
5334.00   1.54570842   0.01917565
5336.00   1.52924418   0.01914576
5338.00   1.54512906   0.01936609
5340.00   1.56003463   0.01961738
5342.00   1.53411365   0.01968148
5344.00   1.53252232   0.01970053
5346.00   1.48457658   0.01944037
5348.00   1.45507312   0.01966730
5350.00   1.47640622   0.01997499
5352.00   1.47477663   0.01982895
5354.00   1.43294156   0.01982047
5356.00   1.47215068   0.02024225
5358.00   1.46808314   0.02008068
5360.00   1.52910936   0.02004024
5362.00   1.52187681   0.01986102
5364.00   1.55783594   0.01991469
5366.00   1.49568236   0.01956839
5368.00   1.50480008   0.01965613
5370.00   1.54470301   0.01988170
5372.00   1.54404509   0.02001623
5374.00   1.50303078   0.02018756
5376.00   1.49586308   0.02041770
5378.00   1.47964692   0.02028988
5380.00   1.56087983   0.02057254
5382.00   1.64080548   0.02088642
5384.00   1.58390582   0.02064313
5386.00   1.50697005   0.02039874
5388.00   1.56657529   0.02068855
5390.00   1.52811956   0.02082641
5392.00   1.54041493   0.02123038
5394.00   1.42624772   0.02059588
5396.00   1.48916984   0.02073175
5398.00   1.45406044   0.02056375
5400.00   1.41662538   0.02043475
5402.00   1.49839556   0.02079340
5404.00   1.45719409   0.02072074
5406.00   1.43166256   0.02070971
5408.00   1.41903460   0.02062292
5410.00   1.36114264   0.02056637
5412.00   1.37787056   0.02084003
5414.00   1.37897432   0.02112577
5416.00   1.34291852   0.02132573
5418.00   1.36352348   0.00798971
5420.00   1.34611428   0.00808680
5422.00   1.32420886   0.00823423
5424.00   1.31365621   0.00831872
5426.00   1.30961299   0.00842940
5428.00   1.29859579   0.00828496
5430.00   1.27933943   0.00768192
5432.00   1.26924717   0.00748506
5434.00   1.26886249   0.00768991
5436.00   1.27112567   0.00806321
5438.00   1.27302814   0.00853363
5440.00   1.27635241   0.00912005
5442.00   1.27021182   0.00940701
5444.00   1.25461566   0.00971998
5446.00   1.24173236   0.00953778
5448.00   1.22709835   0.00850054
5450.00   1.21485269   0.00771248
5452.00   1.20612347   0.00786523
5454.00   1.20045710   0.00851034
5456.00   1.20040548   0.00909361
5458.00   1.20597219   0.01003961
5460.00   1.21372557   0.01041751
5462.00   1.23124838   0.01063605
5464.00   1.24001276   0.01046410
5466.00   1.23391247   0.00955961
5468.00   1.22269702   0.00835001
5470.00   1.21980333   0.00803740
5472.00   1.22154069   0.00850303
5474.00   1.21872771   0.00834097
5476.00   1.21141124   0.00778126
5478.00   1.20815241   0.00740223
5480.00   1.20928085   0.00720374
5482.00   1.21238256   0.00713223
5484.00   1.21705949   0.00719008
5486.00   1.22459567   0.00738090
5488.00   1.22186279   0.00762557
5490.00   1.20452976   0.00809491
5492.00   1.20035124   0.00829179
5494.00   1.20721495   0.00830386
5496.00   1.21696246   0.00819296
5498.00   1.22807145   0.00792795
5500.00   1.24079943   0.00752247
5502.00   1.24187553   0.00729165
5504.00   1.23151553   0.00711975
5506.00   1.22482777   0.00705512
5508.00   1.21384680   0.00720638
5510.00   1.20879745   0.00725050
5512.00   1.21527374   0.00704648
5514.00   1.22620809   0.00675405
5516.00   1.22758818   0.00668948
5518.00   1.22114432   0.00681055
5520.00   1.22271395   0.00680156
5522.00   1.22907627   0.00667275
5524.00   1.23544359   0.00667684
5526.00   1.24179733   0.00689621
5528.00   1.24849117   0.00713714
5530.00   1.25511754   0.00719508
5532.00   1.26158071   0.00714339
5534.00   1.26986575   0.00713039
5536.00   1.27957106   0.00703811
5538.00   1.28994846   0.00708395
5540.00   1.30363762   0.00732303
5542.00   1.31467199   0.00753718
5544.00   1.31864607   0.00756453
5546.00   1.31775630   0.00748704
5548.00   1.31333029   0.00756824
5550.00   1.30161381   0.00792590
5552.00   1.29342282   0.00786598
5554.00   1.28233612   0.00734642
5556.00   1.27834463   0.00686761
5558.00   1.28995001   0.00665756
5560.00   1.30848813   0.00659088
5562.00   1.30823195   0.00660179
5564.00   1.28504860   0.00652838
5566.00   1.28939736   0.00705065
5568.00   1.31965947   0.00809116
5570.00   1.33757424   0.00896550
5572.00   1.33771801   0.00977690
5574.00   1.32790959   0.01041580
5576.00   1.31077456   0.01057106
5578.00   1.28020823   0.01038540
5580.00   1.26359975   0.00997352
5582.00   1.25156367   0.00899352
5584.00   1.24637818   0.00817530
5586.00   1.25389457   0.00750046
5588.00   1.26067543   0.00695492
5590.00   1.25185800   0.00662650
5592.00   1.23248672   0.00653745
5594.00   1.22641027   0.00649925
5596.00   1.22624230   0.00658673
5598.00   1.23015034   0.00677232
5600.00   1.24466538   0.00723851
5602.00   1.25435114   0.00750531
5604.00   1.24868357   0.00727614
5606.00   1.23461580   0.00673820
5608.00   1.23004591   0.00653272
5610.00   1.23156834   0.00646023
5612.00   1.22915030   0.00648089
5614.00   1.22521055   0.00665794
5616.00   1.22090793   0.00684350
5618.00   1.21608615   0.00705458
5620.00   1.21116471   0.00724171
5622.00   1.20769489   0.00722356
5624.00   1.20488548   0.00703476
5626.00   1.20357382   0.00683382
5628.00   1.20543647   0.00643560
5630.00   1.20478845   0.00621187
5632.00   1.20160902   0.00626250
5634.00   1.19640291   0.00639121
5636.00   1.18747270   0.00638427
5638.00   1.17279422   0.00629378
5640.00   1.17352057   0.00643137
5642.00   1.19175494   0.00683083
5644.00   1.19951749   0.00703380
5646.00   1.19866872   0.00712883
5648.00   1.19499302   0.00710526
5650.00   1.18916142   0.00687823
5652.00   1.18064439   0.00646674
5654.00   1.18594706   0.00632496
5656.00   1.20673919   0.00637751
5658.00   1.21879065   0.00639929
5660.00   1.22794914   0.00638647
5662.00   1.23449683   0.00649443
5664.00   1.23833787   0.00685171
5666.00   1.23954988   0.00728740
5668.00   1.23812854   0.00739731
5670.00   1.23189080   0.00724815
5672.00   1.22904515   0.00721366
5674.00   1.21994007   0.00709631
5676.00   1.22504258   0.00713938
5678.00   1.25548255   0.00741569
5680.00   1.29146981   0.00777798
5682.00   1.30259287   0.00804931
5684.00   1.29717815   0.00825945
5686.00   1.29825032   0.00866182
5688.00   1.29625773   0.00946514
5690.00   1.29810119   0.00972371
5692.00   1.30393827   0.00940401
5694.00   1.31183362   0.00886115
5696.00   1.32101715   0.00832765
5698.00   1.33218551   0.00763127
5700.00   1.34056973   0.00729052
5702.00   1.34814143   0.00734367
5704.00   1.35369837   0.00724800
5706.00   1.35351825   0.00706340
5708.00   1.35759330   0.00691428
5710.00   1.37422693   0.00687265
5712.00   1.39727354   0.00689392
5714.00   1.40483093   0.00686914
5716.00   1.39906776   0.00681104
5718.00   1.39915442   0.00680800
5720.00   1.39951420   0.00687095
5722.00   1.40032601   0.00689992
5724.00   1.40140641   0.00681520
5726.00   1.40308809   0.00673162
5728.00   1.40593565   0.00691177
5730.00   1.40728879   0.00738056
5732.00   1.41813636   0.00749881
5734.00   1.44734335   0.00737234
5736.00   1.45876288   0.00730391
5738.00   1.44357347   0.00736740
5740.00   1.42351627   0.00738362
5742.00   1.42194974   0.00713077
5744.00   1.43114030   0.00660937
5746.00   1.43137121   0.00640056
5748.00   1.42820048   0.00638920
5750.00   1.42432475   0.00640529
5752.00   1.41745973   0.00647559
5754.00   1.41204095   0.00659931
5756.00   1.41239166   0.00679238
5758.00   1.41632020   0.00704046
5760.00   1.41377914   0.00716140
5762.00   1.40427959   0.00718617
5764.00   1.40091729   0.00723870
5766.00   1.40259743   0.00734496
5768.00   1.40353990   0.00735460
5770.00   1.40286827   0.00716847
5772.00   1.40062940   0.00687975
5774.00   1.39236903   0.00675196
5776.00   1.37491286   0.00671231
5778.00   1.36674881   0.00668743
5780.00   1.36408114   0.00672407
5782.00   1.36184824   0.00675368
5784.00   1.36008215   0.00676330
5786.00   1.35858297   0.00677572
5788.00   1.35563040   0.00681731
5790.00   1.35125840   0.00689092
5792.00   1.34936225   0.00691483
5794.00   1.34809577   0.00694306
5796.00   1.34932053   0.00689114
5798.00   1.35315716   0.00670465
5800.00   1.35887742   0.00651758
5802.00   1.36754942   0.00642871
5804.00   1.37965655   0.00638012
5806.00   1.37972701   0.00661342
5808.00   1.36966443   0.00736966
5810.00   1.36007953   0.00751830
5812.00   1.34216785   0.00702370
5814.00   1.33258975   0.00661992
5816.00   1.34314156   0.00681746
5818.00   1.36522710   0.00726545
5820.00   1.37490225   0.00725931
5822.00   1.38112545   0.00689570
5824.00   1.38273001   0.00671208
5826.00   1.37629092   0.00653782
5828.00   1.37220943   0.00641913
5830.00   1.37396395   0.00636780
5832.00   1.37718260   0.00637727
5834.00   1.37561297   0.00645126
5836.00   1.36986458   0.00661300
5838.00   1.36841011   0.00673575
5840.00   1.37078965   0.00691692
5842.00   1.37060750   0.00698398
5844.00   1.36571097   0.00690027
5846.00   1.36131418   0.00676600
5848.00   1.36348283   0.00666490
5850.00   1.37058771   0.00653206
5852.00   1.37386847   0.00660474
5854.00   1.37613666   0.00687415
5856.00   1.37754941   0.00710476
5858.00   1.37740135   0.00743607
5860.00   1.37732804   0.00762317
5862.00   1.37943888   0.00743412
5864.00   1.38260376   0.00697878
5866.00   1.37883496   0.00692770
5868.00   1.36386871   0.00730727
5870.00   1.36099827   0.00728294
5872.00   1.36965311   0.00687065
5874.00   1.37555790   0.00657268
5876.00   1.37314022   0.00647894
5878.00   1.36732268   0.00660647
5880.00   1.36456144   0.00735041
5882.00   1.35923111   0.00865482
5884.00   1.36378574   0.00953206
5886.00   1.38176453   0.01006715
5888.00   1.39221895   0.01101308
5890.00   1.39530528   0.01289953
5892.00   1.39044225   0.01438651
5894.00   1.36979365   0.01393764
5896.00   1.32957757   0.01165218
5898.00   1.31174433   0.01035256
5900.00   1.30566740   0.00922710
5902.00   1.30304253   0.00820996
5904.00   1.30847013   0.00736346
5906.00   1.31369102   0.00675344
5908.00   1.30984724   0.00648814
5910.00   1.30048883   0.00661737
5912.00   1.29738545   0.00666194
5914.00   1.29645407   0.00692884
5916.00   1.29806268   0.00694124
5918.00   1.30541182   0.00664309
5920.00   1.31015098   0.00643118
5922.00   1.30597472   0.00650835
5924.00   1.29784513   0.00674950
5926.00   1.30121446   0.00706648
5928.00   1.32036173   0.00774067
5930.00   1.32170856   0.00785495
5932.00   1.31140566   0.00756606
5934.00   1.29986846   0.00723899
5936.00   1.28873467   0.00689001
5938.00   1.27651811   0.00653179
5940.00   1.26318431   0.00638021
5942.00   1.24487257   0.00638639
5944.00   1.23984885   0.00645570
5946.00   1.24587452   0.00667476
5948.00   1.25276947   0.00685949
5950.00   1.26341832   0.00710295
5952.00   1.27303791   0.00723620
5954.00   1.27424371   0.00699564
5956.00   1.26934946   0.00638219
5958.00   1.26688802   0.00616604
5960.00   1.26379657   0.00623830
5962.00   1.26091397   0.00622520
5964.00   1.25699079   0.00617894
5966.00   1.25470769   0.00612780
5968.00   1.25667417   0.00605403
5970.00   1.26143360   0.00596813
5972.00   1.26209676   0.00603798
5974.00   1.26189697   0.00634110
5976.00   1.25808787   0.00641058
5978.00   1.24856210   0.00630121
5980.00   1.24085355   0.00620245
5982.00   1.23702919   0.00617606
5984.00   1.23562312   0.00617384
5986.00   1.23677814   0.00615660
5988.00   1.23792303   0.00602764
5990.00   1.24902403   0.00622670
5992.00   1.27596164   0.00687664
5994.00   1.29310119   0.00715857
5996.00   1.29640663   0.00694942
5998.00   1.29367363   0.00655505
6000.00   1.29120934   0.00632266
6002.00   1.28488433   0.00607847
6004.00   1.28396368   0.00603253
6006.00   1.28452742   0.00629214
6008.00   1.28953159   0.00633682
6010.00   1.30199707   0.00614061
6012.00   1.31420112   0.00590613
6014.00   1.31950414   0.00578719
6016.00   1.32089317   0.00571658
6018.00   1.32252014   0.00566801
6020.00   1.32523394   0.00546065
6022.00   1.32173502   0.00571211
6024.00   1.30660284   0.00657979
6026.00   1.29782081   0.00713705
6028.00   1.30616474   0.00706861
6030.00   1.32346976   0.00665771
6032.00   1.33091438   0.00635085
6034.00   1.33519661   0.00580438
6036.00   1.33676910   0.00559741
6038.00   1.33264136   0.00568710
6040.00   1.33077168   0.00579230
6042.00   1.33383608   0.00590919
6044.00   1.33813357   0.00601297
6046.00   1.33834839   0.00593607
6048.00   1.33549297   0.00560797
6050.00   1.33484626   0.00566661
6052.00   1.33666515   0.00615173
6054.00   1.33528793   0.00632491
6056.00   1.33040714   0.00613230
6058.00   1.32349002   0.00582999
6060.00   1.31416452   0.00564155
6062.00   1.30084872   0.00546211
6064.00   1.30006349   0.00537483
6066.00   1.30978286   0.00537684
6068.00   1.31924868   0.00540727
6070.00   1.33258867   0.00543198
6072.00   1.34435356   0.00555807
6074.00   1.34914041   0.00593307
6076.00   1.35009289   0.00642779
6078.00   1.36049592   0.00642029
6080.00   1.38908172   0.00583577
6082.00   1.39131522   0.00565858
6084.00   1.37414730   0.00579500
6086.00   1.35048211   0.00584834
6088.00   1.32115901   0.00565787
6090.00   1.28729427   0.00537551
6092.00   1.25967956   0.00528636
6094.00   1.22890472   0.00529811
6096.00   1.21642625   0.00538010
6098.00   1.21954060   0.00565077
6100.00   1.22722602   0.00577762
6102.00   1.24076390   0.00568159
6104.00   1.25782430   0.00553742
6106.00   1.27312899   0.00555999
6108.00   1.28973448   0.00566981
6110.00   1.30225492   0.00579857
6112.00   1.31135905   0.00597994
6114.00   1.32029307   0.00616466
6116.00   1.33171749   0.00647299
6118.00   1.33855391   0.00663717
6120.00   1.33254564   0.00637464
6122.00   1.31662345   0.00575256
6124.00   1.31591165   0.00558005
6126.00   1.32744229   0.00576850
6128.00   1.33314085   0.00580056
6130.00   1.33919907   0.00568199
6132.00   1.34013164   0.00569997
6134.00   1.32996309   0.00608748
6136.00   1.31422174   0.00659254
6138.00   1.31262839   0.00656773
6140.00   1.32460046   0.00602602
6142.00   1.32699013   0.00575452
6144.00   1.32208145   0.00548064
6146.00   1.32269120   0.00533699
6148.00   1.33505607   0.00540667
6150.00   1.34959114   0.00557366
6152.00   1.35001123   0.00565644
6154.00   1.33879578   0.00575144
6156.00   1.33579516   0.00574459
6158.00   1.33675015   0.00558349
6160.00   1.33587539   0.00552989
6162.00   1.33332562   0.00562330
6164.00   1.32968986   0.00574020
6166.00   1.32394397   0.00578577
6168.00   1.31532729   0.00580868
6170.00   1.31611907   0.00576289
6172.00   1.32761657   0.00558191
6174.00   1.33287632   0.00551788
6176.00   1.33403993   0.00562717
6178.00   1.33339250   0.00566556
6180.00   1.33223498   0.00540841
6182.00   1.32977355   0.00496663
6184.00   1.32269287   0.00505284
6186.00   1.30793834   0.00568372
6188.00   1.29959011   0.00591733
6190.00   1.29206312   0.00607415
6192.00   1.29022431   0.00603709
6194.00   1.29843020   0.00561322
6196.00   1.31112194   0.00499975
6198.00   1.31473553   0.00497998
6200.00   1.31329060   0.00550943
6202.00   1.31149590   0.00562383
6204.00   1.30481851   0.00560491
6206.00   1.30225515   0.00552018
6208.00   1.30605435   0.00530979
6210.00   1.31151128   0.00507461
6212.00   1.31401098   0.00501067
6214.00   1.31682181   0.00507467
6216.00   1.31118429   0.00505488
6218.00   1.29419589   0.00500311
6220.00   1.28349447   0.00496839
6222.00   1.27754223   0.00494441
6224.00   1.27444184   0.00493133
6226.00   1.27452636   0.00493061
6228.00   1.27789450   0.00494117
6230.00   1.27726972   0.00497443
6232.00   1.27411103   0.00505117
6234.00   1.27174485   0.00508913
6236.00   1.27020943   0.00511163
6238.00   1.26743042   0.00510878
6240.00   1.26236081   0.00506609
6242.00   1.25581717   0.00499714
6244.00   1.24932694   0.00495431
6246.00   1.24222338   0.00491586
6248.00   1.23488903   0.00489209
6250.00   1.22706878   0.00487624
6252.00   1.21915972   0.00487947
6254.00   1.21277940   0.00492780
6256.00   1.20510495   0.00497562
6258.00   1.18986976   0.00490434
6260.00   1.16586637   0.00459283
6262.00   1.15199733   0.00487360
6264.00   1.14834666   0.00585889
6266.00   1.13690567   0.00620639
6268.00   1.11484087   0.00587275
6270.00   1.09144831   0.00536006
6272.00   1.07503366   0.00516218
6274.00   1.06230247   0.00508733
6276.00   1.04815471   0.00504455
6278.00   1.02861774   0.00506205
6280.00   1.02168036   0.00515407
6282.00   1.03166783   0.00543071
6284.00   1.03961360   0.00559601
6286.00   1.03433752   0.00542082
6288.00   1.02229929   0.00503804
6290.00   1.01237321   0.00507932
6292.00   1.00228167   0.00542481
6294.00   0.98915648   0.00571323
6296.00   0.97151810   0.00623862
6298.00   0.95549488   0.00644296
6300.00   0.94038171   0.00599647
6302.00   0.92831868   0.00527665
6304.00   0.92951852   0.00545201
6306.00   0.94832790   0.00647863
6308.00   0.95014524   0.00654910
6310.00   0.94068307   0.00594272
6312.00   0.93408126   0.00550317
6314.00   0.93265605   0.00536587
6316.00   0.93115234   0.00532532
6318.00   0.92369056   0.00523688
6320.00   0.91065758   0.00516853
6322.00   0.90666515   0.00508035
6324.00   0.90753055   0.00492764
6326.00   0.91163391   0.00488682
6328.00   0.92362064   0.00497665
6330.00   0.93316752   0.00509878
6332.00   0.93186688   0.00521602
6334.00   0.92372978   0.00535128
6336.00   0.91439164   0.00531188
6338.00   0.89508104   0.00510363
6340.00   0.88815314   0.00491049
6342.00   0.89364696   0.00461349
6344.00   0.89783412   0.00439196
6346.00   0.89459664   0.00435892
6348.00   0.88860887   0.00444194
6350.00   0.88638383   0.00450947
6352.00   0.88009292   0.00455678
6354.00   0.88937306   0.00476641
6356.00   0.91514075   0.00512212
6358.00   0.93829310   0.00545708
6360.00   0.96108007   0.00588955
6362.00   0.97806442   0.00620057
6364.00   0.97143918   0.00593578
6366.00   0.94022882   0.00498161
6368.00   0.92701536   0.00454559
6370.00   0.91885978   0.00439526
6372.00   0.91448051   0.00429584
6374.00   0.91420519   0.00428377
6376.00   0.91756183   0.00434039
6378.00   0.92371637   0.00432386
6380.00   0.93281764   0.00420529
6382.00   0.94755650   0.00500071
6384.00   0.97785008   0.00695255
6386.00   0.98924118   0.00731272
6388.00   0.97606611   0.00624840
6390.00   0.96881855   0.00497679
6392.00   0.99096674   0.00461242
6394.00   1.02712500   0.00472515
6396.00   1.02300227   0.00455836
6398.00   0.96971875   0.00427980
6400.00   0.96165049   0.00421723
6402.00   0.98488039   0.00441463
6404.00   1.00608540   0.00452242
6406.00   1.01596797   0.00441695
6408.00   1.02351880   0.00423988
6410.00   1.03659868   0.00422913
6412.00   1.05455136   0.00428866
6414.00   1.06725037   0.00444558
6416.00   1.07894313   0.00485315
6418.00   1.08627677   0.00499752
6420.00   1.08687460   0.00477868
6422.00   1.08573067   0.00445302
6424.00   1.08955908   0.00433434
6426.00   1.09658742   0.00429388
6428.00   1.09886181   0.00438097
6430.00   1.09483612   0.00470868
6432.00   1.09729517   0.00484627
6434.00   1.10790694   0.00483785
6436.00   1.11837530   0.00475669
6438.00   1.12269986   0.00460419
6440.00   1.12377512   0.00436461
6442.00   1.12700665   0.00428967
6444.00   1.13001144   0.00434701
6446.00   1.13451540   0.00438230
6448.00   1.14118683   0.00443616
6450.00   1.14720011   0.00449755
6452.00   1.15212023   0.00454594
6454.00   1.15590787   0.00460407
6456.00   1.15559542   0.00475174
6458.00   1.14782596   0.00505524
6460.00   1.14894879   0.00513485
6462.00   1.15809834   0.00503906
6464.00   1.16387987   0.00497413
6466.00   1.16532278   0.00496164
6468.00   1.16350448   0.00497802
6470.00   1.15611589   0.00503261
6472.00   1.13944447   0.00510480
6474.00   1.13846695   0.00527553
6476.00   1.14797306   0.00572624
6478.00   1.15994680   0.00579962
6480.00   1.17959738   0.00534085
6482.00   1.19709277   0.00479943
6484.00   1.20063281   0.00473432
6486.00   1.19427645   0.00496562
6488.00   1.19538987   0.00495350
6490.00   1.19928551   0.00473371
6492.00   1.20244801   0.00476505
6494.00   1.20576906   0.00508178
6496.00   1.20875371   0.00534731
6498.00   1.21179867   0.00538785
6500.00   1.21445119   0.00532996
6502.00   1.21213126   0.00545965
6504.00   1.20119894   0.00579022
6506.00   1.19938302   0.00590529
6508.00   1.19635725   0.00595201
6510.00   1.20670474   0.00587174
6512.00   1.24011385   0.00554306
6514.00   1.28356421   0.00510994
6516.00   1.31078184   0.00504188
6518.00   1.33442533   0.00527946
6520.00   1.34358370   0.00536590
6522.00   1.33710778   0.00548549
6524.00   1.32820475   0.00551140
6526.00   1.31836486   0.00533642
6528.00   1.30355847   0.00518520
6530.00   1.27820933   0.00541552
6532.00   1.24036765   0.00596002
6534.00   1.22281301   0.00595635
6536.00   1.21709466   0.00546829
6538.00   1.21644008   0.00516574
6540.00   1.22526836   0.00499255
6542.00   1.23553705   0.00489200
6544.00   1.24157095   0.00484722
6546.00   1.24627030   0.00486977
6548.00   1.24827790   0.00501483
6550.00   1.24533939   0.00549592
6552.00   1.24639738   0.00550815
6554.00   1.25269771   0.00500761
6556.00   1.25523734   0.00459781
6558.00   1.24866593   0.00462213
6560.00   1.23807013   0.00484223
6562.00   1.23547423   0.00492478
6564.00   1.23823118   0.00505289
6566.00   1.23957014   0.00500976
6568.00   1.24271035   0.00473174
6570.00   1.24427223   0.00456805
6572.00   1.24282706   0.00459494
6574.00   1.24085045   0.00471345
6576.00   1.24172306   0.00485686
6578.00   1.24363148   0.00509588
6580.00   1.24897933   0.00515759
6582.00   1.26195168   0.00512856
6584.00   1.26755619   0.00502364
6586.00   1.26499212   0.00473505
6588.00   1.25938165   0.00447287
6590.00   1.25384212   0.00449779
6592.00   1.24657750   0.00471321
6594.00   1.24227357   0.00487028
6596.00   1.23911476   0.00516984
6598.00   1.23789787   0.00522362
6600.00   1.23943484   0.00502124
6602.00   1.24128044   0.00479358
6604.00   1.24292874   0.00463008
6606.00   1.24443507   0.00449359
6608.00   1.24170268   0.00456893
6610.00   1.23551130   0.00495056
6612.00   1.22817218   0.00506706
6614.00   1.21503603   0.00505732
6616.00   1.20705414   0.00501662
6618.00   1.20993686   0.00494736
6620.00   1.21609247   0.00485735
6622.00   1.21088099   0.00481336
6624.00   1.19438434   0.00480386
6626.00   1.19163287   0.00476887
6628.00   1.19833660   0.00475522
6630.00   1.20442438   0.00467865
6632.00   1.21180296   0.00443322
6634.00   1.21745586   0.00422769
6636.00   1.21533394   0.00438991
6638.00   1.20655179   0.00482735
6640.00   1.20305336   0.00499301
6642.00   1.20223320   0.00515237
6644.00   1.20009613   0.00507829
6646.00   1.19715011   0.00461009
6648.00   1.19367874   0.00414371
6650.00   1.18913889   0.00405353
6652.00   1.18377852   0.00419049
6654.00   1.18203819   0.00438829
6656.00   1.18469846   0.00487106
6658.00   1.18412662   0.00501863
6660.00   1.18246615   0.00497191
6662.00   1.17906559   0.00482272
6664.00   1.17274857   0.00451576
6666.00   1.16491640   0.00410320
6668.00   1.16006362   0.00399204
6670.00   1.15663028   0.00418214
6672.00   1.15417814   0.00418726
6674.00   1.15633416   0.00396502
6676.00   1.15312195   0.00405450
6678.00   1.13933671   0.00466607
6680.00   1.12437284   0.00528850
6682.00   1.12218094   0.00544462
6684.00   1.12837422   0.00536601
6686.00   1.13531327   0.00516172
6688.00   1.15241873   0.00445400
6690.00   1.15838933   0.00417157
6692.00   1.14952290   0.00454322
6694.00   1.13920975   0.00494679
6696.00   1.13886201   0.00498766
6698.00   1.14374959   0.00486520
6700.00   1.14433134   0.00469059
6702.00   1.14653182   0.00410069
6704.00   1.14159477   0.00408611
6706.00   1.12675834   0.00473647
6708.00   1.11359274   0.00524686
6710.00   1.10720503   0.00538323
6712.00   1.10465121   0.00534734
6714.00   1.10661781   0.00521413
6716.00   1.12096441   0.00473485
6718.00   1.12027740   0.00460591
6720.00   1.10815597   0.00477420
6722.00   1.09659648   0.00487551
6724.00   1.08568418   0.00483820
6726.00   1.07692099   0.00473884
6728.00   1.07945609   0.00460949
6730.00   1.09394395   0.00439835
6732.00   1.10108161   0.00425962
6734.00   1.10741055   0.00403923
6736.00   1.11121917   0.00406372
6738.00   1.11327457   0.00443948
6740.00   1.11216211   0.00485835
6742.00   1.10456312   0.00509966
6744.00   1.08972847   0.00531511
6746.00   1.08589602   0.00522007
6748.00   1.08750665   0.00467393
6750.00   1.09333622   0.00433866
6752.00   1.10901344   0.00416377
6754.00   1.12150371   0.00409527
6756.00   1.12043178   0.00416143
6758.00   1.11119711   0.00434459
6760.00   1.10862803   0.00435043
6762.00   1.09922516   0.00414993
6764.00   1.11057663   0.00417992
6766.00   1.13354445   0.00438733
6768.00   1.17384660   0.00460373
6770.00   1.24274921   0.00481716
6772.00   1.32608819   0.00501605
6774.00   1.37900007   0.00506161
6776.00   1.41514778   0.00492948
6778.00   1.44665337   0.00493725
6780.00   1.37380087   0.00440568
6782.00   1.47184539   0.00501092
6784.00   1.80827248   0.00678623
6786.00   2.26064587   0.00859517
6788.00   2.73059964   0.01001250
6790.00   3.38375807   0.01158821
6792.00   3.48398614   0.01194052
6794.00   3.12777066   0.01150072
6796.00   2.73442817   0.01067413
6798.00   2.14453888   0.00886227
6800.00   1.61152744   0.00662019
6802.00   1.39578271   0.00512229
6804.00   1.38036489   0.00426001
6806.00   1.45407033   0.00407201
6808.00   1.77193427   0.00534066
6810.00   1.95470607   0.00588879
6812.00   2.12045813   0.00636065
6814.00   2.17414284   0.00652234
6816.00   2.03283739   0.00613491
6818.00   1.76080799   0.00532481
6820.00   1.56128991   0.00485144
6822.00   1.31614721   0.00442292
6824.00   1.17743266   0.00423085
6826.00   1.12399471   0.00441418
6828.00   1.09054339   0.00453111
6830.00   1.07053804   0.00449853
6832.00   1.06664908   0.00441163
6834.00   1.05996871   0.00431904
6836.00   1.06029296   0.00417380
6838.00   1.05657709   0.00409506
6840.00   1.04787135   0.00400832
6842.00   1.04714346   0.00403331
6844.00   1.05735409   0.00421100
6846.00   1.07070887   0.00442597
6848.00   1.08060694   0.00459075
6850.00   1.09126234   0.00476706
6852.00   1.09132993   0.00477576
6854.00   1.08047497   0.00459213
6856.00   1.07142735   0.00448211
6858.00   1.06139803   0.00436930
6860.00   1.05195379   0.00433711
6862.00   1.04489470   0.00447845
6864.00   1.03925025   0.00473152
6866.00   1.03209960   0.00487472
6868.00   1.02088547   0.00504363
6870.00   1.01745427   0.00506078
6872.00   1.02124977   0.00492934
6874.00   1.02561617   0.00476394
6876.00   1.02955019   0.00456601
6878.00   1.03318048   0.00435018
6880.00   1.03230202   0.00427878
6882.00   1.02695024   0.00433226
6884.00   1.02320504   0.00437797
6886.00   1.01539457   0.00451166
6888.00   1.01454508   0.00456859
6890.00   1.02515924   0.00450495
6892.00   1.03866220   0.00440749
6894.00   1.04368353   0.00437923
6896.00   1.04442024   0.00436317
6898.00   1.04410088   0.00445160
6900.00   1.03999603   0.00474925
6902.00   1.03731430   0.00482472
6904.00   1.03539574   0.00461610
6906.00   1.03433228   0.00438901
6908.00   1.03380990   0.00435611
6910.00   1.03361976   0.00441772
6912.00   1.04054666   0.00467331
6914.00   1.06014407   0.00532571
6916.00   1.06703198   0.00549774
6918.00   1.06669414   0.00528767
6920.00   1.05923569   0.00501301
6922.00   1.04035997   0.00479963
6924.00   1.01452637   0.00457579
6926.00   1.00461221   0.00440503
6928.00   1.01021457   0.00426968
6930.00   1.00426519   0.00417281
6932.00   0.98840070   0.00403812
6934.00   0.98031092   0.00408743
6936.00   0.97986954   0.00442107
6938.00   0.98933160   0.00484207
6940.00   1.01925886   0.00508917
6942.00   1.06106353   0.00519709
6944.00   1.13585365   0.00557010
6946.00   1.27532470   0.00630339
6948.00   1.36559534   0.00662475
6950.00   1.41047955   0.00654628
6952.00   1.41749489   0.00626480
6954.00   1.37053561   0.00586233
6956.00   1.26145923   0.00518217
6958.00   1.23149443   0.00488862
6960.00   1.24977088   0.00485644
6962.00   1.26738310   0.00495021
6964.00   1.31576312   0.00536937
6966.00   1.33913136   0.00564567
6968.00   1.29250407   0.00549145
6970.00   1.20099485   0.00505995
6972.00   1.13758814   0.00477499
6974.00   1.06496930   0.00438610
6976.00   1.02225852   0.00423369
6978.00   1.00931799   0.00439122
6980.00   0.99903947   0.00447953
6982.00   0.98225170   0.00436760
6984.00   0.96704793   0.00417377
6986.00   0.96204174   0.00406353
6988.00   0.96831101   0.00397727
6990.00   0.96850634   0.00391596
6992.00   0.96890217   0.00387424
6994.00   0.96657389   0.00387226
6996.00   0.95889145   0.00393899
6998.00   0.95098537   0.00401641
7000.00   0.95034814   0.00401917
7002.00   0.95459193   0.00396798
7004.00   0.95900178   0.00396181
7006.00   0.96717423   0.00395230
7008.00   0.97268939   0.00399112
7010.00   0.97642457   0.00413093
7012.00   0.97820944   0.00422983
7014.00   0.97606701   0.00411573
7016.00   0.97034830   0.00383137
7018.00   0.97423363   0.00404211
7020.00   0.98892009   0.00475322
7022.00   0.99602383   0.00504971
7024.00   0.99997914   0.00518179
7026.00   0.99990970   0.00515601
7028.00   0.99345052   0.00487737
7030.00   0.98294413   0.00440651
7032.00   0.97831798   0.00422710
7034.00   0.97791696   0.00430125
7036.00   0.97492611   0.00423964
7038.00   0.97076160   0.00412068
7040.00   0.96710712   0.00404390
7042.00   0.96485198   0.00403453
7044.00   0.96263355   0.00406477
7046.00   0.95791429   0.00411562
7048.00   0.95036131   0.00422331
7050.00   0.94654983   0.00424059
7052.00   0.94456172   0.00416406
7054.00   0.94400638   0.00414342
7056.00   0.94450247   0.00421720
7058.00   0.94692594   0.00428013
7060.00   0.95322508   0.00421206
7062.00   0.96378058   0.00403074
7064.00   0.96630287   0.00405492
7066.00   0.96232468   0.00430273
7068.00   0.95980722   0.00437674
7070.00   0.95692974   0.00432289
7072.00   0.95465779   0.00421644
7074.00   0.95419782   0.00405577
7076.00   0.95482993   0.00383829
7078.00   0.95361143   0.00380764
7080.00   0.94831812   0.00398392
7082.00   0.94980502   0.00403064
7084.00   0.95952368   0.00402361
7086.00   0.96577680   0.00400548
7088.00   0.96437407   0.00396647
7090.00   0.95934069   0.00392769
7092.00   0.95563972   0.00398190
7094.00   0.94960988   0.00413251
7096.00   0.94848984   0.00420996
7098.00   0.95164555   0.00425847
7100.00   0.95453405   0.00430461
7102.00   0.95719546   0.00436337
7104.00   0.95965970   0.00440479
7106.00   0.96123576   0.00438796
7108.00   0.96247560   0.00432295
7110.00   0.96167308   0.00425457
7112.00   0.95774490   0.00413137
7114.00   0.95571625   0.00406318
7116.00   0.95543253   0.00406840
7118.00   0.95572770   0.00407716
7120.00   0.95658720   0.00401940
7122.00   0.95822871   0.00392011
7124.00   0.95524102   0.00397259
7126.00   0.94443864   0.00420492
7128.00   0.94217706   0.00429638
7130.00   0.94727331   0.00431689
7132.00   0.95317292   0.00428919
7134.00   0.95820719   0.00419585
7136.00   0.96304303   0.00405502
7138.00   0.96370995   0.00398785
7140.00   0.95907396   0.00394737
7142.00   0.95827496   0.00395254
7144.00   0.96125048   0.00402016
7146.00   0.96056139   0.00408630
7148.00   0.95313495   0.00417133
7150.00   0.94368559   0.00423390
7152.00   0.93890291   0.00414891
7154.00   0.93410635   0.00382898
7156.00   0.93938851   0.00392807
7158.00   0.96024346   0.00444745
7160.00   0.97074598   0.00470058
7162.00   0.97143817   0.00474050
7164.00   0.96551925   0.00465303
7166.00   0.95137775   0.00440313
7168.00   0.92714876   0.00391062
7170.00   0.91993546   0.00381985
7172.00   0.92446738   0.00407163
7174.00   0.92903811   0.00424364
7176.00   0.94021136   0.00444215
7178.00   0.94714570   0.00459688
7180.00   0.94031513   0.00463932
7182.00   0.92561173   0.00461893
7184.00   0.92489880   0.00472013
7186.00   0.93750399   0.00500899
7188.00   0.93990970   0.00503005
7190.00   0.93643445   0.00483563
7192.00   0.93263847   0.00461939
7194.00   0.92879450   0.00440173
7196.00   0.92544049   0.00418681
7198.00   0.92731410   0.00413235
7200.00   0.93461484   0.00426851
7202.00   0.93898982   0.00425293
7204.00   0.94076055   0.00414666
7206.00   0.94640309   0.00407289
7208.00   0.95998991   0.00405046
7210.00   0.97318292   0.00404150
7212.00   0.97499067   0.00401085
7214.00   0.96929747   0.00396710
7216.00   0.96139556   0.00395167
7218.00   0.94314235   0.00395982
7220.00   0.93445331   0.00396584
7222.00   0.93573707   0.00397144
7224.00   0.93968332   0.00398082
7226.00   0.94262868   0.00398723
7228.00   0.94660372   0.00399169
7230.00   0.94469708   0.00406649
7232.00   0.93480527   0.00418071
7234.00   0.93149447   0.00434208
7236.00   0.93445295   0.00459844
7238.00   0.93570417   0.00480031
7240.00   0.93206114   0.00491259
7242.00   0.92575347   0.00496353
7244.00   0.91846776   0.00491007
7246.00   0.90558583   0.00469543
7248.00   0.90146762   0.00456530
7250.00   0.90424103   0.00446054
7252.00   0.90713221   0.00434584
7254.00   0.90876657   0.00417077
7256.00   0.91106033   0.00401744
7258.00   0.91581476   0.00406634
7260.00   0.92283010   0.00430973
7262.00   0.92939800   0.00439948
7264.00   0.93773717   0.00437948
7266.00   0.94372755   0.00445872
7268.00   0.94922078   0.00464774
7270.00   0.95094150   0.00486720
7272.00   0.94405711   0.00510521
7274.00   0.92965543   0.00540026
7276.00   0.92024571   0.00533538
7278.00   0.90867478   0.00482565
7280.00   0.90450662   0.00453711
7282.00   0.90916848   0.00442210
7284.00   0.91462696   0.00434976
7286.00   0.91613013   0.00424519
7288.00   0.91649914   0.00415496
7290.00   0.92043787   0.00420018
7292.00   0.93121111   0.00444199
7294.00   0.93230027   0.00451911
7296.00   0.92492276   0.00449921
7298.00   0.91813040   0.00448169
7300.00   0.91348350   0.00447777
7302.00   0.91009897   0.00448676
7304.00   0.91064829   0.00456545
7306.00   0.91794276   0.00476578
7308.00   0.91570902   0.00476138
7310.00   0.90476561   0.00454777
7312.00   0.89725649   0.00442616
7314.00   0.89278060   0.00445770
7316.00   0.89149117   0.00451860
7318.00   0.89611882   0.00447483
7320.00   0.90664971   0.00434275
7322.00   0.91492301   0.00440170
7324.00   0.92688894   0.00466903
7326.00   0.93225789   0.00479266
7328.00   0.93188709   0.00483052
7330.00   0.92721665   0.00478531
7332.00   0.91750389   0.00458366
7334.00   0.90285528   0.00422961
7336.00   0.89401531   0.00421418
7338.00   0.88772392   0.00457764
7340.00   0.88259488   0.00465212
7342.00   0.87834185   0.00452489
7344.00   0.87656945   0.00439977
7346.00   0.87829590   0.00434633
7348.00   0.88258928   0.00432452
7350.00   0.88720518   0.00435813
7352.00   0.89642835   0.00451558
7354.00   0.89764816   0.00451036
7356.00   0.89008129   0.00432705
7358.00   0.88659245   0.00424822
7360.00   0.88984549   0.00436706
7362.00   0.89587033   0.00453802
7364.00   0.90163028   0.00458903
7366.00   0.91140515   0.00458214
7368.00   0.90898931   0.00457611
7370.00   0.89362735   0.00459859
7372.00   0.88297719   0.00451001
7374.00   0.87519628   0.00420439
7376.00   0.87079716   0.00390721
7378.00   0.87210482   0.00390816
7380.00   0.87829655   0.00411014
7382.00   0.88638723   0.00422193
7384.00   0.90391868   0.00436613
7386.00   0.90998232   0.00445818
7388.00   0.90601540   0.00446413
7390.00   0.89860344   0.00451762
7392.00   0.88786477   0.00474521
7394.00   0.87456554   0.00503925
7396.00   0.87661892   0.00501204
7398.00   0.89675087   0.00463593
7400.00   0.90440518   0.00445838
7402.00   0.90678948   0.00436369
7404.00   0.90756190   0.00427271
7406.00   0.90836227   0.00412559
7408.00   0.90717447   0.00400088
7410.00   0.89999837   0.00408682
7412.00   0.88501495   0.00436521
7414.00   0.87678266   0.00456093
7416.00   0.86881495   0.00491200
7418.00   0.86703402   0.00496636
7420.00   0.87469095   0.00449546
7422.00   0.88477963   0.00394143
7424.00   0.88900203   0.00409676
7426.00   0.89094245   0.00472744
7428.00   0.89049768   0.00495720
7430.00   0.88481641   0.00513688
7432.00   0.88287562   0.00513701
7434.00   0.88546270   0.00487918
7436.00   0.88756239   0.00457767
7438.00   0.88571447   0.00441667
7440.00   0.88161868   0.00431663
7442.00   0.87807149   0.00417429
7444.00   0.87358904   0.00397224
7446.00   0.86988294   0.00388051
7448.00   0.86685270   0.00391576
7450.00   0.86367607   0.00394416
7452.00   0.85855764   0.00390677
7454.00   0.85362971   0.00385155
7456.00   0.85678166   0.00385424
7458.00   0.86910677   0.00387135
7460.00   0.87572205   0.00395993
7462.00   0.88106585   0.00412818
7464.00   0.88519460   0.00428804
7466.00   0.88758796   0.00447230
7468.00   0.88920301   0.00461815
7470.00   0.89215177   0.00458412
7472.00   0.89702213   0.00435387
7474.00   0.89590389   0.00432850
7476.00   0.88953704   0.00445126
7478.00   0.88323486   0.00451694
7480.00   0.87545115   0.00449113
7482.00   0.86846429   0.00449890
7484.00   0.86440158   0.00469689
7486.00   0.86191422   0.00503797
7488.00   0.86575347   0.00496644
7490.00   0.87828767   0.00432918
7492.00   0.88685155   0.00415732
7494.00   0.89372855   0.00452674
7496.00   0.89955574   0.00479624
7498.00   0.90501654   0.00464846
7500.00   0.90950704   0.00429015
7502.00   0.90911227   0.00426959
7504.00   0.90421623   0.00451250
7506.00   0.89823431   0.00462694
7508.00   0.88594097   0.00480583
7510.00   0.87899846   0.00483023
7512.00   0.88177377   0.00452830
7514.00   0.88905013   0.00410770
7516.00   0.89327425   0.00416444
7518.00   0.89904338   0.00464652
7520.00   0.89898390   0.00475665
7522.00   0.89458609   0.00471341
7524.00   0.88813853   0.00463568
7526.00   0.87676829   0.00448433
7528.00   0.86617523   0.00432089
7530.00   0.86516118   0.00425118
7532.00   0.87213874   0.00423071
7534.00   0.86988676   0.00428505
7536.00   0.86065233   0.00454719
7538.00   0.85487759   0.00456435
7540.00   0.84990060   0.00426654
7542.00   0.84821373   0.00396906
7544.00   0.85304880   0.00394938
7546.00   0.86284178   0.00408376
7548.00   0.86882931   0.00410243
7550.00   0.87403291   0.00406218
7552.00   0.87847042   0.00408453
7554.00   0.88150787   0.00413498
7556.00   0.88480431   0.00422293
7558.00   0.88952202   0.00439781
7560.00   0.89447486   0.00458777
7562.00   0.89663273   0.00456526
7564.00   0.89763498   0.00428863
7566.00   0.89555210   0.00423161
7568.00   0.88698000   0.00431143
7570.00   0.88327086   0.00437088
7572.00   0.88867217   0.00440764
7574.00   0.89573115   0.00442224
7576.00   0.89363062   0.00436931
7578.00   0.88414037   0.00423611
7580.00   0.88223642   0.00418676
7582.00   0.88256931   0.00417957
7584.00   0.88699949   0.00418893
7586.00   0.89733559   0.00414251
7588.00   0.90910304   0.00420808
7590.00   0.91910946   0.00443958
7592.00   0.92936915   0.00473361
7594.00   0.93240124   0.00576437
7596.00   0.92738932   0.00736903
7598.00   0.92500687   0.00841395
7600.00   0.92563415   0.00946751
7602.00   0.92278391   0.01005179
7604.00   0.91286182   0.00993363
7606.00   0.89823318   0.00931546
7608.00   0.88332570   0.00861016
7610.00   0.86115462   0.00722508
7612.00   0.84995246   0.00626090
7614.00   0.84845126   0.00545441
7616.00   0.84567416   0.00491895
7618.00   0.83677596   0.00481158
7620.00   0.82810867   0.00506624
7622.00   0.83102018   0.00546739
7624.00   0.84607494   0.00619858
7626.00   0.85071379   0.00654139
7628.00   0.84957075   0.00677600
7630.00   0.84951144   0.00684752
7632.00   0.84958422   0.00671664
7634.00   0.85107768   0.00647463
7636.00   0.85666674   0.00618839
7638.00   0.86547589   0.00573979
7640.00   0.87513268   0.00573375
7642.00   0.89419359   0.00632879
7644.00   0.89828539   0.00641677
7646.00   0.88179815   0.00596328
7648.00   0.86751378   0.00547183
7650.00   0.87281418   0.00536378
7652.00   0.88877851   0.00545492
7654.00   0.88892537   0.00533750
7656.00   0.87855011   0.00508062
7658.00   0.87047732   0.00489771
7660.00   0.86020601   0.00473535
7662.00   0.85112303   0.00460206
7664.00   0.84417838   0.00451552
7666.00   0.83882737   0.00446010
7668.00   0.83605331   0.00437469
7670.00   0.83726817   0.00418785
7672.00   0.83565044   0.00425835
7674.00   0.83226335   0.00465580
7676.00   0.82994360   0.00483681
7678.00   0.82847834   0.00471748
7680.00   0.82833952   0.00448139
7682.00   0.83120167   0.00432853
7684.00   0.83714193   0.00414801
7686.00   0.84170228   0.00411186
7688.00   0.84739238   0.00426530
7690.00   0.85087335   0.00431498
7692.00   0.85350943   0.00421433
7694.00   0.85305607   0.00414522
7696.00   0.84560108   0.00428247
7698.00   0.83195710   0.00454928
7700.00   0.82868612   0.00467080
7702.00   0.83245242   0.00473912
7704.00   0.83606184   0.00477701
7706.00   0.84404433   0.00467358
7708.00   0.84875828   0.00470090
7710.00   0.84639192   0.00508686
7712.00   0.83929288   0.00559968
7714.00   0.82881522   0.00564670
7716.00   0.80869830   0.00528789
7718.00   0.79849738   0.00509996
7720.00   0.79280531   0.00488682
7722.00   0.79075992   0.00472437
7724.00   0.79277611   0.00467002
7726.00   0.79805452   0.00465242
7728.00   0.80502462   0.00450923
7730.00   0.81819385   0.00417060
7732.00   0.81956446   0.00421369
7734.00   0.80352271   0.00460657
7736.00   0.80319452   0.00488414
7738.00   0.82640588   0.00510478
7740.00   0.85297078   0.00523897
7742.00   0.86352098   0.00515016
7744.00   0.86707956   0.00480893
7746.00   0.85937339   0.00492679
7748.00   0.83117914   0.00555816
7750.00   0.81585479   0.00573292
7752.00   0.80978620   0.00551239
7754.00   0.80834919   0.00519923
7756.00   0.81094611   0.00493789
7758.00   0.81784892   0.00465005
7760.00   0.82065475   0.00458968
7762.00   0.82050931   0.00483981
7764.00   0.82329947   0.00486527
7766.00   0.82814467   0.00476117
7768.00   0.83338088   0.00464173
7770.00   0.84011436   0.00450855
7772.00   0.84649402   0.00438022
7774.00   0.84486997   0.00441906
7776.00   0.83409995   0.00467209
7778.00   0.82984841   0.00470870
7780.00   0.82974261   0.00458764
7782.00   0.82700735   0.00452191
7784.00   0.81859004   0.00450608
7786.00   0.81023824   0.00455790
7788.00   0.80974042   0.00476542
7790.00   0.81404793   0.00512492
7792.00   0.82207555   0.00532760
7794.00   0.83945048   0.00556158
7796.00   0.85001850   0.00558359
7798.00   0.85336697   0.00533105
7800.00   0.85470414   0.00499719
7802.00   0.85771048   0.00473968
7804.00   0.86080146   0.00447665
7806.00   0.86088657   0.00437116
7808.00   0.85779732   0.00442105
7810.00   0.85544729   0.00449505
7812.00   0.85274458   0.00464099
7814.00   0.85032111   0.00479845
7816.00   0.84929055   0.00496604
7818.00   0.84863007   0.00513234
7820.00   0.84380591   0.00516398
7822.00   0.83311474   0.00509881
7824.00   0.82796687   0.00498323
7826.00   0.82318008   0.00472419
7828.00   0.82379234   0.00451813
7830.00   0.83218420   0.00441718
7832.00   0.84494025   0.00438002
7834.00   0.85677969   0.00438033
7836.00   0.87214512   0.00440921
7838.00   0.87985957   0.00455808
7840.00   0.88300329   0.00486897
7842.00   0.88273025   0.00509291
7844.00   0.87919754   0.00527012
7846.00   0.87192255   0.00537316
7848.00   0.85965502   0.00531904
7850.00   0.84179914   0.00510670
7852.00   0.82872152   0.00506028
7854.00   0.81428689   0.00515436
7856.00   0.80711538   0.00514253
7858.00   0.80788010   0.00502136
7860.00   0.81136447   0.00489736
7862.00   0.81480438   0.00481696
7864.00   0.81965518   0.00475887
7866.00   0.82510412   0.00483243
7868.00   0.83405685   0.00510809
7870.00   0.83781278   0.00520577
7872.00   0.83571506   0.00520982
7874.00   0.83557642   0.00517586
7876.00   0.84009230   0.00507299
7878.00   0.84691769   0.00495144
7880.00   0.85395038   0.00503392
7882.00   0.86605835   0.00539932
7884.00   0.86705786   0.00537467
7886.00   0.85827953   0.00501036
7888.00   0.85002059   0.00472856
7890.00   0.84261566   0.00460368
7892.00   0.83538401   0.00453315
7894.00   0.82900888   0.00443267
7896.00   0.82223040   0.00431534
7898.00   0.82110614   0.00432124
7900.00   0.82421064   0.00442555
7902.00   0.82998395   0.00456548
7904.00   0.84104681   0.00474270
7906.00   0.85184038   0.00495726
7908.00   0.85888058   0.00523620
7910.00   0.86437196   0.00556880
7912.00   0.85756534   0.00568626
7914.00   0.83502388   0.00568265
7916.00   0.81967789   0.00559109
7918.00   0.80563545   0.00533090
7920.00   0.79503095   0.00506499
7922.00   0.78995031   0.00486328
7924.00   0.78868508   0.00469514
7926.00   0.78621644   0.00463139
7928.00   0.78465873   0.00473218
7930.00   0.78300101   0.00472004
7932.00   0.78106081   0.00466654
7934.00   0.78018063   0.00459982
7936.00   0.77992558   0.00447611
7938.00   0.78118783   0.00437089
7940.00   0.78673261   0.00448679
7942.00   0.79760027   0.00484045
7944.00   0.80342412   0.00490699
7946.00   0.80669457   0.00480508
7948.00   0.80960739   0.00469176
7950.00   0.81171215   0.00449945
7952.00   0.81364816   0.00434159
7954.00   0.81662816   0.00436920
7956.00   0.82044512   0.00450599
7958.00   0.82189798   0.00483966
7960.00   0.82517195   0.00554220
7962.00   0.82036883   0.00583436
7964.00   0.80081373   0.00587482
7966.00   0.78707236   0.00573769
7968.00   0.79417938   0.00533844
7970.00   0.81358635   0.00466853
7972.00   0.82176936   0.00443697
7974.00   0.82443434   0.00456953
7976.00   0.83005148   0.00465316
7978.00   0.84062421   0.00480088
7980.00   0.84474468   0.00499054
7982.00   0.83708662   0.00520493
7984.00   0.82329351   0.00545507
7986.00   0.81338894   0.00578393
7988.00   0.80051893   0.00636848
7990.00   0.79703438   0.00637210
7992.00   0.80334985   0.00578872
7994.00   0.80740827   0.00535858
7996.00   0.80829054   0.00527070
7998.00   0.80800837   0.00524284
8000.00   0.80649942   0.00495053
8002.00   0.80184501   0.00440238
8004.00   0.80657458   0.00419988
8006.00   0.82196945   0.00429032
8008.00   0.83173412   0.00435028
8010.00   0.83713591   0.00442636
8012.00   0.84008610   0.00450643
8014.00   0.84013826   0.00455234
8016.00   0.83712858   0.00457922
8018.00   0.84016788   0.00469051
8020.00   0.85070956   0.00486089
8022.00   0.85396886   0.00504118
8024.00   0.85394824   0.00535846
8026.00   0.84892726   0.00550332
8028.00   0.83384788   0.00530246
8030.00   0.81403500   0.00488169
8032.00   0.81274736   0.00462387
8034.00   0.83083051   0.00436753
8036.00   0.83550012   0.00421775
8038.00   0.83471805   0.00419444
8040.00   0.83343059   0.00419086
8042.00   0.83078241   0.00417886
8044.00   0.82874221   0.00419709
8046.00   0.83395356   0.00428009
8048.00   0.84871167   0.00437614
8050.00   0.84841317   0.00465018
8052.00   0.83314329   0.00527649
8054.00   0.82563692   0.00548602
8056.00   0.82712764   0.00519604
8058.00   0.83127570   0.00477390
8060.00   0.83368289   0.00459027
8062.00   0.83633780   0.00448139
8064.00   0.83917540   0.00460398
8066.00   0.84540570   0.00518443
8068.00   0.84492117   0.00527985
8070.00   0.83605409   0.00481696
8072.00   0.82742631   0.00440780
8074.00   0.82272518   0.00455947
8076.00   0.82010907   0.00498249
8078.00   0.82556623   0.00510427
8080.00   0.84371775   0.00513839
8082.00   0.85210472   0.00508726
8084.00   0.85499817   0.00488362
8086.00   0.85719216   0.00469271
8088.00   0.85882503   0.00452913
8090.00   0.86051559   0.00441126
8092.00   0.86713225   0.00451481
8094.00   0.88132691   0.00491636
8096.00   0.88450903   0.00497763
8098.00   0.88012546   0.00482476
8100.00   0.87461472   0.00467941
8102.00   0.86752814   0.00453176
8104.00   0.85954249   0.00439487
8106.00   0.85271347   0.00434031
8108.00   0.84602773   0.00435379
8110.00   0.84044701   0.00435454
8112.00   0.83708334   0.00437246
8114.00   0.83154851   0.00439536
8116.00   0.82292628   0.00437032
8118.00   0.81471634   0.00442400
8120.00   0.80862594   0.00470425
8122.00   0.80359495   0.00512383
8124.00   0.80595434   0.00521340
8126.00   0.81887531   0.00505958
8128.00   0.82498562   0.00495515
8130.00   0.82571453   0.00480589
8132.00   0.82772738   0.00467577
8134.00   0.83483702   0.00459726
8136.00   0.84382850   0.00455290
8138.00   0.84694260   0.00454032
8140.00   0.84775293   0.00460458
8142.00   0.84365064   0.00458991
8144.00   0.83354193   0.00449907
8146.00   0.82268363   0.00445279
8148.00   0.80896348   0.00449109
8150.00   0.79656404   0.00455519
8152.00   0.79591072   0.00457191
8154.00   0.80553961   0.00458001
8156.00   0.81156927   0.00453345
8158.00   0.82389760   0.00424202
8160.00   0.82584828   0.00431386
8162.00   0.81273240   0.00489290
8164.00   0.79769909   0.00544891
8166.00   0.79286015   0.00564809
8168.00   0.79292917   0.00568445
8170.00   0.79553115   0.00561735
8172.00   0.80455869   0.00518836
8174.00   0.81013650   0.00513339
8176.00   0.81361657   0.00549704
8178.00   0.81623811   0.00582494
8180.00   0.81844193   0.00587442
8182.00   0.81998008   0.00581086
8184.00   0.82072347   0.00603240
8186.00   0.81842822   0.00649457
8188.00   0.82075644   0.00680142
8190.00   0.83224374   0.00717247
8192.00   0.83490872   0.00732940
8194.00   0.82103336   0.00717101
8196.00   0.79928076   0.00681076
8198.00   0.78366292   0.00643563
8200.00   0.76365733   0.00585302
8202.00   0.76094663   0.00546640
8204.00   0.77751577   0.00517625
8206.00   0.78826445   0.00499217
8208.00   0.79142720   0.00501314
8210.00   0.79172671   0.00506914
8212.00   0.79118854   0.00489331
8214.00   0.78827161   0.00451900
8216.00   0.78769761   0.00438789
8218.00   0.78980714   0.00443287
8220.00   0.78883123   0.00446563
8222.00   0.78328198   0.00452279
8224.00   0.77853602   0.00457982
8226.00   0.77753723   0.00461498
8228.00   0.77865130   0.00464060
8230.00   0.78804111   0.00461929
8232.00   0.81223416   0.00450902
8234.00   0.82300115   0.00448666
8236.00   0.82524377   0.00453895
8238.00   0.82348806   0.00459379
8240.00   0.81781930   0.00463800
8242.00   0.80893356   0.00467424
8244.00   0.80368233   0.00464460
8246.00   0.79969150   0.00447759
8248.00   0.79642802   0.00450537
8250.00   0.79391795   0.00469302
8252.00   0.79253668   0.00484978
8254.00   0.79342574   0.00495511
8256.00   0.79455978   0.00504185
8258.00   0.79148608   0.00512416
8260.00   0.78291547   0.00522227
8262.00   0.78504562   0.00520420
8264.00   0.79816681   0.00496689
8266.00   0.80607402   0.00494149
8268.00   0.80893213   0.00525253
8270.00   0.80952066   0.00552913
8272.00   0.80875689   0.00542255
8274.00   0.80586690   0.00501848
8276.00   0.80499017   0.00513056
8278.00   0.80654866   0.00575568
8280.00   0.80480975   0.00597472
8282.00   0.80057621   0.00586103
8284.00   0.79460251   0.00574846
8286.00   0.78608578   0.00579889
8288.00   0.77577478   0.00592076
8290.00   0.77057755   0.00609720
8292.00   0.76700401   0.00655362
8294.00   0.76853693   0.00652863
8296.00   0.77723819   0.00601277
8298.00   0.78485560   0.00557133
8300.00   0.78862864   0.00541928
8302.00   0.79149795   0.00539599
8304.00   0.79770875   0.00535777
8306.00   0.81023377   0.00543264
8308.00   0.80929446   0.00531351
8310.00   0.79582173   0.00492095
8312.00   0.78482389   0.00472505
8314.00   0.77644747   0.00487181
8316.00   0.76945651   0.00507659
8318.00   0.76409465   0.00505706
8320.00   0.75933743   0.00492317
8322.00   0.76186210   0.00476661
8324.00   0.77596796   0.00445352
8326.00   0.78158510   0.00427906
8328.00   0.77684462   0.00422912
8330.00   0.77307028   0.00427083
8332.00   0.77847803   0.00434336
8334.00   0.78911650   0.00446632
8336.00   0.79611260   0.00498212
8338.00   0.80317307   0.00590894
8340.00   0.80814117   0.00646450
8342.00   0.81284475   0.00694807
8344.00   0.81385511   0.00722938
8346.00   0.80794644   0.00725092
8348.00   0.79846197   0.00708623
8350.00   0.79584122   0.00685980
8352.00   0.80079210   0.00647201
8354.00   0.79649913   0.00605197
8356.00   0.78203583   0.00538231
8358.00   0.77428603   0.00488066
8360.00   0.77769089   0.00472466
8362.00   0.78513247   0.00476212
8364.00   0.78835583   0.00481082
8366.00   0.79126269   0.00502146
8368.00   0.79087603   0.00496423
8370.00   0.78566724   0.00457190
8372.00   0.78309476   0.00443075
8374.00   0.78377026   0.00457900
8376.00   0.78477830   0.00484008
8378.00   0.78388053   0.00516199
8380.00   0.78205127   0.00559260
8382.00   0.78006262   0.00558493
8384.00   0.77639085   0.00507962
8386.00   0.77508616   0.00485000
8388.00   0.77393311   0.00472184
8390.00   0.77646327   0.00480551
8392.00   0.78767830   0.00524359
8394.00   0.80371386   0.00585711
8396.00   0.80461574   0.00613985
8398.00   0.79275286   0.00640141
8400.00   0.78408635   0.00632516
8402.00   0.76751637   0.00578900
8404.00   0.76108181   0.00530792
8406.00   0.77402407   0.00504352
8408.00   0.79449040   0.00490353
8410.00   0.80047244   0.00490440
8412.00   0.79886216   0.00515278
8414.00   0.79679114   0.00516442
8416.00   0.78792566   0.00493610
8418.00   0.78443146   0.00491598
8420.00   0.78986865   0.00512799
8422.00   0.79601932   0.00547282
8424.00   0.79412788   0.00595165
8426.00   0.78804404   0.00661773
8428.00   0.77726489   0.00677310
8430.00   0.75557315   0.00662039
8432.00   0.74286044   0.00634046
8434.00   0.73801428   0.00573377
8436.00   0.73649257   0.00509414
8438.00   0.73519665   0.00473948
8440.00   0.73561662   0.00456948
8442.00   0.74435037   0.00449976
8444.00   0.76376462   0.00464916
8446.00   0.77860051   0.00475552
8448.00   0.79799080   0.00493957
8450.00   0.80773687   0.00504619
8452.00   0.79759556   0.00491278
8454.00   0.77786797   0.00471884
8456.00   0.77579147   0.00507588
8458.00   0.78903985   0.00597284
8460.00   0.78846204   0.00631416
8462.00   0.78335023   0.00653898
8464.00   0.77215219   0.00649191
8466.00   0.74963403   0.00600467
8468.00   0.72540134   0.00529525
8470.00   0.71629763   0.00487364
8472.00   0.71696717   0.00457084
8474.00   0.71894020   0.00440606
8476.00   0.72898471   0.00450741
8478.00   0.73468393   0.00453952
8480.00   0.73697931   0.00451651
8482.00   0.73657686   0.00448486
8484.00   0.73247367   0.00445104
8486.00   0.72463745   0.00440386
8488.00   0.72000360   0.00445401
8490.00   0.71504390   0.00457281
8492.00   0.71363235   0.00472355
8494.00   0.71542263   0.00495308
8496.00   0.71930379   0.00514710
8498.00   0.72637039   0.00526139
8500.00   0.73542452   0.00532818
8502.00   0.73687929   0.00533984
8504.00   0.72930270   0.00525058
8506.00   0.72910398   0.00522659
8508.00   0.73086089   0.00527368
8510.00   0.73655272   0.00524605
8512.00   0.75032300   0.00507415
8514.00   0.76576257   0.00483706
8516.00   0.76760054   0.00468952
8518.00   0.75847042   0.00454885
8520.00   0.75319529   0.00453917
8522.00   0.74409878   0.00468655
8524.00   0.74034321   0.00480326
8526.00   0.74387950   0.00490035
8528.00   0.74982840   0.00497690
8530.00   0.75389081   0.00501224
8532.00   0.75879210   0.00502388
8534.00   0.75774449   0.00495431
8536.00   0.74827898   0.00462976
8538.00   0.74502337   0.00463828
8540.00   0.74562007   0.00496517
8542.00   0.75018269   0.00538953
8544.00   0.76185071   0.00589838
8546.00   0.77911687   0.00647166
8548.00   0.78277361   0.00648625
8550.00   0.77495074   0.00589004
8552.00   0.77054548   0.00559945
8554.00   0.76467156   0.00548609
8556.00   0.76042593   0.00533363
8558.00   0.76001507   0.00499323
8560.00   0.76118207   0.00458919
8562.00   0.75844747   0.00454158
8564.00   0.75395912   0.00492865
8566.00   0.74732286   0.00491381
8568.00   0.73465347   0.00462091
8570.00   0.72738707   0.00440286
8572.00   0.72771072   0.00430578
8574.00   0.73187983   0.00428565
8576.00   0.73712242   0.00435933
8578.00   0.74735427   0.00454321
8580.00   0.74664646   0.00467582
8582.00   0.73330069   0.00479076
8584.00   0.72785354   0.00494137
8586.00   0.72781020   0.00500365
8588.00   0.73380786   0.00523780
8590.00   0.75243592   0.00601599
8592.00   0.78350657   0.00711140
8594.00   0.78243822   0.00699003
8596.00   0.74582058   0.00537912
8598.00   0.73278928   0.00459165
8600.00   0.73434335   0.00470437
8602.00   0.74206066   0.00491263
8604.00   0.75627351   0.00484193
8606.00   0.77550101   0.00473359
8608.00   0.78052622   0.00490557
8610.00   0.77590513   0.00547325
8612.00   0.76959109   0.00558349
8614.00   0.75711381   0.00534185
8616.00   0.74442816   0.00519001
8618.00   0.73163134   0.00526074
8620.00   0.71937251   0.00541079
8622.00   0.71159548   0.00550226
8624.00   0.70654523   0.00558801
8626.00   0.70519328   0.00567530
8628.00   0.70937955   0.00581656
8630.00   0.71277344   0.00585021
8632.00   0.71639991   0.00574662
8634.00   0.71881056   0.00558472
8636.00   0.71584004   0.00542284
8638.00   0.70679593   0.00519861
8640.00   0.71272826   0.00519443
8642.00   0.73487878   0.00543990
8644.00   0.74779803   0.00555498
8646.00   0.75177103   0.00555874
8648.00   0.75611788   0.00556755
8650.00   0.76677567   0.00565192
8652.00   0.78063923   0.00577279
8654.00   0.79078686   0.00585029
8656.00   0.80681747   0.00591703
8658.00   0.80495155   0.00596041
8660.00   0.78375399   0.00601013
8662.00   0.76307297   0.00599761
8664.00   0.74693245   0.00586868
8666.00   0.73372233   0.00567775
8668.00   0.73284537   0.00558638
8670.00   0.74912000   0.00558145
8672.00   0.75023419   0.00549229
8674.00   0.74094701   0.00529240
8676.00   0.73556751   0.00519731
8678.00   0.73319054   0.00519401
8680.00   0.73577404   0.00532128
8682.00   0.75137335   0.00573826
8684.00   0.78190136   0.00649957
8686.00   0.79628968   0.00656707
8688.00   0.80092907   0.00601054
8690.00   0.80646199   0.00568441
8692.00   0.81270075   0.00558174
8694.00   0.81732619   0.00556766
8696.00   0.81887555   0.00562022
8698.00   0.81793749   0.00576850
8700.00   0.81633461   0.00566212
8702.00   0.81470031   0.00518575
8704.00   0.80900878   0.00505037
8706.00   0.79650259   0.00529093
8708.00   0.78638047   0.00547006
8710.00   0.78322804   0.00539590
8712.00   0.78405511   0.00519798
8714.00   0.78548229   0.00505677
8716.00   0.79263365   0.00480335
8718.00   0.79225802   0.00478692
8720.00   0.78473932   0.00504730
8722.00   0.77983993   0.00519016
8724.00   0.78038377   0.00508082
8726.00   0.78285182   0.00491173
8728.00   0.78262973   0.00501455
8730.00   0.77891624   0.00536234
8732.00   0.78398007   0.00542949
8734.00   0.79904288   0.00532476
8736.00   0.80919009   0.00522916
8738.00   0.81472147   0.00507075
8740.00   0.81685853   0.00497705
8742.00   0.81454736   0.00517519
8744.00   0.80729902   0.00560986
8746.00   0.80352503   0.00569731
8748.00   0.80121672   0.00548725
8750.00   0.79802710   0.00546409
8752.00   0.79615605   0.00542232
8754.00   0.79124242   0.00566379
8756.00   0.77909613   0.00645906
8758.00   0.76202500   0.00749625
8760.00   0.75049442   0.00798692
8762.00   0.73700404   0.00835800
8764.00   0.73431528   0.00837925
8766.00   0.74166316   0.00791340
8768.00   0.75228614   0.00747896
8770.00   0.76592988   0.00727058
8772.00   0.78165996   0.00716294
8774.00   0.79187036   0.00711276
8776.00   0.79935032   0.00726932
8778.00   0.80439836   0.00711872
8780.00   0.80226302   0.00662976
8782.00   0.80636114   0.00628518
8784.00   0.82378978   0.00617554
8786.00   0.84094840   0.00618974
8788.00   0.83839923   0.00628181
8790.00   0.82153761   0.00655967
8792.00   0.80687886   0.00644994
8794.00   0.77862108   0.00594223
8796.00   0.76905078   0.00556739
8798.00   0.78276086   0.00525918
8800.00   0.80043244   0.00507020
8802.00   0.80781305   0.00512793
8804.00   0.81163484   0.00539014
8806.00   0.81403911   0.00551673
8808.00   0.81429917   0.00572678
8810.00   0.81242347   0.00569101
8812.00   0.80466998   0.00511567
8814.00   0.80060208   0.00490006
8816.00   0.80494916   0.00547425
8818.00   0.81452221   0.00645077
8820.00   0.82557523   0.00771180
8822.00   0.85135293   0.00979301
8824.00   0.85093385   0.01037822
8826.00   0.83170521   0.01014944
8828.00   0.80677378   0.00973338
8830.00   0.77253467   0.00912308
8832.00   0.73662019   0.00832888
8834.00   0.72147954   0.00772724
8836.00   0.72506523   0.00718676
8838.00   0.71455950   0.00672542
8840.00   0.68499225   0.00630507
8842.00   0.68155885   0.00610474
8844.00   0.71086872   0.00622587
8846.00   0.75255853   0.00646898
8848.00   0.79090536   0.00665359
8850.00   0.83542931   0.00687521
8852.00   0.86268580   0.00697565
8854.00   0.88113636   0.00700206
8856.00   0.88838571   0.00698521
8858.00   0.87588561   0.00685520
8860.00   0.86546522   0.00676666
8862.00   0.87246847   0.00684486
8864.00   0.88839638   0.00701742
8866.00   0.89548379   0.00708576
8868.00   0.90472043   0.00725974
8870.00   0.90025479   0.00707810
8872.00   0.87399405   0.00630012
8874.00   0.85881370   0.00577969
8876.00   0.87067950   0.00593446
8878.00   0.89275640   0.00645308
8880.00   0.89305347   0.00704944
8882.00   0.88025749   0.00804645
8884.00   0.86810786   0.00835255
8886.00   0.85106730   0.00836608
8888.00   0.83308953   0.00807591
8890.00   0.80754662   0.00704320
8892.00   0.78727955   0.00587531
8894.00   0.79292059   0.00586463
8896.00   0.81711978   0.00601097
8898.00   0.85165799   0.00919124
8900.00   0.93813550   0.01532064
8902.00   0.95674294   0.01651966
8904.00   0.88555962   0.01300916
8906.00   0.80970567   0.00736239
8908.00   0.79443657   0.00497570
8910.00   0.80970997   0.00598535
8912.00   0.81966501   0.00662057
8914.00   0.85355544   0.00863632
8916.00   0.85592991   0.00960839
8918.00   0.82482833   0.01047165
8920.00   0.79715431   0.01070997
8922.00   0.78709549   0.00983536
8924.00   0.78594381   0.00807078
8926.00   0.79457152   0.00708985
8928.00   0.82233661   0.00654445
8930.00   0.83544028   0.00605643
8932.00   0.83885151   0.00580023
8934.00   0.84668255   0.00580599
8936.00   0.86435682   0.00621015
8938.00   0.88390529   0.00672984
8940.00   0.89421082   0.00691315
8942.00   0.90323865   0.00695606
8944.00   0.89354372   0.00689890
8946.00   0.85231835   0.00647897
8948.00   0.83410603   0.00642880
8950.00   0.84862685   0.00686315
8952.00   0.86655134   0.00739338
8954.00   0.86268568   0.00778923
8956.00   0.84915948   0.00820844
8958.00   0.81791532   0.00820812
8960.00   0.75177062   0.00779954
8962.00   0.71353406   0.00741146
8964.00   0.69517601   0.00688385
8966.00   0.68865329   0.00637323
8968.00   0.69241071   0.00602012
8970.00   0.70707810   0.00577708
8972.00   0.72402650   0.00563294
8974.00   0.75268590   0.00564265
8976.00   0.77173454   0.00568040
8978.00   0.78949082   0.00573845
8980.00   0.79890847   0.00592329
8982.00   0.79585171   0.00631729
8984.00   0.78509223   0.00677418
8986.00   0.77584946   0.00701713
8988.00   0.75717652   0.00714731
8990.00   0.75951684   0.00726079
8992.00   0.78030735   0.00720764
8994.00   0.80011499   0.00734835
8996.00   0.82182038   0.00783258
8998.00   0.84027261   0.00830509
9000.00   0.84289640   0.00839070
9002.00   0.83126807   0.00825211
9004.00   0.82994229   0.00798923
9006.00   0.83331841   0.00739207
9008.00   0.83437407   0.00692056
9010.00   0.83327377   0.00643549
9012.00   0.83178610   0.00616219
9014.00   0.83075148   0.00642577
9016.00   0.82971060   0.00706627
9018.00   0.82992601   0.00732096
9020.00   0.83045220   0.00757963
9022.00   0.83296746   0.00748961
9024.00   0.83810091   0.00686508
9026.00   0.84323609   0.00631985
9028.00   0.84713382   0.00624466
9030.00   0.85070288   0.00640407
9032.00   0.85523939   0.00642289
9034.00   0.86042470   0.00640470
9036.00   0.86570817   0.00646855
9038.00   0.87151408   0.00661399
9040.00   0.87711102   0.00673654
9042.00   0.88385236   0.00679721
9044.00   0.88929051   0.00685955
9046.00   0.88860512   0.00703450
9048.00   0.88512540   0.00736345
9050.00   0.87177467   0.00737979
9052.00   0.84202194   0.00718829
9054.00   0.82209462   0.00691643
9056.00   0.81280863   0.00642282
9058.00   0.80790287   0.00593866
9060.00   0.80481738   0.00583776
9062.00   0.80618262   0.00602792
9064.00   0.79643828   0.00601919
9066.00   0.77100909   0.00593469
9068.00   0.76076674   0.00589733
9070.00   0.76375985   0.00585184
9072.00   0.77068299   0.00587976
9074.00   0.77940661   0.00605210
9076.00   0.79062659   0.00631433
9078.00   0.78969514   0.00649934
9080.00   0.77212179   0.00671724
9082.00   0.77019912   0.00680598
9084.00   0.77778733   0.00672079
9086.00   0.78774440   0.00671529
9088.00   0.80120629   0.00690873
9090.00   0.81524789   0.00715630
9092.00   0.81734478   0.00722061
9094.00   0.80829924   0.00720197
9096.00   0.80474073   0.00708131
9098.00   0.79844850   0.00666018
9100.00   0.79858166   0.00650652
9102.00   0.80852735   0.00675597
9104.00   0.82116634   0.00713018
9106.00   0.82921523   0.00742431
9108.00   0.83832133   0.00782430
9110.00   0.83100045   0.00765331
9112.00   0.80447847   0.00673781
9114.00   0.78474844   0.00614242
9116.00   0.76571584   0.00584538
9118.00   0.75321913   0.00572806
9120.00   0.75523436   0.00577422
9122.00   0.76840365   0.00599937
9124.00   0.77334642   0.00618797
9126.00   0.77844161   0.00655173
9128.00   0.77796227   0.00662408
9130.00   0.76873600   0.00639153
9132.00   0.76247472   0.00618611
9134.00   0.76404500   0.00617435
9136.00   0.77000427   0.00623731
9138.00   0.77753556   0.00620040
9140.00   0.79239601   0.00606398
9142.00   0.79758090   0.00605438
9144.00   0.79725593   0.00605631
9146.00   0.79396415   0.00620548
9148.00   0.78522539   0.00661137
9150.00   0.77566558   0.00704359
9152.00   0.77488756   0.00717069
9154.00   0.77890241   0.00709861
9156.00   0.78835422   0.00707125
9158.00   0.81469107   0.00702961
9160.00   0.82284868   0.00691933
9162.00   0.80890018   0.00667283
9164.00   0.78798401   0.00643306
9166.00   0.77078140   0.00638128
9168.00   0.75114870   0.00646502
9170.00   0.74344844   0.00642114
9172.00   0.74646246   0.00623919
9174.00   0.74888921   0.00622640
9176.00   0.75733316   0.00642253
9178.00   0.76076549   0.00658048
9180.00   0.74969733   0.00658102
9182.00   0.73030663   0.00649588
9184.00   0.72490460   0.00636982
9186.00   0.73023802   0.00603593
9188.00   0.73070818   0.00598220
9190.00   0.72774333   0.00622652
9192.00   0.72917366   0.00636424
9194.00   0.73794115   0.00625436
9196.00   0.75080252   0.00605688
9198.00   0.76338583   0.00603214
9200.00   0.78158551   0.00610397
9202.00   0.78746098   0.00618037
9204.00   0.77817965   0.00631481
9206.00   0.77805948   0.00642763
9208.00   0.79417431   0.00650733
9210.00   0.81092042   0.00658454
9212.00   0.80873716   0.00669428
9214.00   0.79110497   0.00683572
9216.00   0.79287946   0.00689945
9218.00   0.81050652   0.00692228
9220.00   0.82008994   0.00690554
9222.00   0.82458800   0.00682344
9224.00   0.82513636   0.00673430
9226.00   0.81950843   0.00668016
9228.00   0.80845034   0.00664030
9230.00   0.80776107   0.00663049
9232.00   0.81626683   0.00669438
9234.00   0.82006562   0.00667202
9236.00   0.82300276   0.00655654
9238.00   0.82367826   0.00646235
9240.00   0.82037944   0.00641270
9242.00   0.81487560   0.00640511
9244.00   0.81284058   0.00654148
9246.00   0.81313127   0.00693731
9248.00   0.81227142   0.00700033
9250.00   0.81370568   0.00683067
9252.00   0.81062776   0.00666242
9254.00   0.80145657   0.00644136
9256.00   0.78862649   0.00628102
9258.00   0.77319539   0.00651997
9260.00   0.74848086   0.00716346
9262.00   0.74786335   0.00729677
9264.00   0.77114481   0.00703400
9266.00   0.78721142   0.00695951
9268.00   0.80248660   0.00716752
9270.00   0.80915195   0.00733576
9272.00   0.79371840   0.00716953
9274.00   0.75962043   0.00674633
9276.00   0.74097395   0.00662605
9278.00   0.71934062   0.00660613
9280.00   0.71733218   0.00677108
9282.00   0.73677236   0.00724171
9284.00   0.76205283   0.00762172
9286.00   0.78971338   0.00772632
9288.00   0.82049203   0.00768991
9290.00   0.82897264   0.00768410
9292.00   0.81078565   0.00751869
9294.00   0.81101626   0.00762719
9296.00   0.81446958   0.00768709
9298.00   0.82810038   0.00822048
9300.00   0.86153066   0.00928695
9302.00   0.90075475   0.01059765
9304.00   0.91292220   0.01198048
9306.00   0.91182500   0.01375251
9308.00   0.89266622   0.01458739
9310.00   0.84841132   0.01493824
9312.00   0.80400664   0.01508520
9314.00   0.75209367   0.01483488
9316.00   0.70585030   0.01456935
9318.00   0.68876147   0.01496567
9320.00   0.69552833   0.01592254
9322.00   0.69025892   0.01580129
9324.00   0.68983823   0.01487885
9326.00   0.67788720   0.01387261
9328.00   0.64549106   0.01229958
9330.00   0.61953741   0.01081120
9332.00   0.62140846   0.01023227
9334.00   0.64071512   0.01034710
9336.00   0.65027517   0.01070785
9338.00   0.66038823   0.01199302
9340.00   0.66796976   0.01230638
9342.00   0.66824621   0.01204769
9344.00   0.67571068   0.01150441
9346.00   0.70191139   0.01052509
9348.00   0.73501873   0.00920395
9350.00   0.74135053   0.00877611
9352.00   0.72778159   0.00928111
9354.00   0.71516573   0.00929344
9356.00   0.68712944   0.00924238
9358.00   0.67242920   0.00912503
9360.00   0.67541802   0.00857249
9362.00   0.68953472   0.00823858
9364.00   0.71242821   0.00930958
9366.00   0.75197184   0.01090920
9368.00   0.77016497   0.01338889
9370.00   0.79433930   0.01710734
9372.00   0.77800840   0.01920947
9374.00   0.69773775   0.02050891
9376.00   0.61574036   0.02097393
9378.00   0.58618170   0.02014878
9380.00   0.58353978   0.01798655
9382.00   0.61236340   0.01611116
9384.00   0.70450926   0.01320598
9386.00   0.75303447   0.01111536
9388.00   0.76720816   0.01024685
9390.00   0.77778202   0.00978687
9392.00   0.80332571   0.00923915
9394.00   0.83120942   0.00894087
9396.00   0.82604277   0.00906971
9398.00   0.78734249   0.01006413
9400.00   0.75935614   0.01017369
9402.00   0.72087729   0.00967113
9404.00   0.69550580   0.00921292
9406.00   0.68928486   0.00889570
9408.00   0.69607925   0.00870366
9410.00   0.71290714   0.00892978
9412.00   0.75270641   0.00956823
9414.00   0.76317441   0.01002684
9416.00   0.75349480   0.01053909
9418.00   0.74401796   0.01095138
9420.00   0.73131114   0.01136352
9422.00   0.72065997   0.01161079
9424.00   0.71926826   0.01138727
9426.00   0.71989983   0.01064720
9428.00   0.75459433   0.01064419
9430.00   0.83753526   0.01044221
9432.00   0.89190704   0.01168781
9434.00   0.95116007   0.01448683
9436.00   0.96410352   0.01680628
9438.00   0.87034416   0.01825747
9440.00   0.69925940   0.01933578
9442.00   0.62969178   0.01834370
9444.00   0.61130702   0.01355409
9446.00   0.60630500   0.01076260
9448.00   0.63859224   0.00958928
9450.00   0.66978407   0.00944598
9452.00   0.68619853   0.01037814
9454.00   0.69783509   0.01197636
9456.00   0.70957541   0.01291185
9458.00   0.72298759   0.01412730
9460.00   0.72527307   0.01416195
9462.00   0.71322197   0.01281667
9464.00   0.70695692   0.01189993
9466.00   0.70363259   0.01176797
9468.00   0.70928407   0.01207315
9470.00   0.74348271   0.01264573
9472.00   0.81316841   0.01347342
9474.00   0.83360231   0.01467867
9476.00   0.83145058   0.01710861
9478.00   0.80717647   0.01772995
9480.00   0.73817503   0.01642234
9482.00   0.67493111   0.01435140
9484.00   0.67052048   0.01241454
9486.00   0.70502621   0.00983186
9488.00   0.70532954   0.00878906
9490.00   0.67835188   0.00970516
9492.00   0.68063569   0.01028826
9494.00   0.71499592   0.01099798
9496.00   0.74488002   0.01179695
9498.00   0.75338227   0.01290367
9500.00   0.75066251   0.01402771
9502.00   0.74147886   0.01370764
9504.00   0.71741629   0.01148040
9506.00   0.70114523   0.01033406
9508.00   0.67668051   0.00905761
9510.00   0.67000657   0.00895206
9512.00   0.69905299   0.01094233
9514.00   0.73812902   0.01317234
9516.00   0.73485065   0.01359441
9518.00   0.69618076   0.01299805
9520.00   0.68333280   0.01252108
9522.00   0.67501009   0.01151421
9524.00   0.67830539   0.01070723
9526.00   0.69945133   0.01013948
9528.00   0.72478569   0.00977521
9530.00   0.73713553   0.00969971
9532.00   0.74159569   0.00994401
9534.00   0.75792354   0.01008341
9536.00   0.78906709   0.01018449
9538.00   0.80561179   0.01046522
9540.00   0.80909622   0.01108574
9542.00   0.80720258   0.01152959
9544.00   0.80306387   0.01141021
9546.00   0.79504925   0.01093374
9548.00   0.78872395   0.01097040
9550.00   0.78706884   0.01142021
9552.00   0.77386642   0.01160977
9554.00   0.74473995   0.01171759
9556.00   0.72212428   0.01173680
9558.00   0.71547002   0.01152617
9560.00   0.71642751   0.01126827
9562.00   0.71291131   0.01165281
9564.00   0.71593344   0.01282088
9566.00   0.70053619   0.01306349
9568.00   0.65952605   0.01289559
9570.00   0.63503093   0.01241775
9572.00   0.63365829   0.01134584
9574.00   0.64388704   0.01002944
9576.00   0.65791726   0.00940772
9578.00   0.68405932   0.00927502
9580.00   0.69254076   0.00925808
9582.00   0.68841457   0.00972594
9584.00   0.68509698   0.00992125
9586.00   0.67636985   0.00979044
9588.00   0.67289144   0.00967107
9590.00   0.68634593   0.00983175
9592.00   0.71204501   0.01014940
9594.00   0.73621780   0.01043992
9596.00   0.77493626   0.01079094
9598.00   0.79133314   0.01110546
9600.00   0.78398335   0.01151844
9602.00   0.77628857   0.01174306
9604.00   0.78004229   0.01158548
9606.00   0.78746629   0.01119106
9608.00   0.78756034   0.01102479
9610.00   0.78369898   0.01095839
9612.00   0.77787751   0.01087548
9614.00   0.77178192   0.01084231
9616.00   0.75912935   0.01077208
9618.00   0.73485315   0.01064748
9620.00   0.70657951   0.01048300
9622.00   0.68938541   0.01026999
9624.00   0.67783344   0.00995113
9626.00   0.66969413   0.00978915
9628.00   0.66567564   0.00966008
9630.00   0.66572475   0.00970816
9632.00   0.66944778   0.01002263
9634.00   0.67767626   0.01038106
9636.00   0.69286114   0.01058414
9638.00   0.71611893   0.01075326
9640.00   0.72852349   0.01066149
9642.00   0.73648942   0.01022949
9644.00   0.73930889   0.00991405
9646.00   0.73491418   0.00962249
9648.00   0.72857916   0.00940706
9650.00   0.72342235   0.00935409
9652.00   0.71781415   0.00942295
9654.00   0.71284014   0.00938301
9656.00   0.70392835   0.00902615
9658.00   0.70496505   0.00930459
9660.00   0.71414179   0.01007616
9662.00   0.72678411   0.01091944
9664.00   0.74427474   0.01193349
9666.00   0.76379687   0.01288020
9668.00   0.77245963   0.01292073
9670.00   0.77084255   0.01201578
9672.00   0.77564210   0.01167272
9674.00   0.78739971   0.01143524
9676.00   0.79005724   0.01134816
9678.00   0.78111303   0.01154689
9680.00   0.76521373   0.01177410
9682.00   0.74466330   0.01161662
9684.00   0.71365333   0.01114377
9686.00   0.70149893   0.01092018
9688.00   0.70154202   0.01069034
9690.00   0.70559132   0.01070728
9692.00   0.71886706   0.01100252
9694.00   0.73168927   0.01142134
9696.00   0.73538268   0.01188689
9698.00   0.73411310   0.01243796
9700.00   0.72756219   0.01280431
9702.00   0.70855719   0.01317029
9704.00   0.70063150   0.01327673
9706.00   0.69970459   0.01307537
9708.00   0.70318568   0.01284625
9710.00   0.71312344   0.01263849
9712.00   0.72698641   0.01245641
9714.00   0.72847873   0.01273000
9716.00   0.72363764   0.01354210
9718.00   0.71198142   0.01398783
9720.00   0.68355864   0.01466356
9722.00   0.66641313   0.01469270
9724.00   0.66955358   0.01354484
9726.00   0.68102890   0.01182241
9728.00   0.68394548   0.01113978
9730.00   0.67945629   0.01109710
9732.00   0.69378442   0.01124186
9734.00   0.74123412   0.01211287
9736.00   0.75503647   0.01246837
9738.00   0.72237837   0.01220344
9740.00   0.67928630   0.01177768
9742.00   0.65843379   0.01159877
9744.00   0.64474124   0.01148519
9746.00   0.64339310   0.01150197
9748.00   0.65882969   0.01192906
9750.00   0.67169100   0.01181458
9752.00   0.68782920   0.01095643
9754.00   0.70113927   0.01014810
9756.00   0.70669860   0.01005344
9758.00   0.70718628   0.01036333
9760.00   0.70716399   0.01044899
9762.00   0.70097238   0.01055894
9764.00   0.70210701   0.01059858
9766.00   0.71250010   0.01062182
9768.00   0.71754962   0.01055249
9770.00   0.71025437   0.01024281
9772.00   0.69784570   0.00987393
9774.00   0.69374377   0.01003441
9776.00   0.69110656   0.01045924
9778.00   0.69699842   0.01124712
9780.00   0.72240591   0.01223315
9782.00   0.72945702   0.01353135
9784.00   0.70191288   0.01536566
9786.00   0.67142123   0.01705048
9788.00   0.68327707   0.01789529
9790.00   0.73057723   0.01832075
9792.00   0.73811948   0.01838654
9794.00   0.71570772   0.01808240
9796.00   0.70699018   0.01740262
9798.00   0.71311921   0.01597512
9800.00   0.71908581   0.01442023
9802.00   0.71364206   0.01345772
9804.00   0.70149165   0.01285515
9806.00   0.69794679   0.01247254
9808.00   0.69906229   0.01252025
9810.00   0.70080739   0.01260250
9812.00   0.70414335   0.01292730
9814.00   0.70889479   0.01317544
9816.00   0.71678650   0.01323271
9818.00   0.72584885   0.01316938
9820.00   0.72560281   0.01291290
9822.00   0.71331054   0.01214563
9824.00   0.71170110   0.01200732
9826.00   0.72094595   0.01257733
9828.00   0.72179049   0.01272719
9830.00   0.70570588   0.01204295
9832.00   0.68533093   0.01106910
9834.00   0.68071711   0.01082610
9836.00   0.68396086   0.01100656
9838.00   0.69479650   0.01135690
9840.00   0.72683096   0.01199320
9842.00   0.73969442   0.01270307
9844.00   0.72375923   0.01374306
9846.00   0.70561272   0.01453973
9848.00   0.70995742   0.01446648
9850.00   0.72571659   0.01370355
9852.00   0.75306439   0.01345171
9854.00   0.78763705   0.01330185
9856.00   0.84305179   0.01333167
9858.00   0.93340230   0.01343869
9860.00   1.01833177   0.01383306
9862.00   1.07933724   0.01448383
9864.00   1.12571287   0.01538004
9866.00   1.12624085   0.01723841
9868.00   1.08869076   0.02065750
9870.00   1.02367663   0.02187611
9872.00   0.89562249   0.02214608
9874.00   0.79259646   0.02157652
9876.00   0.74057543   0.01963206
9878.00   0.71801353   0.01665333
9880.00   0.71476549   0.01501234
9882.00   0.74838448   0.01418533
9884.00   0.76324004   0.01379245
9886.00   0.78205180   0.01438739
9888.00   0.78798944   0.01490426
9890.00   0.77456236   0.01535570
9892.00   0.75482488   0.01575739
9894.00   0.74613482   0.01598092
9896.00   0.74432427   0.01615244
9898.00   0.72906893   0.01586269
9900.00   0.69599074   0.01450756
9902.00   0.67863274   0.01425171
9904.00   0.67961836   0.01515821
9906.00   0.68284678   0.01643995
9908.00   0.67488682   0.01780631
9910.00   0.66133237   0.01937743
9912.00   0.66583139   0.02011957
9914.00   0.69421810   0.02065826
9916.00   0.70137715   0.02038795
9918.00   0.68815666   0.01897761
9920.00   0.67871243   0.01745059
9922.00   0.68573624   0.01619767
9924.00   0.69938582   0.01507059
9926.00   0.69942957   0.01481090
9928.00   0.67705375   0.01567235
9930.00   0.68934107   0.01601282
9932.00   0.73942190   0.01604005
9934.00   0.77104521   0.01654809
9936.00   0.77303070   0.01741514
9938.00   0.75963694   0.01878621
9940.00   0.73878467   0.02123910
9942.00   0.69359571   0.02474188
9944.00   0.69264227   0.02660509
9946.00   0.74370694   0.02842265
9948.00   0.75932866   0.02869365
9950.00   0.72667599   0.02663585
9952.00   0.68783420   0.02403134
9954.00   0.68140239   0.02331370
9956.00   0.69332808   0.02374040
9958.00   0.68893343   0.02346473
9960.00   0.67824733   0.02301734
9962.00   0.66578895   0.02263274
9964.00   0.64340472   0.02242847
9966.00   0.62910426   0.02201468
9968.00   0.63507581   0.02104816
9970.00   0.65426356   0.01966588
9972.00   0.67283762   0.01862706
9974.00   0.70612729   0.01765440
9976.00   0.71922141   0.01686169
9978.00   0.71672386   0.01624587
9980.00   0.71166503   0.01582991
9982.00   0.70278895   0.01568049
9984.00   0.69425857   0.01573032
9986.00   0.70665306   0.01576746
9988.00   0.74521244   0.01591228
9990.00   0.75575572   0.01599855
9992.00   0.74681705   0.01574373
9994.00   0.74159163   0.01611735
9996.00   0.74147135   0.01747707
9998.00   0.74288034   0.01888160
10000.00   0.74518567   0.01927720
10002.00   0.74952817   0.01879979
10004.00   0.75002819   0.02004550
10006.00   0.75843549   0.02262388
10008.00   0.74428278   0.02448655
10010.00   0.70315707   0.02620226
10012.00   0.65493405   0.02737272
10014.00   0.61009294   0.02764945
10016.00   0.56260252   0.02726544
10018.00   0.53829807   0.02635159
10020.00   0.52545470   0.02416671
10022.00   0.53355163   0.02262849
10024.00   0.56920302   0.02123805
10026.00   0.60957938   0.02030465
10028.00   0.64957511   0.02016613
10030.00   0.69052988   0.02059446
10032.00   0.71383208   0.02085377
10034.00   0.72374165   0.02164684
10036.00   0.72943062   0.02140455
10038.00   0.72068632   0.01984974
10040.00   0.71855688   0.01895482
10042.00   0.73143911   0.01945040
10044.00   0.74613971   0.02036332
10046.00   0.74325299   0.02051912
10048.00   0.73036891   0.02025405
10050.00   0.70852053   0.02034697
10052.00   0.65454638   0.02066602
10054.00   0.63708746   0.02086660
10056.00   0.67337608   0.02102170
10058.00   0.71352488   0.02104200
10060.00   0.70643461   0.02069221
10062.00   0.66857719   0.01994856
10064.00   0.67476094   0.02008001
10066.00   0.72169298   0.02114890
10068.00   0.74098152   0.02158010
10070.00   0.73785353   0.02132515
10072.00   0.73129410   0.02130107
10074.00   0.73498112   0.02193464
10076.00   0.74007350   0.02295501
10078.00   0.71215111   0.02444500
10080.00   0.63088852   0.02748045
10082.00   0.60511196   0.02800065
10084.00   0.61587000   0.02665751
10086.00   0.63354748   0.02497475
10088.00   0.65643245   0.02301737
10090.00   0.68221170   0.02083135
10092.00   0.68818772   0.01993122
10094.00   0.67370236   0.02001469
10096.00   0.67827523   0.02063656
10098.00   0.69610196   0.02244550
10100.00   0.70887429   0.02368376
10102.00   0.71337497   0.02445789
10104.00   0.71696776   0.02484697
10106.00   0.72857094   0.02455755
10108.00   0.74830490   0.02344403
10110.00   0.74865270   0.02329879
10112.00   0.71953344   0.02296162
10114.00   0.71969867   0.02426951
10116.00   0.75895751   0.02780027
10118.00   0.79485190   0.03074904
10120.00   0.79833215   0.03180278
10122.00   0.78369385   0.03190199
10124.00   0.75785232   0.03134281
10126.00   0.70232570   0.02904744
10128.00   0.66980374   0.02798478
10130.00   0.64632779   0.02806428
10132.00   0.63585746   0.02791699
10134.00   0.64492625   0.02689562
10136.00   0.66660792   0.02544336
10138.00   0.67686057   0.02438976
10140.00   0.68514216   0.02299547
10142.00   0.68925738   0.02292638
10144.00   0.68927467   0.02423441
10146.00   0.68685180   0.02537385
10148.00   0.68404734   0.02618780
10150.00   0.67726547   0.02693187
10152.00   0.65904254   0.02766684
10154.00   0.62746847   0.02838638
10156.00   0.60852468   0.02901618
10158.00   0.57118481   0.02951380
10160.00   0.58439964   0.03009820
10162.00   0.67535782   0.03064064
10164.00   0.77085102   0.03137000
10166.00   0.80453545   0.03269992
10168.00   0.80657601   0.03454281
10170.00   0.78047043   0.03492642
10172.00   0.68615645   0.03413816
10174.00   0.64775062   0.03350418
10176.00   0.65265715   0.03249427
10178.00   0.67232198   0.03175918
10180.00   0.70446426   0.03175170
10182.00   0.74757665   0.03222178
10184.00   0.73926014   0.03285892
10186.00   0.67290652   0.03415245
10188.00   0.64512354   0.03475018
10190.00   0.62320405   0.03525370
10192.00   0.62289083   0.03511745
10194.00   0.65880239   0.03373754
10196.00   0.71077454   0.03185525
10198.00   0.73206353   0.03149769
10200.00   0.72847092   0.03164960
10202.00   0.75262582   0.03353083
10204.00   0.81316471   0.03800297
10206.00   0.83755875   0.04052381
10208.00   0.81643313   0.04137243
10210.00   0.77350879   0.04107000
10212.00   0.72188699   0.03916001
10214.00   0.64185691   0.03475573
10216.00   0.63643539   0.03374054
10218.00   0.70620561   0.03518764
10220.00   0.74573773   0.03668888
10222.00   0.77808297   0.03954940
10224.00   0.78554553   0.04132624
10226.00   0.74022186   0.04000429
10228.00   0.65453100   0.03639606
10230.00   0.61473191   0.03462345
10232.00   0.58772582   0.03374229
10234.00   0.58479714   0.03257865
10236.00   0.61803895   0.03119021
10238.00   0.64866155   0.03017337
10240.00   0.66450441   0.02990728
10242.00   0.67291784   0.03010983
10244.00   0.66710627   0.03012425
10246.00   0.63319796   0.03057220
10248.00   0.63170338   0.03005257
10250.00   0.65735936   0.02829548
10252.00   0.67372102   0.02709656
10254.00   0.67954409   0.02667187
10256.00   0.67507637   0.02691549
10258.00   0.64710927   0.02821119
10260.00   0.58582300   0.03076816
10262.00   0.57366526   0.03183114
10264.00   0.59651178   0.03218840
10266.00   0.61848080   0.03238058
10268.00   0.63783824   0.03153761
10270.00   0.66605014   0.03147863
10272.00   0.70839894   0.03389946
10274.00   0.76028937   0.03763250
10276.00   0.84940594   0.04254884
10278.00   1.04542410   0.04990305
10280.00   1.09580469   0.05411933
10282.00   1.01166558   0.05717820
10284.00   0.89106703   0.05844666
10286.00   0.75423348   0.05704163
10288.00   0.59731907   0.05354474
10290.00   0.56663531   0.05112906
10292.00   0.67989928   0.04867605
10294.00   0.70176482   0.04610733
10296.00   0.69193965   0.04320046
10298.00   0.66933787   0.04054119
10300.00   0.62897152   0.03830587
10302.00   0.58152241   0.03647633
10304.00   0.56475621   0.03518742
10306.00   0.58280754   0.03426747
10308.00   0.55309033   0.03464958
10310.00   0.46163765   0.03730144
10312.00   0.42410848   0.03837572
10314.00   0.46333569   0.03752490
10316.00   0.52328002   0.03597444
10318.00   0.54940170   0.03474462
10320.00   0.56593436   0.03317904
10322.00   0.56802183   0.03281698
10324.00   0.53515756   0.03413549
10326.00   0.53622514   0.03420373
10328.00   0.58775723   0.03224209
10330.00   0.62543249   0.03110422
10332.00   0.59340978   0.03345119
10334.00   0.51877320   0.03759900
10336.00   0.51926982   0.03899913
10338.00   0.58008814   0.03836508
10340.00   0.61630213   0.03923437
10342.00   0.66150320   0.04148940
10344.00   0.68215817   0.04297393
10346.00   0.65168506   0.04322456
10348.00   0.59750503   0.04258409
10350.00   0.59397626   0.04043691
10352.00   0.62365818   0.03409720
10354.00   0.64827663   0.03320933
10356.00   0.68285620   0.03680791
10358.00   0.71733230   0.04002370
10360.00   0.74405527   0.04250032
10362.00   0.77677602   0.04499656
10364.00   0.84697807   0.04793268
10366.00   0.97758883   0.05178761
10368.00   0.96838683   0.05259318
10370.00   0.83207703   0.05141385
10372.00   0.72223359   0.04924567
10374.00   0.60709971   0.04452188
10376.00   0.52240670   0.03971336
10378.00   0.52952504   0.03863410
10380.00   0.61171597   0.04024832
10382.00   0.60057199   0.04034889
10384.00   0.50183064   0.04055953
10386.00   0.47805738   0.04019362
10388.00   0.52198994   0.03906379
10390.00   0.56829280   0.03793083
10392.00   0.59239119   0.03699048
10394.00   0.60720998   0.03621482
10396.00   0.59107983   0.03681831
10398.00   0.51428711   0.03957435
10400.00   0.50334370   0.04020227
10402.00   0.53741229   0.03949485
10404.00   0.57384562   0.03881799
10406.00   0.60771197   0.03786916
10408.00   0.64092940   0.03734704
10410.00   0.65928435   0.03978094
10412.00   0.66442716   0.04517635
10414.00   0.67383516   0.04727112
10416.00   0.68583643   0.04850201
10418.00   0.68946940   0.04820897
10420.00   0.68380558   0.04556860
10422.00   0.67181611   0.04204012
10424.00   0.65550858   0.03981595
10426.00   0.63372368   0.03812997
10428.00   0.60874063   0.03642412
10430.00   0.57232833   0.03468999
10432.00   0.54792118   0.03365103
10434.00   0.52889115   0.03349107
10436.00   0.52217871   0.03367146
10438.00   0.54009372   0.03392791
10440.00   0.57651407   0.03439363
10442.00   0.57889724   0.03450150
10444.00   0.54110521   0.03428178
10446.00   0.54340863   0.03429157
10448.00   0.58596230   0.03459130
10450.00   0.61523795   0.03465157
10452.00   0.60973233   0.03401705
10454.00   0.58771151   0.03317523
10456.00   0.57368523   0.03360641
10458.00   0.55602646   0.03512143
10460.00   0.54418528   0.03620837
10462.00   0.54026592   0.03767313
10464.00   0.53012240   0.03849858
10466.00   0.50250024   0.03858584
10468.00   0.47813034   0.03817830
10470.00   0.49234349   0.03737921
10472.00   0.54351103   0.03594453
10474.00   0.55717218   0.03480738
10476.00   0.54949522   0.03345156
10478.00   0.54314291   0.03254820
10480.00   0.53622407   0.03226329
10482.00   0.52744699   0.03215721
10484.00   0.51314497   0.03166524
10486.00   0.49242690   0.03091029
10488.00   0.50612801   0.03197695
10490.00   0.57468301   0.03569269
10492.00   0.58814228   0.03665394
10494.00   0.54437745   0.03530839
10496.00   0.50707078   0.03373968
10498.00   0.50674653   0.03282626
10500.00   0.52411222   0.03212272
10502.00   0.53981537   0.03217741
10504.00   0.56943685   0.03333403
10506.00   0.58379561   0.03375873
10508.00   0.59360075   0.03355107
10510.00   0.59276855   0.03394379
10512.00   0.57507974   0.03539670
10514.00   0.54999888   0.03719093
10516.00   0.53678399   0.03842102
10518.00   0.52579373   0.03980163
10520.00   0.52668756   0.03983904
10522.00   0.55140942   0.03855997
10524.00   0.55576587   0.03725528
10526.00   0.51620406   0.03512251
10528.00   0.48682252   0.03362638
10530.00   0.53878099   0.03550894
10532.00   0.65978670   0.04008711
10534.00   0.68992186   0.04050496
10536.00   0.66092443   0.03774578
10538.00   0.63710922   0.03610623
10540.00   0.60108995   0.03502063
10542.00   0.56923276   0.03434116
10544.00   0.55926424   0.03426635
10546.00   0.56181073   0.03470783
10548.00   0.53910387   0.03476715
10550.00   0.48845321   0.03374716
10552.00   0.46219206   0.03498375
10554.00   0.44306868   0.03918098
10556.00   0.44150010   0.04156807
10558.00   0.46632841   0.04046955
10560.00   0.50761181   0.03772701
10562.00   0.54024220   0.03713748
10564.00   0.58328319   0.03783409
10566.00   0.59926808   0.03791907
10568.00   0.58477187   0.03786013
10570.00   0.58207601   0.03796120
10572.00   0.60099381   0.03831466
10574.00   0.62346554   0.03874234
10576.00   0.62874234   0.03903278
10578.00   0.62271321   0.03927706
10580.00   0.62147844   0.03946591
10582.00   0.62099552   0.03961945
10584.00   0.61797035   0.03968897
10586.00   0.60995829   0.03963680
10588.00   0.60335898   0.03956205
10590.00   0.60779196   0.03955766
10592.00   0.62105614   0.03958545
10594.00   0.60164094   0.03954033
10596.00   0.53875417   0.03904094
10598.00   0.51242673   0.03943193
10600.00   0.51451379   0.04115855
10602.00   0.52205241   0.04225964
10604.00   0.52021551   0.04161273
10606.00   0.52053267   0.04005806
10608.00   0.55784994   0.03989534
10610.00   0.67916191   0.04109548
10612.00   0.68174070   0.04098275
10614.00   0.56124049   0.03972951
10616.00   0.49555349   0.03901604
10618.00   0.54710090   0.03952545
10620.00   0.63269210   0.04036186
10622.00   0.63023418   0.04019308
10624.00   0.56696045   0.03924489
10626.00   0.54101843   0.03890926
10628.00   0.50872773   0.03863074
10630.00   0.50942606   0.03879875
10632.00   0.56142503   0.03976997
10634.00   0.62112451   0.04070581
10636.00   0.64163673   0.04068113
10638.00   0.64170575   0.04001305
10640.00   0.63922757   0.03961935
10642.00   0.62899160   0.03921418
10644.00   0.60894102   0.03874647
10646.00   0.56975597   0.03814917
10648.00   0.53485560   0.03759737
10650.00   0.51243329   0.03713514
10652.00   0.49862665   0.03674876
10654.00   0.53730088   0.03694115
10656.00   0.66713083   0.03812737
10658.00   0.70906490   0.03832075
10660.00   0.68260890   0.03767872
10662.00   0.65967095   0.03717603
10664.00   0.66128802   0.03706304
10666.00   0.67120826   0.03719024
10668.00   0.68502373   0.03778484
10670.00   0.72366726   0.03964442
10672.00   0.71091622   0.03917993
10674.00   0.64184678   0.03617835
10676.00   0.59710592   0.03410466
10678.00   0.59194762   0.03389373
10680.00   0.59699869   0.03417203
10682.00   0.57946122   0.03339802
10684.00   0.54255563   0.03184823
10686.00   0.55069232   0.03153855
10688.00   0.61111152   0.03244643
10690.00   0.63861281   0.03275178
10692.00   0.64137775   0.03242168
10694.00   0.62430072   0.03205788
10696.00   0.57538712   0.03206174
10698.00   0.49542475   0.03224444
10700.00   0.48317397   0.03256264
10702.00   0.52393299   0.03372265
10704.00   0.55710334   0.03346318
10706.00   0.61149877   0.03154263
10708.00   0.64741331   0.02967785
10710.00   0.63739067   0.02880295
10712.00   0.60289943   0.02841394
10714.00   0.60031414   0.02806842
10716.00   0.62464201   0.02820313
10718.00   0.62253034   0.02790686
10720.00   0.59922284   0.02713695
10722.00   0.58406317   0.02673687
10724.00   0.58335465   0.02709464
10726.00   0.58957714   0.02766186
10728.00   0.59881920   0.02760197
10730.00   0.62257832   0.02720774
10732.00   0.61285961   0.02666491
10734.00   0.56131196   0.02545809
10736.00   0.53732347   0.02488446
10738.00   0.55025971   0.02539420
10740.00   0.57028890   0.02591822
10742.00   0.57179397   0.02535341
10744.00   0.56590176   0.02400772
10746.00   0.55547023   0.02322437
10748.00   0.52903187   0.02259917
10750.00   0.51983505   0.02208014
10752.00   0.53539681   0.02153131
10754.00   0.54316276   0.02133719
10756.00   0.51410997   0.02184266
10758.00   0.46519342   0.02281763
10760.00   0.47354484   0.02346217
10762.00   0.53794950   0.02463708
10764.00   0.57255119   0.02443607
10766.00   0.60520881   0.02275186
10768.00   0.62194216   0.02105027
10770.00   0.61021131   0.01963159
10772.00   0.58534527   0.01847144
10774.00   0.58628899   0.01868188
10776.00   0.61029553   0.02057160
10778.00   0.60899210   0.02114680
10780.00   0.58341396   0.02142774
10782.00   0.57302743   0.02123850
10784.00   0.58991659   0.02021293
10786.00   0.60996026   0.01896827
10788.00   0.60351121   0.01870571
10790.00   0.58012718   0.01927445
10792.00   0.55820256   0.01873014
10794.00   0.52083784   0.01703507
10796.00   0.50191051   0.01596967
10798.00   0.50845599   0.01561829
10800.00   0.51436210   0.01552280
10802.00   0.49708453   0.01539095
10804.00   0.46614107   0.01536416
10806.00   0.45456186   0.01553862
10808.00   0.45828915   0.01625795
10810.00   0.45407689   0.01627339
10812.00   0.43710080   0.01559174
10814.00   0.43319857   0.01489274
10816.00   0.45889592   0.01437736
10818.00   0.50067794   0.01398898
10820.00   0.52326727   0.01430870
10822.00   0.54558659   0.01567957
10824.00   0.54637647   0.01601825
10826.00   0.52193755   0.01583613
10828.00   0.50024998   0.01554127
10830.00   0.48506567   0.01510800
10832.00   0.47263926   0.01460292
10834.00   0.46412182   0.01437740
10836.00   0.45693007   0.01449653
10838.00   0.46157524   0.01400116
10840.00   0.48731482   0.01269631
10842.00   0.49665132   0.01186549
10844.00   0.49005920   0.01128392
10846.00   0.47246051   0.01145940
10848.00   0.44041356   0.01338963
10850.00   0.38986871   0.01651630
