# File created by shivutils (I.Shivvers)
# wl(A)   flm    er(optional)
3442.00   0.18904407   0.04969013
3444.00   0.16367739   0.04757148
3446.00   0.29618484   0.04879064
3448.00   0.27629614   0.05029681
3450.00   0.13785484   0.05156847
3452.00   0.04838149   0.05284071
3454.00   0.20498328   0.05443495
3456.00   0.27912226   0.05290873
3458.00   0.18824036   0.05443762
3460.00   0.21937500   0.05191820
3462.00   0.25074226   0.05259285
3464.00   0.25067234   0.05142099
3466.00   0.20215014   0.05157369
3468.00   0.19885495   0.05054759
3470.00   0.10572373   0.05111850
3472.00   0.10390805   0.05057766
3474.00   0.20156065   0.05041326
3476.00   0.12135914   0.05205637
3478.00   0.24881081   0.05758147
3480.00   0.20644823   0.05929256
3482.00   0.18501191   0.06060436
3484.00   0.31912851   0.05785020
3486.00   0.11135062   0.05659298
3488.00   0.21677765   0.05584344
3490.00   0.13500078   0.05428987
3492.00   0.13894679   0.05382010
3494.00   0.20813429   0.05357862
3496.00   0.28435776   0.05291025
3498.00   0.11980966   0.05176908
3500.00   0.09878575   0.05242731
3502.00   0.18062310   0.05148856
3504.00   0.23902045   0.05089556
3506.00   0.21673012   0.05100567
3508.00   0.17289560   0.05036564
3510.00   0.12863013   0.05172636
3512.00   0.13071187   0.05029004
3514.00   0.20170882   0.05168254
3516.00   0.17782569   0.05159060
3518.00   0.23477820   0.05132090
3520.00   0.27269080   0.05096949
3522.00   0.16672981   0.05013077
3524.00   0.11770298   0.05050366
3526.00   0.16119102   0.04974961
3528.00   0.24919923   0.05052239
3530.00   0.22655129   0.05160075
3532.00   0.34034291   0.05236370
3534.00   0.20902500   0.04961321
3536.00   0.22279401   0.05044543
3538.00   0.22202678   0.05087101
3540.00   0.19277006   0.05341579
3542.00   0.13483459   0.05537758
3544.00   0.13332675   0.05458684
3546.00   0.41516435   0.05637651
3548.00   0.41544774   0.05484577
3550.00   0.26806429   0.05491536
3552.00   0.27745897   0.05444933
3554.00   0.32488188   0.05467308
3556.00   0.31711617   0.05425578
3558.00   0.15617520   0.05224174
3560.00   0.46504182   0.05353603
3562.00   0.29770666   0.05126917
3564.00   0.22511961   0.05040232
3566.00   0.34514239   0.05117348
3568.00   0.34648821   0.04961663
3570.00   0.24340764   0.04880210
3572.00   0.40388474   0.05125618
3574.00   0.37513420   0.05029195
3576.00   0.34716424   0.05022355
3578.00   0.32437038   0.04887483
3580.00   0.29980406   0.04769323
3582.00   0.30871856   0.04700632
3584.00   0.29953831   0.04604115
3586.00   0.28593221   0.04481314
3588.00   0.35306013   0.04594652
3590.00   0.33833086   0.04685242
3592.00   0.29967201   0.04510924
3594.00   0.23188964   0.04385322
3596.00   0.26523355   0.04297594
3598.00   0.33014420   0.04330930
3600.00   0.36609146   0.04376705
3602.00   0.33628362   0.04361635
3604.00   0.26181570   0.04173527
3606.00   0.22181678   0.04143432
3608.00   0.33921605   0.04275937
3610.00   0.26972306   0.04130412
3612.00   0.34436426   0.04468371
3614.00   0.34486148   0.04609488
3616.00   0.33560312   0.04530367
3618.00   0.37013555   0.04488147
3620.00   0.15644984   0.04062260
3622.00   0.38731542   0.04319982
3624.00   0.27858889   0.04232278
3626.00   0.29806593   0.04224095
3628.00   0.28429830   0.04314447
3630.00   0.40382773   0.04462926
3632.00   0.34199280   0.04367636
3634.00   0.20398915   0.04334410
3636.00   0.36002344   0.04282147
3638.00   0.31877664   0.04266525
3640.00   0.31901169   0.04309331
3642.00   0.40883553   0.04482220
3644.00   0.42979857   0.04583956
3646.00   0.40624917   0.04678848
3648.00   0.35992265   0.05913787
3650.00   0.40872443   0.06762146
3652.00   0.35764682   0.06259650
3654.00   0.44770434   0.05596955
3656.00   0.41977823   0.05180713
3658.00   0.25986394   0.04416978
3660.00   0.33496973   0.04487415
3662.00   0.44660264   0.05190833
3664.00   0.35358000   0.04874315
3666.00   0.38433468   0.04223216
3668.00   0.36306420   0.03821222
3670.00   0.35984516   0.03723385
3672.00   0.38456324   0.03804112
3674.00   0.38494962   0.03818781
3676.00   0.32118857   0.03658904
3678.00   0.36291939   0.03674490
3680.00   0.33559683   0.03651481
3682.00   0.37818262   0.03562463
3684.00   0.42939007   0.03581840
3686.00   0.38136825   0.03503374
3688.00   0.41040742   0.03529521
3690.00   0.39907879   0.03546165
3692.00   0.36330619   0.03544611
3694.00   0.32225421   0.03486768
3696.00   0.39737895   0.03496043
3698.00   0.40885794   0.03614173
3700.00   0.35991481   0.03632544
3702.00   0.49012527   0.03738124
3704.00   0.43655455   0.03614425
3706.00   0.44789067   0.03573499
3708.00   0.42870003   0.03492709
3710.00   0.41724959   0.03531736
3712.00   0.42422086   0.03515533
3714.00   0.41965494   0.03467613
3716.00   0.47666618   0.03469399
3718.00   0.44272637   0.03481773
3720.00   0.42621988   0.03376931
3722.00   0.41422302   0.03357828
3724.00   0.32909682   0.03240454
3726.00   0.42987537   0.03398328
3728.00   0.29333895   0.03174532
3730.00   0.34070861   0.03286419
3732.00   0.34659660   0.03288314
3734.00   0.33152884   0.03268343
3736.00   0.37694424   0.03307235
3738.00   0.24341990   0.03248327
3740.00   0.27664506   0.03317417
3742.00   0.32480320   0.03299933
3744.00   0.30759186   0.03188044
3746.00   0.24993500   0.03014726
3748.00   0.34604013   0.03144494
3750.00   0.29974476   0.03043864
3752.00   0.36611444   0.03131137
3754.00   0.34654650   0.03151302
3756.00   0.44286728   0.03147971
3758.00   0.34373787   0.03023208
3760.00   0.29539305   0.03034532
3762.00   0.29949665   0.02903156
3764.00   0.29650337   0.02858516
3766.00   0.33562338   0.02874098
3768.00   0.30886176   0.02824906
3770.00   0.30107784   0.02921662
3772.00   0.30301091   0.02886598
3774.00   0.19232813   0.02777700
3776.00   0.23377533   0.02741708
3778.00   0.14677417   0.02769711
3780.00   0.26777509   0.02765341
3782.00   0.29650134   0.02841544
3784.00   0.32530501   0.02844590
3786.00   0.26585171   0.02693018
3788.00   0.24865401   0.02768589
3790.00   0.29958040   0.02879521
3792.00   0.30240035   0.02886288
3794.00   0.37152913   0.02928596
3796.00   0.28800207   0.02768664
3798.00   0.27680716   0.02718885
3800.00   0.22913122   0.02660025
3802.00   0.26215017   0.02742795
3804.00   0.26112267   0.02747365
3806.00   0.21048446   0.02618941
3808.00   0.21829477   0.02579380
3810.00   0.26743937   0.02681120
3812.00   0.22041434   0.02662264
3814.00   0.25047499   0.02673214
3816.00   0.27206025   0.02660418
3818.00   0.30909288   0.02743973
3820.00   0.25907958   0.02723511
3822.00   0.25560701   0.02701219
3824.00   0.22339198   0.02595179
3826.00   0.24033540   0.02688118
3828.00   0.27710721   0.02774062
3830.00   0.27532721   0.02881873
3832.00   0.28066087   0.02823535
3834.00   0.28820303   0.02722771
3836.00   0.26972663   0.02717318
3838.00   0.21598299   0.02625692
3840.00   0.24922934   0.02719972
3842.00   0.29168844   0.02775092
3844.00   0.28306487   0.02724983
3846.00   0.29208997   0.02679499
3848.00   0.33237320   0.02673144
3850.00   0.38402647   0.02702580
3852.00   0.32817203   0.02645146
3854.00   0.35097826   0.02632081
3856.00   0.33504218   0.02643625
3858.00   0.31762770   0.02530034
3860.00   0.38689795   0.02636196
3862.00   0.39321980   0.02661832
3864.00   0.37726241   0.02679221
3866.00   0.41332617   0.02645460
3868.00   0.40415955   0.02669597
3870.00   0.44378889   0.02667175
3872.00   0.40577742   0.02733068
3874.00   0.45023993   0.02833221
3876.00   0.43137297   0.02802422
3878.00   0.48570445   0.02766681
3880.00   0.45834380   0.02685453
3882.00   0.49167854   0.02743834
3884.00   0.43813887   0.02685972
3886.00   0.55241638   0.02782533
3888.00   0.51183438   0.02702545
3890.00   0.60422385   0.02777919
3892.00   0.61711937   0.02834928
3894.00   0.59361374   0.02836477
3896.00   0.65450102   0.02876105
3898.00   0.51568151   0.02775628
3900.00   0.61769366   0.02887299
3902.00   0.58993095   0.02858632
3904.00   0.60700601   0.02972776
3906.00   0.72174978   0.03301948
3908.00   0.72776896   0.03459226
3910.00   0.67469013   0.03443096
3912.00   0.72888237   0.03491038
3914.00   0.71689010   0.03322566
3916.00   0.68784976   0.03138784
3918.00   0.73163718   0.03049920
3920.00   0.72923690   0.03008521
3922.00   0.82365268   0.03017184
3924.00   0.75214773   0.02962971
3926.00   0.86273646   0.03010972
3928.00   0.75273162   0.02908218
3930.00   0.82397151   0.02977360
3932.00   0.77383500   0.03063188
3934.00   0.95155877   0.03158697
3936.00   0.92649579   0.03047707
3938.00   0.93851817   0.03089246
3940.00   0.90824986   0.03064866
3942.00   0.91217327   0.03168577
3944.00   0.93688309   0.03226261
3946.00   0.98898745   0.03186135
3948.00   0.90718073   0.03105082
3950.00   0.97483540   0.03086502
3952.00   1.01290572   0.03136179
3954.00   1.11637354   0.03153386
3956.00   1.02614033   0.03112222
3958.00   0.97677028   0.03088155
3960.00   1.06497860   0.03234091
3962.00   1.01209974   0.03198579
3964.00   0.93944609   0.03047960
3966.00   1.01574159   0.03056770
3968.00   0.99121398   0.03001509
3970.00   1.08219886   0.03063461
3972.00   1.08509564   0.03112947
3974.00   1.11830795   0.03138923
3976.00   1.01971626   0.03064417
3978.00   1.08836424   0.03108601
3980.00   1.07601452   0.03107714
3982.00   1.12726486   0.03100542
3984.00   1.08231413   0.03070182
3986.00   1.07001460   0.03058874
3988.00   1.13804793   0.03133184
3990.00   1.11036515   0.03119341
3992.00   1.09401524   0.03103943
3994.00   1.04360211   0.03120101
3996.00   1.04546177   0.03203491
3998.00   1.03665924   0.03101385
4000.00   0.87726742   0.02856004
4002.00   0.87904674   0.02823190
4004.00   1.02714813   0.02951923
4006.00   1.00584209   0.02997865
4008.00   0.99976933   0.03005678
4010.00   1.03566456   0.03056507
4012.00   0.97218233   0.02993064
4014.00   1.01262856   0.03013731
4016.00   0.93423820   0.02958154
4018.00   0.94060695   0.03117731
4020.00   0.97111279   0.03308922
4022.00   0.88959175   0.03382484
4024.00   0.96089202   0.03314367
4026.00   0.94068289   0.03168806
4028.00   0.85374767   0.02993404
4030.00   0.85979784   0.02960253
4032.00   0.93596035   0.02936834
4034.00   0.85246247   0.02814170
4036.00   0.70274669   0.02680443
4038.00   0.78420216   0.02709423
4040.00   0.78756905   0.02756915
4042.00   0.72861677   0.02922161
4044.00   0.85659075   0.04233393
4046.00   0.77337724   0.05094079
4048.00   0.72457063   0.04590653
4050.00   0.81005239   0.03342105
4052.00   0.74111593   0.02908054
4054.00   0.72711849   0.02887864
4056.00   0.71847504   0.02841681
4058.00   0.69622505   0.02686029
4060.00   0.75499433   0.02674884
4062.00   0.68060869   0.02633919
4064.00   0.61225325   0.02583299
4066.00   0.60668766   0.02584581
4068.00   0.69370550   0.02605878
4070.00   0.65583384   0.02526929
4072.00   0.61591631   0.02534684
4074.00   0.64284599   0.02607671
4076.00   0.67053366   0.02900164
4078.00   0.66787690   0.02964030
4080.00   0.59936160   0.02793761
4082.00   0.61638987   0.02710639
4084.00   0.58496761   0.02689548
4086.00   0.63826543   0.02638786
4088.00   0.60632741   0.02527970
4090.00   0.64016211   0.02420835
4092.00   0.61088598   0.02408760
4094.00   0.66193146   0.02409202
4096.00   0.54183042   0.02328298
4098.00   0.58476967   0.02357340
4100.00   0.60183084   0.02353596
4102.00   0.61888880   0.02302221
4104.00   0.55642188   0.02273710
4106.00   0.56499845   0.02293944
4108.00   0.51741588   0.02264656
4110.00   0.57035589   0.02287635
4112.00   0.54316097   0.02304535
4114.00   0.58003289   0.02299515
4116.00   0.55866432   0.02259052
4118.00   0.57763392   0.02260970
4120.00   0.51975375   0.02185248
4122.00   0.60875845   0.02252837
4124.00   0.60574293   0.02248730
4126.00   0.59106320   0.02264963
4128.00   0.55222785   0.02222674
4130.00   0.53144622   0.02253628
4132.00   0.53403014   0.02301903
4134.00   0.58403569   0.02348473
4136.00   0.52542156   0.02271289
4138.00   0.54334044   0.02291605
4140.00   0.57702500   0.02326777
4142.00   0.58576590   0.02287577
4144.00   0.59846854   0.02215916
4146.00   0.55033106   0.02194026
4148.00   0.53094566   0.02157745
4150.00   0.57233787   0.02246533
4152.00   0.52587187   0.02282877
4154.00   0.53998584   0.02261259
4156.00   0.52035558   0.02209660
4158.00   0.57002884   0.02189424
4160.00   0.56561208   0.02225310
4162.00   0.58692467   0.02314276
4164.00   0.62010771   0.02408909
4166.00   0.61171514   0.02396198
4168.00   0.60351509   0.02259050
4170.00   0.65659696   0.02239329
4172.00   0.64923179   0.02182129
4174.00   0.61229408   0.02149982
4176.00   0.58603823   0.02174510
4178.00   0.61383492   0.02201403
4180.00   0.57794690   0.02163262
4182.00   0.59942752   0.02146972
4184.00   0.57079089   0.02093228
4186.00   0.62912506   0.02163491
4188.00   0.63621265   0.02143906
4190.00   0.63475782   0.02166407
4192.00   0.61115623   0.02168681
4194.00   0.60899138   0.02163620
4196.00   0.65593654   0.02164761
4198.00   0.64742243   0.02119815
4200.00   0.67515546   0.02150968
4202.00   0.63666761   0.02142834
4204.00   0.59216100   0.02117930
4206.00   0.68176293   0.02192114
4208.00   0.72767812   0.02231242
4210.00   0.67937666   0.02242029
4212.00   0.69764549   0.02235074
4214.00   0.69902796   0.02219206
4216.00   0.72471207   0.02210983
4218.00   0.75850457   0.02239486
4220.00   0.70200747   0.02203952
4222.00   0.70794594   0.02214687
4224.00   0.69554824   0.02195156
4226.00   0.71231991   0.02184118
4228.00   0.68438417   0.02176700
4230.00   0.75637776   0.02229431
4232.00   0.71662194   0.02249557
4234.00   0.72373337   0.02235893
4236.00   0.74376619   0.02289859
4238.00   0.72628486   0.02289757
4240.00   0.71990973   0.02225447
4242.00   0.74463379   0.02195810
4244.00   0.75167465   0.02338379
4246.00   0.77388990   0.02497538
4248.00   0.76839483   0.02459763
4250.00   0.76856869   0.02282679
4252.00   0.71285594   0.02212515
4254.00   0.72572094   0.02199597
4256.00   0.77585119   0.02230841
4258.00   0.72057009   0.02200294
4260.00   0.78182560   0.02203660
4262.00   0.73649687   0.02165828
4264.00   0.74591911   0.02156632
4266.00   0.72695988   0.02168262
4268.00   0.72432959   0.02161735
4270.00   0.77447200   0.02181278
4272.00   0.72630847   0.02147476
4274.00   0.79337496   0.02207106
4276.00   0.74278390   0.02183047
4278.00   0.72415417   0.02163335
4280.00   0.71856928   0.02157743
4282.00   0.73181528   0.02192217
4284.00   0.74775642   0.02184404
4286.00   0.74804604   0.02181336
4288.00   0.76772618   0.02163887
4290.00   0.75647360   0.02148310
4292.00   0.72520643   0.02151459
4294.00   0.70461589   0.02159928
4296.00   0.69422978   0.02147834
4298.00   0.75852811   0.02153658
4300.00   0.73908031   0.02143990
4302.00   0.73253286   0.02136325
4304.00   0.80096459   0.02201592
4306.00   0.78313559   0.02199989
4308.00   0.69129276   0.02142299
4310.00   0.74968332   0.02186606
4312.00   0.75772190   0.02319938
4314.00   0.75940084   0.02372470
4316.00   0.80564004   0.02312324
4318.00   0.80594677   0.02327384
4320.00   0.78449321   0.02334906
4322.00   0.69833016   0.02275094
4324.00   0.78100872   0.02284285
4326.00   0.77322567   0.02267718
4328.00   0.73758167   0.02177970
4330.00   0.68973720   0.02125888
4332.00   0.72454315   0.02151632
4334.00   0.73254800   0.02163809
4336.00   0.80131745   0.02225939
4338.00   0.74989873   0.02209620
4340.00   0.76893336   0.02237230
4342.00   0.70087886   0.02194889
4344.00   0.80521715   0.02279009
4346.00   0.76048607   0.02325985
4348.00   0.70325679   0.02331978
4350.00   0.76555359   0.02329613
4352.00   0.71501333   0.02284100
4354.00   0.68899107   0.02665762
4356.00   0.82453966   0.04200881
4358.00   0.76924807   0.04857571
4360.00   0.65162694   0.04149939
4362.00   0.65335256   0.03058930
4364.00   0.68161905   0.02438803
4366.00   0.68204033   0.02270604
4368.00   0.65162873   0.02199855
4370.00   0.66869503   0.02207745
4372.00   0.66592741   0.02258504
4374.00   0.63391608   0.02254533
4376.00   0.68894684   0.02217379
4378.00   0.64186502   0.02143687
4380.00   0.54486388   0.02087266
4382.00   0.60846847   0.02088486
4384.00   0.59786248   0.02055036
4386.00   0.54365289   0.02020664
4388.00   0.56901097   0.02001319
4390.00   0.56296110   0.02037671
4392.00   0.56400186   0.02027530
4394.00   0.57772088   0.02021479
4396.00   0.52835917   0.02004983
4398.00   0.53043580   0.02048647
4400.00   0.53722680   0.02059368
4402.00   0.51855719   0.02032819
4404.00   0.50075525   0.01994421
4406.00   0.45753706   0.01962720
4408.00   0.52069354   0.01981270
4410.00   0.41146377   0.01956457
4412.00   0.45733821   0.01991314
4414.00   0.48198485   0.01989793
4416.00   0.47572422   0.01971208
4418.00   0.44135773   0.01941335
4420.00   0.46045351   0.01948387
4422.00   0.43727651   0.01929066
4424.00   0.37353215   0.01879832
4426.00   0.41933700   0.01896671
4428.00   0.41789433   0.01896287
4430.00   0.39980277   0.01893169
4432.00   0.40269747   0.01891850
4434.00   0.38701808   0.01872569
4436.00   0.41473159   0.01867914
4438.00   0.40007174   0.01881023
4440.00   0.39837500   0.01864957
4442.00   0.37838519   0.01838364
4444.00   0.41541457   0.01854912
4446.00   0.35979629   0.01848890
4448.00   0.33463430   0.01805273
4450.00   0.33986720   0.01808932
4452.00   0.36638811   0.01819215
4454.00   0.35085079   0.01807640
4456.00   0.35086957   0.01802808
4458.00   0.34662220   0.01813216
4460.00   0.38974711   0.01829529
4462.00   0.38713875   0.01805704
4464.00   0.39400372   0.01811735
4466.00   0.35833108   0.01788228
4468.00   0.37702727   0.01811098
4470.00   0.34205091   0.01774942
4472.00   0.34795773   0.01795883
4474.00   0.38358152   0.01818191
4476.00   0.36455807   0.01787992
4478.00   0.32822379   0.01775700
4480.00   0.37521499   0.01798988
4482.00   0.38172236   0.01797684
4484.00   0.39734530   0.01806373
4486.00   0.40673733   0.01807032
4488.00   0.38077703   0.01812828
4490.00   0.37042540   0.01827768
4492.00   0.34970638   0.01816614
4494.00   0.40550083   0.01837622
4496.00   0.38567361   0.01834111
4498.00   0.44669884   0.01848517
4500.00   0.45053083   0.01852902
4502.00   0.45831832   0.01857156
4504.00   0.42516419   0.01846573
4506.00   0.42149162   0.01818090
4508.00   0.46266830   0.01847346
4510.00   0.43377635   0.01832722
4512.00   0.41584998   0.01805858
4514.00   0.46615970   0.01810420
4516.00   0.44796154   0.01816830
4518.00   0.50330997   0.01842205
4520.00   0.45223024   0.01830689
4522.00   0.50967044   0.01835423
4524.00   0.46141666   0.01815133
4526.00   0.45666394   0.01816833
4528.00   0.45672193   0.01829088
4530.00   0.47361010   0.01852036
4532.00   0.52545196   0.01856951
4534.00   0.57233191   0.01877193
4536.00   0.55466920   0.01860088
4538.00   0.54188538   0.01859295
4540.00   0.55064470   0.01871439
4542.00   0.55887049   0.01898407
4544.00   0.57801157   0.01907548
4546.00   0.59294534   0.01912195
4548.00   0.59389746   0.01880301
4550.00   0.63743925   0.01892895
4552.00   0.61953998   0.01885031
4554.00   0.62440538   0.01895360
4556.00   0.63872075   0.01919560
4558.00   0.65396243   0.01896408
4560.00   0.67628425   0.01923742
4562.00   0.69031554   0.01927775
4564.00   0.72138041   0.01940321
4566.00   0.69625854   0.01912921
4568.00   0.74426252   0.01941358
4570.00   0.75916702   0.01942968
4572.00   0.72277313   0.01933785
4574.00   0.73339617   0.01946850
4576.00   0.81971407   0.01987055
4578.00   0.78461480   0.01963192
4580.00   0.81338024   0.01977453
4582.00   0.78334475   0.01949192
4584.00   0.85877746   0.01987344
4586.00   0.88698101   0.02000928
4588.00   0.91041201   0.02021790
4590.00   0.92048401   0.02034475
4592.00   0.98961633   0.02075911
4594.00   0.97718400   0.02068731
4596.00   1.01433802   0.02081724
4598.00   1.02347243   0.02078761
4600.00   1.07480025   0.02102462
4602.00   1.05551493   0.02100955
4604.00   1.07515442   0.02106662
4606.00   1.13137627   0.02138659
4608.00   1.15147424   0.02163979
4610.00   1.15612090   0.02160959
4612.00   1.22866476   0.02190232
4614.00   1.25110674   0.02193937
4616.00   1.22993112   0.02204277
4618.00   1.29187143   0.02209430
4620.00   1.32999241   0.02229300
4622.00   1.31596601   0.02227298
4624.00   1.33067870   0.02249738
4626.00   1.35537839   0.02254508
4628.00   1.35680389   0.02246784
4630.00   1.37814903   0.02276603
4632.00   1.36786616   0.02260255
4634.00   1.42995691   0.02286409
4636.00   1.46075523   0.02283647
4638.00   1.45151198   0.02278125
4640.00   1.44278324   0.02285950
4642.00   1.49253964   0.02304037
4644.00   1.48268199   0.02305301
4646.00   1.50609291   0.02322173
4648.00   1.49753487   0.02316836
4650.00   1.50564134   0.02318919
4652.00   1.47271264   0.02307383
4654.00   1.49722123   0.02319102
4656.00   1.49499738   0.02336184
4658.00   1.48638344   0.02333263
4660.00   1.49514341   0.02337661
4662.00   1.52121186   0.02362644
4664.00   1.47881973   0.02374207
4666.00   1.44195986   0.02377375
4668.00   1.51104152   0.02421270
4670.00   1.48838460   0.02413147
4672.00   1.45818055   0.02398474
4674.00   1.38374853   0.02352420
4676.00   1.42425454   0.02328569
4678.00   1.43719387   0.02330576
4680.00   1.44077742   0.02308846
4682.00   1.43256068   0.02285318
4684.00   1.36008692   0.02268187
4686.00   1.40066481   0.02263349
4688.00   1.36949956   0.02245158
4690.00   1.30359960   0.02205695
4692.00   1.33949590   0.02216258
4694.00   1.27419472   0.02181026
4696.00   1.29800892   0.02183426
4698.00   1.31336308   0.02179653
4700.00   1.25528264   0.02150041
4702.00   1.20080435   0.02131534
4704.00   1.23349023   0.02155766
4706.00   1.15250194   0.02119862
4708.00   1.15778041   0.02121691
4710.00   1.13075829   0.02114156
4712.00   1.12344432   0.02096941
4714.00   1.14863539   0.02085079
4716.00   1.07868850   0.02043260
4718.00   1.04520988   0.02016594
4720.00   1.03010166   0.02008921
4722.00   0.99958330   0.01970055
4724.00   1.05194581   0.01990009
4726.00   1.00904596   0.02013027
4728.00   0.97842133   0.02041755
4730.00   0.93342966   0.02029604
4732.00   0.96509659   0.02038568
4734.00   0.92121512   0.02036238
4736.00   0.95926774   0.02054855
4738.00   0.87249869   0.02057704
4740.00   0.84848231   0.02058000
4742.00   0.79288530   0.02075096
4744.00   0.79233301   0.02032804
4746.00   0.79165584   0.01932178
4748.00   0.72844130   0.01852275
4750.00   0.78749084   0.01862974
4752.00   0.75185728   0.01852356
4754.00   0.73655182   0.01838814
4756.00   0.72449607   0.01790491
4758.00   0.67406082   0.01741345
4760.00   0.67139721   0.01725070
4762.00   0.63420218   0.01682918
4764.00   0.65295535   0.01691994
4766.00   0.55943596   0.01634810
4768.00   0.61417121   0.01657619
4770.00   0.61153013   0.01626654
4772.00   0.60057312   0.01616170
4774.00   0.56426066   0.01606628
4776.00   0.57689613   0.01641386
4778.00   0.60324806   0.01674042
4780.00   0.55790877   0.01633227
4782.00   0.57535595   0.01622261
4784.00   0.56908691   0.01588451
4786.00   0.53656781   0.01562385
4788.00   0.52260399   0.01569599
4790.00   0.48125577   0.01547571
4792.00   0.48104712   0.01548662
4794.00   0.48775944   0.01536812
4796.00   0.49058253   0.01531301
4798.00   0.49766555   0.01524351
4800.00   0.49130693   0.01529547
4802.00   0.49033001   0.01522415
4804.00   0.49760598   0.01530293
4806.00   0.48288515   0.01524122
4808.00   0.47566268   0.01522828
4810.00   0.48976988   0.01515831
4812.00   0.49231368   0.01533173
4814.00   0.46404850   0.01506833
4816.00   0.47824764   0.01523031
4818.00   0.49609736   0.01526794
4820.00   0.49314177   0.01526323
4822.00   0.48817754   0.01553120
4824.00   0.47282654   0.01559987
4826.00   0.50172573   0.01573773
4828.00   0.48113146   0.01553890
4830.00   0.47212651   0.01567721
4832.00   0.48523635   0.01558970
4834.00   0.47800925   0.01557775
4836.00   0.47363994   0.01561184
4838.00   0.48480231   0.01588141
4840.00   0.50911039   0.01614194
4842.00   0.47759932   0.01562816
4844.00   0.48940951   0.01554662
4846.00   0.48211157   0.01559694
4848.00   0.46900713   0.01550515
4850.00   0.46555567   0.01558168
4852.00   0.44783309   0.01538271
4854.00   0.45828608   0.01547452
4856.00   0.46500212   0.01527476
4858.00   0.44894621   0.01529245
4860.00   0.45269641   0.01523496
4862.00   0.46162674   0.01531598
4864.00   0.46851021   0.01532833
4866.00   0.48977211   0.01557127
4868.00   0.45460907   0.01538762
4870.00   0.47171259   0.01528217
4872.00   0.49376214   0.01543432
4874.00   0.46352524   0.01532194
4876.00   0.47994015   0.01563886
4878.00   0.45239356   0.01554728
4880.00   0.47271031   0.01535042
4882.00   0.45084015   0.01531045
4884.00   0.46354932   0.01524410
4886.00   0.46699581   0.01521479
4888.00   0.45865878   0.01510880
4890.00   0.45266831   0.01510488
4892.00   0.46738592   0.01520749
4894.00   0.47648069   0.01527515
4896.00   0.47750428   0.01531022
4898.00   0.49096280   0.01536355
4900.00   0.49071389   0.01533276
4902.00   0.52930868   0.01542272
4904.00   0.58122391   0.01565919
4906.00   0.50521106   0.01552837
4908.00   0.49958715   0.01548656
4910.00   0.52899033   0.01566047
4912.00   0.52674139   0.01555933
4914.00   0.53968149   0.01558843
4916.00   0.51073885   0.01568123
4918.00   0.56430173   0.01573778
4920.00   0.55254734   0.01572645
4922.00   0.60806221   0.01591183
4924.00   0.57336324   0.01578339
4926.00   0.55929118   0.01551260
4928.00   0.58199966   0.01544867
4930.00   0.57322156   0.01553983
4932.00   0.60126680   0.01570972
4934.00   0.61705047   0.01575594
4936.00   0.63275796   0.01600421
4938.00   0.62245673   0.01590963
4940.00   0.60164738   0.01593330
4942.00   0.63454074   0.01598533
4944.00   0.65266120   0.01603626
4946.00   0.65737522   0.01594609
4948.00   0.67398924   0.01603279
4950.00   0.68044186   0.01622862
4952.00   0.66788769   0.01649298
4954.00   0.65274352   0.01643346
4956.00   0.70205909   0.01654141
4958.00   0.72662699   0.01652981
4960.00   0.67904842   0.01633746
4962.00   0.68595266   0.01660270
4964.00   0.67769384   0.01650056
4966.00   0.67751896   0.01665968
4968.00   0.68801534   0.01679471
4970.00   0.70697498   0.01720750
4972.00   0.68428147   0.01743755
4974.00   0.63622141   0.01744095
4976.00   0.68339819   0.01828964
4978.00   0.68610543   0.01903949
4980.00   0.68803453   0.01945722
4982.00   0.67410356   0.01989137
4984.00   0.65692890   0.01985724
4986.00   0.63777518   0.01920499
4988.00   0.63279027   0.01872775
4990.00   0.68698692   0.01840189
4992.00   0.66675872   0.01793674
4994.00   0.62413281   0.01729478
4996.00   0.66216147   0.01695240
4998.00   0.63318610   0.01649967
5000.00   0.65677387   0.01632907
5002.00   0.63556111   0.01612953
5004.00   0.64409775   0.01590385
5006.00   0.61048394   0.01561698
5008.00   0.57194042   0.01547068
5010.00   0.58360100   0.01532600
5012.00   0.57723022   0.01531808
5014.00   0.58249193   0.01527725
5016.00   0.63768017   0.01565854
5018.00   0.59052098   0.01557447
5020.00   0.56671834   0.01552935
5022.00   0.55120575   0.01520925
5024.00   0.56933886   0.01520668
5026.00   0.57243514   0.01518718
5028.00   0.57645780   0.01534116
5030.00   0.55519551   0.01530334
5032.00   0.53925049   0.01522467
5034.00   0.57350582   0.01515778
5036.00   0.57173383   0.01519761
5038.00   0.55762696   0.01496074
5040.00   0.51799452   0.01477119
5042.00   0.50979930   0.01483670
5044.00   0.54579306   0.01487481
5046.00   0.49224162   0.01460158
5048.00   0.52027154   0.01483834
5050.00   0.50840205   0.01474000
5052.00   0.50684732   0.01453974
5054.00   0.52966112   0.01469239
5056.00   0.51790845   0.01466574
5058.00   0.49383160   0.01464128
5060.00   0.51833153   0.01477170
5062.00   0.49681097   0.01488334
5064.00   0.51394206   0.01523874
5066.00   0.52358949   0.01549745
5068.00   0.49592614   0.01569038
5070.00   0.48054844   0.01567129
5072.00   0.50510317   0.01546103
5074.00   0.52389634   0.01608630
5076.00   0.48711380   0.01746533
5078.00   0.47354013   0.01537831
5080.00   0.50082558   0.01668521
5082.00   0.44526187   0.01746924
5084.00   0.50094986   0.01857682
5086.00   0.53131646   0.01850132
5088.00   0.51070553   0.01778462
5090.00   0.52717191   0.01686171
5092.00   0.47332093   0.01586265
5094.00   0.49869892   0.01555100
5096.00   0.50663519   0.01580854
5098.00   0.46828097   0.01604094
5100.00   0.50168520   0.01588905
5102.00   0.45177865   0.01529393
5104.00   0.48906574   0.01526270
5106.00   0.44587293   0.01479431
5108.00   0.46129492   0.01468602
5110.00   0.49169368   0.01497965
5112.00   0.50959897   0.01506301
5114.00   0.50679451   0.01524547
5116.00   0.49381387   0.01520372
5118.00   0.52658427   0.01511435
5120.00   0.45553097   0.01477707
5122.00   0.49282247   0.01481250
5124.00   0.50203186   0.01479570
5126.00   0.49049255   0.01463899
5128.00   0.50689149   0.01471637
5130.00   0.49413311   0.01484177
5132.00   0.50306088   0.01489655
5134.00   0.48825416   0.01488754
5136.00   0.50787783   0.01495225
5138.00   0.45896059   0.01478149
5140.00   0.47245196   0.01494113
5142.00   0.52212518   0.01513562
5144.00   0.48735687   0.01508000
5146.00   0.49083775   0.01519266
5148.00   0.49219257   0.01560650
5150.00   0.47302341   0.01582611
5152.00   0.50313854   0.01644899
5154.00   0.48373666   0.01640233
5156.00   0.49816358   0.01629664
5158.00   0.52941000   0.01620346
5160.00   0.54630816   0.01587613
5162.00   0.53871530   0.01570650
5164.00   0.50714749   0.01540233
5166.00   0.53712660   0.01533509
5168.00   0.54442716   0.01540809
5170.00   0.51412749   0.01512727
5172.00   0.52307945   0.01518473
5174.00   0.48985314   0.01511544
5176.00   0.52966285   0.01540265
5178.00   0.55815405   0.01565402
5180.00   0.55099666   0.01550649
5182.00   0.55578142   0.01551125
5184.00   0.52616751   0.01544516
5186.00   0.57869661   0.01592169
5188.00   0.58938777   0.01589469
5190.00   0.54429847   0.01568684
5192.00   0.56336200   0.01591725
5194.00   0.57411867   0.01591793
5196.00   0.61126214   0.01621576
5198.00   0.59911561   0.01635565
5200.00   0.56931716   0.01628518
5202.00   0.59837520   0.01641178
5204.00   0.61440402   0.01650129
5206.00   0.59109735   0.01633723
5208.00   0.64240044   0.01696276
5210.00   0.63533366   0.01700246
5212.00   0.69599229   0.01713607
5214.00   0.65795553   0.01703081
5216.00   0.69545609   0.01719142
5218.00   0.66823286   0.01729430
5220.00   0.70197749   0.01751661
5222.00   0.70284563   0.01741352
5224.00   0.73079312   0.01756952
5226.00   0.71889853   0.01742176
5228.00   0.77180374   0.01777957
5230.00   0.74402130   0.01764218
5232.00   0.71419781   0.01772763
5234.00   0.75749528   0.01786907
5236.00   0.78762788   0.01805912
5238.00   0.81035817   0.01827743
5240.00   0.77750087   0.01820668
5242.00   0.83679986   0.01849736
5244.00   0.79956406   0.01847494
5246.00   0.83420491   0.01851734
5248.00   0.88595623   0.01878858
5250.00   0.93631321   0.01920079
5252.00   0.94702649   0.01934094
5254.00   0.91629726   0.01942241
5256.00   0.96984655   0.01977534
5258.00   1.02088726   0.02008227
5260.00   0.98829556   0.02003302
5262.00   0.98625910   0.01985050
5264.00   1.04332101   0.02001715
5266.00   1.05638945   0.02012403
5268.00   1.03995049   0.02012566
5270.00   1.06574428   0.02023250
5272.00   1.08748889   0.02059873
5274.00   1.07724249   0.02039951
5276.00   1.13636279   0.02085462
5278.00   1.12849987   0.02093635
5280.00   1.14208102   0.02112122
5282.00   1.22246468   0.02157219
5284.00   1.23572087   0.02183145
5286.00   1.18328226   0.02185578
5288.00   1.21778083   0.02181335
5290.00   1.22080934   0.02185641
5292.00   1.19723916   0.02180235
5294.00   1.25403750   0.02225658
5296.00   1.21911514   0.02199610
5298.00   1.23217034   0.02215819
5300.00   1.22582161   0.02255593
5302.00   1.32583439   0.02288140
5304.00   1.36700571   0.02291387
5306.00   1.29898012   0.02268039
5308.00   1.28744137   0.02284518
5310.00   1.31237650   0.02292196
5312.00   1.32152259   0.02306015
5314.00   1.33264267   0.02317975
5316.00   1.36521220   0.02335509
5318.00   1.37858295   0.02344028
5320.00   1.37890530   0.02361326
5322.00   1.39625156   0.02365217
5324.00   1.41859651   0.02397598
5326.00   1.38070405   0.02390622
5328.00   1.40377629   0.02403365
5330.00   1.39923429   0.02408699
5332.00   1.38607740   0.02427944
5334.00   1.40713012   0.02419115
5336.00   1.37076068   0.02401160
5338.00   1.44992387   0.02473287
5340.00   1.42664945   0.02479203
5342.00   1.42944527   0.02489105
5344.00   1.44411874   0.02500143
5346.00   1.40180957   0.02503412
5348.00   1.36927342   0.02520511
5350.00   1.45673847   0.02559279
5352.00   1.47778332   0.02568286
5354.00   1.41150248   0.02565123
5356.00   1.42238510   0.02581468
5358.00   1.40680850   0.02550248
5360.00   1.42480004   0.02545666
5362.00   1.43205321   0.02536294
5364.00   1.39999807   0.02515203
5366.00   1.44878459   0.02533170
5368.00   1.36630809   0.02496900
5370.00   1.37092054   0.02522720
5372.00   1.38051963   0.02528616
5374.00   1.32791209   0.02537840
5376.00   1.35995018   0.02578823
5378.00   1.38865209   0.02591926
5380.00   1.33624911   0.02562105
5382.00   1.40755022   0.02598906
5384.00   1.29452419   0.02529554
5386.00   1.35338068   0.02560047
5388.00   1.38598013   0.02613780
5390.00   1.41835189   0.02647975
5392.00   1.36538041   0.02660757
5394.00   1.36151302   0.02645884
5396.00   1.38048041   0.02648997
5398.00   1.34999406   0.02644097
5400.00   1.34707355   0.02651998
5402.00   1.32721829   0.02634174
5404.00   1.39064825   0.02684500
5406.00   1.42842734   0.02717592
5408.00   1.42490435   0.02729067
5410.00   1.43674111   0.02748637
5412.00   1.29196525   0.02742822
5414.00   1.37945485   0.02822123
5416.00   1.33123267   0.02828004
5418.00   1.29664373   0.02815362
5420.00   1.33022571   0.02838588
5422.00   1.35966611   0.02879163
5424.00   1.35251582   0.02884244
5426.00   1.35070193   0.02871893
5428.00   1.36418235   0.02858376
5430.00   1.36516929   0.02875671
5432.00   1.25993252   0.02850987
5434.00   1.28887129   0.02850158
5436.00   1.33365405   0.02893576
5438.00   1.35722291   0.02919280
5440.00   1.39036167   0.02933359
5442.00   1.32237566   0.01223581
5444.00   1.31552315   0.01209605
5446.00   1.30709732   0.01277387
5448.00   1.29810107   0.01428920
5450.00   1.29683185   0.01537660
5452.00   1.30243325   0.01607585
5454.00   1.31426358   0.01685334
5456.00   1.33788478   0.01816851
5458.00   1.37291503   0.01978919
5460.00   1.36874068   0.01995682
5462.00   1.31861234   0.01906120
5464.00   1.29993594   0.01792192
5466.00   1.30143178   0.01560332
5468.00   1.30851793   0.01353242
5470.00   1.31447887   0.01305812
5472.00   1.32393980   0.01359001
5474.00   1.34551752   0.01363847
5476.00   1.40271425   0.01395470
5478.00   1.40575039   0.01381117
5480.00   1.35613012   0.01317040
5482.00   1.32099402   0.01266729
5484.00   1.32537258   0.01257504
5486.00   1.33910310   0.01260370
5488.00   1.31331480   0.01227219
5490.00   1.24595153   0.01153433
5492.00   1.22712529   0.01129836
5494.00   1.24090898   0.01150109
5496.00   1.25310230   0.01157559
5498.00   1.26647770   0.01141550
5500.00   1.27737904   0.01126397
5502.00   1.27207172   0.01140498
5504.00   1.24959040   0.01177646
5506.00   1.25453806   0.01195375
5508.00   1.29491067   0.01217573
5510.00   1.30213356   0.01214047
5512.00   1.26948440   0.01166942
5514.00   1.23236704   0.01123457
5516.00   1.21657419   0.01134086
5518.00   1.21009207   0.01179293
5520.00   1.20511091   0.01177880
5522.00   1.20982301   0.01140071
5524.00   1.20636165   0.01121151
5526.00   1.19879198   0.01115170
5528.00   1.18644333   0.01108753
5530.00   1.16537082   0.01097123
5532.00   1.13905859   0.01082729
5534.00   1.12805080   0.01061376
5536.00   1.12716651   0.01021558
5538.00   1.12906408   0.01005185
5540.00   1.14156199   0.01007595
5542.00   1.14904022   0.01011404
5544.00   1.14472020   0.01007799
5546.00   1.13660991   0.01007686
5548.00   1.13957739   0.01033884
5550.00   1.15761042   0.01095419
5552.00   1.15024102   0.01111012
5554.00   1.10990131   0.01059002
5556.00   1.09438324   0.01078178
5558.00   1.12063861   0.01222991
5560.00   1.15372956   0.01357022
5562.00   1.15197992   0.01336551
5564.00   1.13162148   0.01165142
5566.00   1.10081744   0.01211781
5568.00   1.02789962   0.01449489
5570.00   1.00168288   0.01554652
5572.00   1.03160775   0.01555110
5574.00   1.07241988   0.01525253
5576.00   1.09344423   0.01509872
5578.00   1.11091805   0.01488144
5580.00   1.10008276   0.01447904
5582.00   1.05182970   0.01385630
5584.00   1.02204442   0.01318879
5586.00   0.99348235   0.01231103
5588.00   0.98057562   0.01148371
5590.00   0.99949253   0.01091395
5592.00   1.03861749   0.01051931
5594.00   1.04677463   0.01010974
5596.00   1.03353238   0.00976617
5598.00   1.02791679   0.00948154
5600.00   1.02060378   0.00926461
5602.00   1.01503301   0.00912220
5604.00   1.01443219   0.00909123
5606.00   1.01459658   0.00912376
5608.00   1.00471723   0.00907462
5610.00   0.98191863   0.00897322
5612.00   0.97459811   0.00892258
5614.00   0.97776800   0.00889732
5616.00   0.98087949   0.00888165
5618.00   0.98551720   0.00888848
5620.00   0.98877066   0.00889335
5622.00   0.98340881   0.00884873
5624.00   0.97085845   0.00875594
5626.00   0.96053028   0.00872122
5628.00   0.94681627   0.00871905
5630.00   0.93765801   0.00872556
5632.00   0.93450999   0.00876501
5634.00   0.93216723   0.00878898
5636.00   0.92659837   0.00874085
5638.00   0.91978574   0.00863767
5640.00   0.91055125   0.00859534
5642.00   0.89483428   0.00858831
5644.00   0.88685143   0.00857603
5646.00   0.88525641   0.00856975
5648.00   0.88640887   0.00856155
5650.00   0.89104563   0.00853825
5652.00   0.89822060   0.00850903
5654.00   0.89256531   0.00852813
5656.00   0.87308633   0.00856122
5658.00   0.86125249   0.00865762
5660.00   0.85135537   0.00885805
5662.00   0.84309059   0.00900951
5664.00   0.83564764   0.00902483
5666.00   0.83018178   0.00900965
5668.00   0.83075315   0.00919935
5670.00   0.84275126   0.00954235
5672.00   0.83881795   0.00985036
5674.00   0.81891781   0.01014838
5676.00   0.80693805   0.01051908
5678.00   0.80720127   0.01104815
5680.00   0.81177115   0.01154913
5682.00   0.81443077   0.01177357
5684.00   0.82306027   0.01183728
5686.00   0.80759215   0.01177206
5688.00   0.75793731   0.01149644
5690.00   0.73351657   0.01121435
5692.00   0.73680568   0.01090906
5694.00   0.74904233   0.01056384
5696.00   0.75927758   0.01016281
5698.00   0.77455056   0.00968862
5700.00   0.77178133   0.00932947
5702.00   0.75449771   0.00903576
5704.00   0.73591971   0.00879947
5706.00   0.70315117   0.00859126
5708.00   0.68171978   0.00850557
5710.00   0.69303513   0.00867580
5712.00   0.72417414   0.00900725
5714.00   0.72650814   0.00896654
5716.00   0.71149993   0.00831280
5718.00   0.69797844   0.00846053
5720.00   0.67392468   0.00957112
5722.00   0.65811306   0.01009461
5724.00   0.65936971   0.00948235
5726.00   0.66890365   0.00825619
5728.00   0.67046869   0.00774038
5730.00   0.66950154   0.00762055
5732.00   0.66862589   0.00749711
5734.00   0.66551185   0.00758250
5736.00   0.66454214   0.00764295
5738.00   0.66924697   0.00764925
5740.00   0.67323053   0.00765034
5742.00   0.66590756   0.00765962
5744.00   0.64968503   0.00761452
5746.00   0.63500851   0.00782248
5748.00   0.61194164   0.00848382
5750.00   0.60048670   0.00864637
5752.00   0.60439301   0.00811689
5754.00   0.61146986   0.00751363
5756.00   0.61002409   0.00752749
5758.00   0.60409254   0.00789282
5760.00   0.60761368   0.00828043
5762.00   0.62525064   0.00907036
5764.00   0.62763095   0.00932301
5766.00   0.61400479   0.00905290
5768.00   0.59928238   0.00872199
5770.00   0.59195548   0.00863004
5772.00   0.58738369   0.00862000
5774.00   0.58072466   0.00842845
5776.00   0.56980973   0.00798310
5778.00   0.56742311   0.00779449
5780.00   0.57719201   0.00776321
5782.00   0.58074325   0.00783718
5784.00   0.56947082   0.00804789
5786.00   0.55145526   0.00833259
5788.00   0.54161203   0.00846644
5790.00   0.53205520   0.00852838
5792.00   0.53145009   0.00855878
5794.00   0.54254246   0.00854005
5796.00   0.55015862   0.00848976
5798.00   0.54940540   0.00839372
5800.00   0.54842377   0.00827629
5802.00   0.55930835   0.00818967
5804.00   0.58220881   0.00811195
5806.00   0.59079391   0.00804983
5808.00   0.59355426   0.00794882
5810.00   0.58985430   0.00796758
5812.00   0.57633603   0.00818215
5814.00   0.56033605   0.00839259
5816.00   0.54813105   0.00841796
5818.00   0.53514189   0.00834321
5820.00   0.53817934   0.00817315
5822.00   0.55999798   0.00771958
5824.00   0.57444978   0.00753754
5826.00   0.58825362   0.00765217
5828.00   0.59622645   0.00780213
5830.00   0.59132034   0.00784416
5832.00   0.57731038   0.00785579
5834.00   0.57680184   0.00788754
5836.00   0.58540010   0.00791586
5838.00   0.59163773   0.00796016
5840.00   0.60274953   0.00803382
5842.00   0.60729063   0.00808792
5844.00   0.59611851   0.00802716
5846.00   0.57873148   0.00796513
5848.00   0.58230305   0.00831580
5850.00   0.60536289   0.00923434
5852.00   0.61626691   0.00943625
5854.00   0.62352020   0.00914084
5856.00   0.62987715   0.00890595
5858.00   0.63515073   0.00880723
5860.00   0.63985384   0.00876354
5862.00   0.64551026   0.00878972
5864.00   0.65011191   0.00890016
5866.00   0.66064811   0.00899032
5868.00   0.67885017   0.00916348
5870.00   0.69302291   0.00920731
5872.00   0.70562738   0.00905693
5874.00   0.71326327   0.00888307
5876.00   0.70922786   0.00876122
5878.00   0.69421530   0.00851455
5880.00   0.68867439   0.00938979
5882.00   0.68992293   0.01088576
5884.00   0.68531507   0.01254284
5886.00   0.67050540   0.01460008
5888.00   0.66094697   0.01637319
5890.00   0.66564816   0.01775976
5892.00   0.67989212   0.01894613
5894.00   0.70766455   0.01894461
5896.00   0.76600516   0.01772616
5898.00   0.79447621   0.01653870
5900.00   0.80116224   0.01463530
5902.00   0.80365682   0.01281549
5904.00   0.80605960   0.01163666
5906.00   0.80651802   0.01090693
5908.00   0.81319988   0.01031434
5910.00   0.82651073   0.01015591
5912.00   0.83418351   0.01004542
5914.00   0.83462751   0.01032747
5916.00   0.84255946   0.01038356
5918.00   0.86312461   0.00991483
5920.00   0.88863039   0.00936096
5922.00   0.90871096   0.00962226
5924.00   0.93133610   0.01064383
5926.00   0.93798363   0.01080936
5928.00   0.92514998   0.01049512
5930.00   0.92038107   0.01015621
5932.00   0.92355335   0.00967732
5934.00   0.93124408   0.00921525
5936.00   0.94463021   0.00908825
5938.00   0.96616811   0.00922883
5940.00   0.97134006   0.00919403
5942.00   0.95688778   0.00911755
5944.00   0.95800370   0.00903216
5946.00   0.97620273   0.00890629
5948.00   0.99463856   0.00880062
5950.00   1.00228059   0.00877097
5952.00   1.00461257   0.00879187
5954.00   1.00963604   0.00877451
5956.00   1.01587820   0.00876719
5958.00   1.01914108   0.00871184
5960.00   1.01748407   0.00852364
5962.00   1.01853871   0.00845519
5964.00   1.02665091   0.00865124
5966.00   1.03819323   0.00898357
5968.00   1.04482460   0.00920147
5970.00   1.05194044   0.00958820
5972.00   1.05134082   0.00948248
5974.00   1.03834558   0.00869504
5976.00   1.03278172   0.00823489
5978.00   1.04156220   0.00850578
5980.00   1.05496800   0.00901505
5982.00   1.05976582   0.00916799
5984.00   1.06674814   0.00923884
5986.00   1.04998672   0.00910274
5988.00   1.00298345   0.00848864
5990.00   0.96871096   0.00826983
5992.00   0.94550925   0.00870249
5994.00   0.93201357   0.00918512
5996.00   0.93366647   0.00915809
5998.00   0.95069110   0.00882684
6000.00   0.96308899   0.00856190
6002.00   0.97719544   0.00809333
6004.00   0.99353933   0.00785799
6006.00   1.01582849   0.00788522
6008.00   1.03517354   0.00799464
6010.00   1.04437983   0.00809634
6012.00   1.04685473   0.00823859
6014.00   1.04970801   0.00825739
6016.00   1.04753792   0.00818405
6018.00   1.04999101   0.00810246
6020.00   1.05760658   0.00795068
6022.00   1.06324470   0.00783419
6024.00   1.06338274   0.00781693
6026.00   1.06062484   0.00785217
6028.00   1.05950511   0.00783928
6030.00   1.06141222   0.00778790
6032.00   1.05589628   0.00779062
6034.00   1.04236579   0.00783798
6036.00   1.03102660   0.00788003
6038.00   1.02466094   0.00792714
6040.00   1.01985967   0.00795660
6042.00   1.01253080   0.00788932
6044.00   1.00285017   0.00770317
6046.00   0.99728036   0.00762854
6048.00   0.99882835   0.00763656
6050.00   0.99278545   0.00760822
6052.00   0.97462660   0.00751763
6054.00   0.95487446   0.00742629
6056.00   0.94593930   0.00740793
6058.00   0.94430131   0.00744916
6060.00   0.93664283   0.00742264
6062.00   0.92563730   0.00735189
6064.00   0.91635633   0.00729029
6066.00   0.90966898   0.00722632
6068.00   0.90187883   0.00716918
6070.00   0.88955307   0.00713036
6072.00   0.87407839   0.00710504
6074.00   0.86333203   0.00708057
6076.00   0.85357153   0.00706773
6078.00   0.84821951   0.00704586
6080.00   0.85298985   0.00702005
6082.00   0.85131627   0.00698898
6084.00   0.83217728   0.00694523
6086.00   0.80410969   0.00689598
6088.00   0.79091150   0.00687962
6090.00   0.78909749   0.00687936
6092.00   0.78130317   0.00690584
6094.00   0.77297145   0.00696218
6096.00   0.76315528   0.00702990
6098.00   0.75143397   0.00705152
6100.00   0.73835874   0.00711729
6102.00   0.72444177   0.00745953
6104.00   0.70609772   0.00815827
6106.00   0.69814736   0.00832903
6108.00   0.71166503   0.00787904
6110.00   0.70093244   0.00794844
6112.00   0.64657927   0.00898394
6114.00   0.59051281   0.00986466
6116.00   0.58811313   0.00948315
6118.00   0.62818897   0.00794913
6120.00   0.62567854   0.00726172
6122.00   0.59809923   0.00696021
6124.00   0.57595074   0.00678947
6126.00   0.55175263   0.00686409
6128.00   0.53331614   0.00703730
6130.00   0.53375059   0.00716940
6132.00   0.54902279   0.00732333
6134.00   0.53167069   0.00756534
6136.00   0.47611883   0.00820539
6138.00   0.45232815   0.00814121
6140.00   0.45698869   0.00721398
6142.00   0.45992717   0.00628671
6144.00   0.44601479   0.00598466
6146.00   0.42532906   0.00603461
6148.00   0.41427580   0.00608657
6150.00   0.40795320   0.00626676
6152.00   0.40297988   0.00655769
6154.00   0.40551040   0.00721155
6156.00   0.40137491   0.00748682
6158.00   0.38457134   0.00712247
6160.00   0.36244088   0.00643913
6162.00   0.34738642   0.00613573
6164.00   0.33408928   0.00602271
6166.00   0.32477149   0.00589036
6168.00   0.31888255   0.00581452
6170.00   0.31604221   0.00577703
6172.00   0.32073247   0.00580874
6174.00   0.32413608   0.00585100
6176.00   0.31168613   0.00578636
6178.00   0.28488532   0.00558188
6180.00   0.27379367   0.00575379
6182.00   0.26921409   0.00647653
6184.00   0.26976982   0.00662563
6186.00   0.28227282   0.00612196
6188.00   0.29162404   0.00547640
6190.00   0.28179702   0.00517898
6192.00   0.25860512   0.00504587
6194.00   0.25373948   0.00496071
6196.00   0.26341844   0.00503798
6198.00   0.26541659   0.00505982
6200.00   0.26270366   0.00507877
6202.00   0.25955990   0.00507853
6204.00   0.25823131   0.00499589
6206.00   0.25720754   0.00488243
6208.00   0.25267807   0.00506595
6210.00   0.24229942   0.00556860
6212.00   0.23851262   0.00583664
6214.00   0.23898636   0.00617533
6216.00   0.24053887   0.00622024
6218.00   0.24352062   0.00571216
6220.00   0.24690691   0.00489437
6222.00   0.24578854   0.00464750
6224.00   0.23788565   0.00485153
6226.00   0.24039146   0.00489672
6228.00   0.25161132   0.00493043
6230.00   0.26126111   0.00506265
6232.00   0.27064180   0.00536254
6234.00   0.27749509   0.00566394
6236.00   0.27549192   0.00577842
6238.00   0.26461869   0.00580079
6240.00   0.26120526   0.00571342
6242.00   0.25881523   0.00540766
6244.00   0.26117039   0.00520612
6246.00   0.27113432   0.00504933
6248.00   0.28129297   0.00501035
6250.00   0.28444788   0.00521524
6252.00   0.28336301   0.00560949
6254.00   0.28737885   0.00580954
6256.00   0.29302880   0.00603398
6258.00   0.30136731   0.00603028
6260.00   0.31431341   0.00569133
6262.00   0.32654622   0.00539481
6264.00   0.33473712   0.00539367
6266.00   0.34096783   0.00554864
6268.00   0.34967721   0.00565541
6270.00   0.36276883   0.00581641
6272.00   0.36860093   0.00592518
6274.00   0.36711356   0.00606298
6276.00   0.36712056   0.00609459
6278.00   0.36942929   0.00593531
6280.00   0.37432390   0.00567931
6282.00   0.38823649   0.00556394
6284.00   0.41452286   0.00548838
6286.00   0.42985374   0.00551749
6288.00   0.44004977   0.00571473
6290.00   0.44877553   0.00583386
6292.00   0.45465308   0.00581771
6294.00   0.46028858   0.00578683
6296.00   0.47140703   0.00589704
6298.00   0.48815644   0.00612250
6300.00   0.49579427   0.00620638
6302.00   0.49218163   0.00622180
6304.00   0.49805766   0.00620658
6306.00   0.51578641   0.00614195
6308.00   0.53515697   0.00605915
6310.00   0.54867667   0.00599118
6312.00   0.56015086   0.00592275
6314.00   0.56574714   0.00585255
6316.00   0.56126159   0.00576057
6318.00   0.56417179   0.00571179
6320.00   0.57289028   0.00570784
6322.00   0.58289695   0.00571590
6324.00   0.59313506   0.00572253
6326.00   0.60399938   0.00573467
6328.00   0.60920453   0.00573532
6330.00   0.60867918   0.00573529
6332.00   0.61006200   0.00571862
6334.00   0.60947996   0.00567969
6336.00   0.61180824   0.00564458
6338.00   0.61957872   0.00561862
6340.00   0.63006800   0.00559915
6342.00   0.63780850   0.00558920
6344.00   0.64517093   0.00550791
6346.00   0.65097290   0.00566647
6348.00   0.65530640   0.00615652
6350.00   0.65893281   0.00639204
6352.00   0.66171372   0.00627015
6354.00   0.66391927   0.00602283
6356.00   0.66602093   0.00593851
6358.00   0.66726112   0.00592036
6360.00   0.67078197   0.00586770
6362.00   0.67673635   0.00580664
6364.00   0.68165416   0.00575432
6366.00   0.68507987   0.00570559
6368.00   0.68876392   0.00566867
6370.00   0.69450104   0.00565428
6372.00   0.70183462   0.00565881
6374.00   0.70655298   0.00567049
6376.00   0.70541871   0.00567644
6378.00   0.71314842   0.00572960
6380.00   0.73677385   0.00586469
6382.00   0.75227505   0.00596742
6384.00   0.73895121   0.00596507
6386.00   0.70917434   0.00590107
6388.00   0.71632522   0.00587832
6390.00   0.76741689   0.00583180
6392.00   0.77693975   0.00585748
6394.00   0.75154459   0.00600004
6396.00   0.73333180   0.00606992
6398.00   0.73835629   0.00598161
6400.00   0.75215882   0.00581829
6402.00   0.75450599   0.00574905
6404.00   0.75034446   0.00571997
6406.00   0.74980986   0.00570208
6408.00   0.75099456   0.00569441
6410.00   0.75062704   0.00572546
6412.00   0.74691051   0.00580647
6414.00   0.74302793   0.00591504
6416.00   0.74416822   0.00603295
6418.00   0.74964893   0.00621230
6420.00   0.75179535   0.00620770
6422.00   0.75012499   0.00602419
6424.00   0.75336909   0.00587754
6426.00   0.76398647   0.00574690
6428.00   0.77495420   0.00563972
6430.00   0.77971649   0.00558829
6432.00   0.78105521   0.00558228
6434.00   0.78108937   0.00559947
6436.00   0.77701843   0.00560327
6438.00   0.77547425   0.00573098
6440.00   0.77778035   0.00609148
6442.00   0.77781755   0.00633058
6444.00   0.77027369   0.00621967
6446.00   0.75812000   0.00588394
6448.00   0.75509959   0.00573496
6450.00   0.76022863   0.00562008
6452.00   0.76088339   0.00558781
6454.00   0.75892365   0.00562363
6456.00   0.75798279   0.00573713
6458.00   0.75925213   0.00600286
6460.00   0.76181227   0.00630582
6462.00   0.76514739   0.00629363
6464.00   0.77232283   0.00595230
6466.00   0.77263486   0.00583134
6468.00   0.76558435   0.00578897
6470.00   0.76168209   0.00577431
6472.00   0.76330411   0.00577409
6474.00   0.76674235   0.00580966
6476.00   0.76810944   0.00592632
6478.00   0.76964855   0.00619101
6480.00   0.76791555   0.00614160
6482.00   0.76001167   0.00574389
6484.00   0.75785178   0.00551033
6486.00   0.76420367   0.00546781
6488.00   0.77110410   0.00551313
6490.00   0.77010435   0.00558417
6492.00   0.76359260   0.00570401
6494.00   0.76486140   0.00589332
6496.00   0.77320701   0.00630256
6498.00   0.77707124   0.00640920
6500.00   0.77973247   0.00619298
6502.00   0.77808970   0.00594026
6504.00   0.76707327   0.00583777
6506.00   0.74931639   0.00579441
6508.00   0.74558306   0.00575624
6510.00   0.75132215   0.00578176
6512.00   0.75775146   0.00574279
6514.00   0.77315444   0.00563494
6516.00   0.78153223   0.00555039
6518.00   0.77355844   0.00552706
6520.00   0.75790203   0.00553747
6522.00   0.75464559   0.00555252
6524.00   0.75698847   0.00558701
6526.00   0.76258606   0.00562565
6528.00   0.77803904   0.00568112
6530.00   0.78675365   0.00572977
6532.00   0.78481483   0.00577310
6534.00   0.77791953   0.00580727
6536.00   0.77156126   0.00581672
6538.00   0.75980252   0.00580333
6540.00   0.76111650   0.00578972
6542.00   0.77743083   0.00572377
6544.00   0.78580016   0.00573945
6546.00   0.78518593   0.00589373
6548.00   0.78118801   0.00604060
6550.00   0.77684164   0.00601333
6552.00   0.76975417   0.00584489
6554.00   0.76893669   0.00589764
6556.00   0.77527767   0.00609558
6558.00   0.77674377   0.00629168
6560.00   0.77387655   0.00666790
6562.00   0.77009922   0.00683698
6564.00   0.76674569   0.00643640
6566.00   0.76308227   0.00556251
6568.00   0.76275545   0.00530193
6570.00   0.76651287   0.00555507
6572.00   0.76777267   0.00560839
6574.00   0.76739144   0.00563375
6576.00   0.76730371   0.00563961
6578.00   0.76920706   0.00561328
6580.00   0.77139503   0.00556842
6582.00   0.76821285   0.00555874
6584.00   0.75906950   0.00557962
6586.00   0.75348318   0.00557770
6588.00   0.74576741   0.00553237
6590.00   0.74389040   0.00554570
6592.00   0.75158018   0.00563847
6594.00   0.76313400   0.00578016
6596.00   0.76937521   0.00596377
6598.00   0.77473539   0.00628970
6600.00   0.77548969   0.00626654
6602.00   0.77185333   0.00584341
6604.00   0.76662523   0.00560920
6606.00   0.75835484   0.00565394
6608.00   0.74971211   0.00576088
6610.00   0.74428886   0.00575489
6612.00   0.74061495   0.00571774
6614.00   0.73779720   0.00561361
6616.00   0.73535395   0.00535781
6618.00   0.73569554   0.00523430
6620.00   0.74075484   0.00525691
6622.00   0.74507636   0.00530598
6624.00   0.74465293   0.00530864
6626.00   0.74145973   0.00530158
6628.00   0.73819298   0.00530550
6630.00   0.73316854   0.00532807
6632.00   0.72885513   0.00532098
6634.00   0.72455651   0.00528337
6636.00   0.72056639   0.00524654
6638.00   0.71530998   0.00521879
6640.00   0.71067148   0.00519671
6642.00   0.71609193   0.00519929
6644.00   0.73748463   0.00523988
6646.00   0.74220961   0.00524775
6648.00   0.73874295   0.00524724
6650.00   0.73046184   0.00522925
6652.00   0.71383768   0.00516162
6654.00   0.69515967   0.00509622
6656.00   0.69008172   0.00515724
6658.00   0.69485193   0.00534262
6660.00   0.69827169   0.00542177
6662.00   0.70860964   0.00549549
6664.00   0.71171898   0.00548431
6666.00   0.70569253   0.00533806
6668.00   0.69592053   0.00516117
6670.00   0.68609875   0.00507513
6672.00   0.67251337   0.00500944
6674.00   0.67098743   0.00512404
6676.00   0.68076372   0.00544701
6678.00   0.68824184   0.00569095
6680.00   0.69995910   0.00598657
6682.00   0.70532912   0.00613976
6684.00   0.69309837   0.00595435
6686.00   0.66808271   0.00549339
6688.00   0.65492654   0.00524932
6690.00   0.64511168   0.00505155
6692.00   0.63891369   0.00494629
6694.00   0.63987619   0.00496089
6696.00   0.63873446   0.00501712
6698.00   0.62965226   0.00510100
6700.00   0.61724758   0.00521074
6702.00   0.61342329   0.00524782
6704.00   0.61687505   0.00520678
6706.00   0.61728275   0.00523339
6708.00   0.61954683   0.00531910
6710.00   0.61856061   0.00536660
6712.00   0.61226583   0.00536725
6714.00   0.60341406   0.00532534
6716.00   0.59621364   0.00519752
6718.00   0.58739179   0.00489768
6720.00   0.58420825   0.00485373
6722.00   0.58800119   0.00503873
6724.00   0.58826977   0.00515726
6726.00   0.58342415   0.00522105
6728.00   0.57754534   0.00524022
6730.00   0.57451993   0.00517372
6732.00   0.57284075   0.00501301
6734.00   0.57132429   0.00492199
6736.00   0.57541066   0.00479962
6738.00   0.56947422   0.00479911
6740.00   0.54876518   0.00494372
6742.00   0.52932566   0.00512430
6744.00   0.52368468   0.00530427
6746.00   0.52606642   0.00551138
6748.00   0.52735084   0.00546962
6750.00   0.53427392   0.00514129
6752.00   0.53508431   0.00493503
6754.00   0.53005618   0.00474140
6756.00   0.52514380   0.00462216
6758.00   0.52352703   0.00465269
6760.00   0.52294666   0.00477448
6762.00   0.51878339   0.00477308
6764.00   0.51118988   0.00465521
6766.00   0.50529015   0.00466060
6768.00   0.49937785   0.00477717
6770.00   0.49403557   0.00484441
6772.00   0.48886541   0.00482523
6774.00   0.48458314   0.00476084
6776.00   0.48362169   0.00468094
6778.00   0.48805705   0.00453594
6780.00   0.48479852   0.00448188
6782.00   0.47290906   0.00450567
6784.00   0.46686876   0.00451253
6786.00   0.46965164   0.00447316
6788.00   0.47445327   0.00445160
6790.00   0.47475567   0.00454090
6792.00   0.47462180   0.00474052
6794.00   0.46549064   0.00475814
6796.00   0.44200203   0.00463562
6798.00   0.42911509   0.00453846
6800.00   0.42657098   0.00442947
6802.00   0.42747581   0.00434455
6804.00   0.42813218   0.00433767
6806.00   0.43054104   0.00439003
6808.00   0.43078971   0.00439111
6810.00   0.42911956   0.00436149
6812.00   0.42902333   0.00435555
6814.00   0.43185019   0.00435770
6816.00   0.43228960   0.00437790
6818.00   0.42713624   0.00441582
6820.00   0.41859725   0.00447302
6822.00   0.41181451   0.00458062
6824.00   0.40259156   0.00475366
6826.00   0.39883384   0.00489001
6828.00   0.40105551   0.00505467
6830.00   0.40169403   0.00515203
6832.00   0.39880416   0.00516063
6834.00   0.39427552   0.00510642
6836.00   0.38929805   0.00500606
6838.00   0.38206115   0.00482219
6840.00   0.37825152   0.00466428
6842.00   0.37889531   0.00434652
6844.00   0.37595898   0.00430650
6846.00   0.36650234   0.00474795
6848.00   0.35660592   0.00521056
6850.00   0.35362282   0.00521015
6852.00   0.35422280   0.00484890
6854.00   0.35983002   0.00489749
6856.00   0.37896058   0.00514477
6858.00   0.38414770   0.00545846
6860.00   0.37112129   0.00598632
6862.00   0.35716417   0.00637761
6864.00   0.35659215   0.00635850
6866.00   0.36340740   0.00605586
6868.00   0.36411706   0.00582784
6870.00   0.36418632   0.00548721
6872.00   0.36066782   0.00521655
6874.00   0.35135418   0.00498268
6876.00   0.34331781   0.00479330
6878.00   0.34098038   0.00465979
6880.00   0.34145451   0.00458335
6882.00   0.33800739   0.00456275
6884.00   0.32844764   0.00466673
6886.00   0.32817814   0.00467110
6888.00   0.33719626   0.00455658
6890.00   0.34384060   0.00454513
6892.00   0.34557396   0.00477424
6894.00   0.34434441   0.00505567
6896.00   0.33898774   0.00502897
6898.00   0.32551992   0.00461991
6900.00   0.32206053   0.00469974
6902.00   0.32546264   0.00525256
6904.00   0.32885969   0.00550343
6906.00   0.33210880   0.00538455
6908.00   0.33561319   0.00511263
6910.00   0.33904853   0.00487942
6912.00   0.34376892   0.00454306
6914.00   0.34244180   0.00442592
6916.00   0.33319196   0.00447755
6918.00   0.32885975   0.00458231
6920.00   0.33152446   0.00480118
6922.00   0.33326566   0.00500907
6924.00   0.32651895   0.00511208
6926.00   0.31382504   0.00516814
6928.00   0.30934802   0.00508838
6930.00   0.30896857   0.00478467
6932.00   0.31067392   0.00460661
6934.00   0.31779695   0.00449770
6936.00   0.32305014   0.00444714
6938.00   0.32106096   0.00447133
6940.00   0.31527001   0.00455764
6942.00   0.31623960   0.00461349
6944.00   0.32342625   0.00468489
6946.00   0.32612628   0.00472759
6948.00   0.32728523   0.00477959
6950.00   0.32684591   0.00477295
6952.00   0.32385236   0.00466489
6954.00   0.31967124   0.00450035
6956.00   0.31850702   0.00439122
6958.00   0.32035363   0.00428467
6960.00   0.31887156   0.00422914
6962.00   0.31405404   0.00422989
6964.00   0.31144932   0.00423609
6966.00   0.31209537   0.00421502
6968.00   0.31403717   0.00422860
6970.00   0.31541073   0.00437610
6972.00   0.31734046   0.00464374
6974.00   0.31780434   0.00480919
6976.00   0.31676036   0.00502134
6978.00   0.31628332   0.00505796
6980.00   0.31734625   0.00486888
6982.00   0.31731507   0.00461227
6984.00   0.31294745   0.00443279
6986.00   0.30494505   0.00426133
6988.00   0.30315220   0.00415968
6990.00   0.30603284   0.00412365
6992.00   0.30802351   0.00412020
6994.00   0.31137595   0.00419098
6996.00   0.31318253   0.00424862
6998.00   0.31022003   0.00423541
7000.00   0.30455416   0.00418592
7002.00   0.30653808   0.00418263
7004.00   0.31713465   0.00420006
7006.00   0.32099098   0.00422642
7008.00   0.32178783   0.00428597
7010.00   0.32063979   0.00432116
7012.00   0.31578279   0.00431188
7014.00   0.30987039   0.00427698
7016.00   0.31252575   0.00423914
7018.00   0.32482573   0.00417421
7020.00   0.32849741   0.00414088
7022.00   0.32891658   0.00413215
7024.00   0.32651433   0.00411882
7026.00   0.31985140   0.00409530
7028.00   0.31161159   0.00407116
7030.00   0.30639407   0.00405464
7032.00   0.30192801   0.00403729
7034.00   0.30031592   0.00404745
7036.00   0.30147642   0.00407162
7038.00   0.30364865   0.00412281
7040.00   0.30799395   0.00422459
7042.00   0.31233919   0.00431876
7044.00   0.31445953   0.00435037
7046.00   0.31545758   0.00434368
7048.00   0.31445685   0.00433009
7050.00   0.30994928   0.00428694
7052.00   0.30763480   0.00425213
7054.00   0.30671981   0.00421363
7056.00   0.30656374   0.00418377
7058.00   0.30695191   0.00417201
7060.00   0.30800146   0.00417334
7062.00   0.30974919   0.00418017
7064.00   0.31603372   0.00421888
7066.00   0.31409922   0.00421071
7068.00   0.30234146   0.00414918
7070.00   0.29385111   0.00410494
7072.00   0.29400817   0.00408745
7074.00   0.29793933   0.00409846
7076.00   0.29818603   0.00420095
7078.00   0.29798636   0.00446808
7080.00   0.29566643   0.00450877
7082.00   0.28885770   0.00437553
7084.00   0.28571889   0.00426552
7086.00   0.28868273   0.00419579
7088.00   0.29365185   0.00414926
7090.00   0.29511586   0.00415599
7092.00   0.29438174   0.00423529
7094.00   0.29638299   0.00422140
7096.00   0.30129254   0.00413487
7098.00   0.30392590   0.00406850
7100.00   0.30438685   0.00401308
7102.00   0.30341449   0.00397302
7104.00   0.30087745   0.00396425
7106.00   0.29636413   0.00398214
7108.00   0.29455909   0.00400531
7110.00   0.29525679   0.00406897
7112.00   0.29422271   0.00408324
7114.00   0.29173088   0.00404255
7116.00   0.28893784   0.00399955
7118.00   0.28580704   0.00398311
7120.00   0.28238222   0.00397827
7122.00   0.28309101   0.00399218
7124.00   0.28994638   0.00398474
7126.00   0.29121101   0.00407894
7128.00   0.28696960   0.00433545
7130.00   0.28486329   0.00449005
7132.00   0.28827038   0.00443886
7134.00   0.29422066   0.00428308
7136.00   0.29772693   0.00421338
7138.00   0.30222401   0.00415406
7140.00   0.30187929   0.00412783
7142.00   0.29677793   0.00410278
7144.00   0.29162112   0.00415201
7146.00   0.28538722   0.00434690
7148.00   0.28018150   0.00454971
7150.00   0.28186944   0.00453547
7152.00   0.29033414   0.00432124
7154.00   0.29416692   0.00429265
7156.00   0.29544291   0.00439254
7158.00   0.29864946   0.00443599
7160.00   0.30515888   0.00441927
7162.00   0.31131274   0.00438326
7164.00   0.31387156   0.00434906
7166.00   0.31467599   0.00430065
7168.00   0.31019321   0.00429576
7170.00   0.29302338   0.00420566
7172.00   0.29005653   0.00437511
7174.00   0.30368319   0.00492280
7176.00   0.31721991   0.00532556
7178.00   0.32090262   0.00531300
7180.00   0.31983137   0.00505345
7182.00   0.31484181   0.00489263
7184.00   0.29897273   0.00463205
7186.00   0.29414061   0.00451832
7188.00   0.29799503   0.00456004
7190.00   0.30249357   0.00459825
7192.00   0.30513331   0.00457321
7194.00   0.30755484   0.00452978
7196.00   0.30938041   0.00451075
7198.00   0.31117651   0.00451267
7200.00   0.31140143   0.00449150
7202.00   0.30879414   0.00445883
7204.00   0.30818832   0.00441844
7206.00   0.31128153   0.00436431
7208.00   0.31548494   0.00430657
7210.00   0.31720948   0.00426956
7212.00   0.31855071   0.00425120
7214.00   0.31628445   0.00421647
7216.00   0.30903572   0.00416423
7218.00   0.30388677   0.00412975
7220.00   0.30041707   0.00408609
7222.00   0.29851362   0.00408598
7224.00   0.29901439   0.00420123
7226.00   0.30176595   0.00440466
7228.00   0.30492774   0.00458943
7230.00   0.31120813   0.00463990
7232.00   0.31402215   0.00501657
7234.00   0.31455520   0.00573984
7236.00   0.31251782   0.00639388
7238.00   0.30702382   0.00682728
7240.00   0.29847404   0.00716703
7242.00   0.29033476   0.00735332
7244.00   0.27630851   0.00747684
7246.00   0.27308470   0.00736381
7248.00   0.28066081   0.00696127
7250.00   0.28860056   0.00646227
7252.00   0.29345509   0.00587966
7254.00   0.29736882   0.00519319
7256.00   0.29928470   0.00475337
7258.00   0.29895917   0.00448040
7260.00   0.29862574   0.00441970
7262.00   0.29642451   0.00470268
7264.00   0.29569072   0.00495258
7266.00   0.29683116   0.00508296
7268.00   0.29946873   0.00522735
7270.00   0.30446690   0.00554660
7272.00   0.31449363   0.00603087
7274.00   0.31534252   0.00630952
7276.00   0.30633229   0.00659380
7278.00   0.30254561   0.00665351
7280.00   0.30487236   0.00641416
7282.00   0.30967724   0.00605178
7284.00   0.31548247   0.00577442
7286.00   0.32464942   0.00548498
7288.00   0.32371905   0.00522968
7290.00   0.31160963   0.00496476
7292.00   0.30533814   0.00479532
7294.00   0.30361980   0.00473780
7296.00   0.30333453   0.00474346
7298.00   0.30301738   0.00479671
7300.00   0.30340654   0.00490721
7302.00   0.30458140   0.00493594
7304.00   0.30932668   0.00484626
7306.00   0.30847964   0.00491644
7308.00   0.30221108   0.00511659
7310.00   0.29560900   0.00533724
7312.00   0.29021361   0.00559231
7314.00   0.28521499   0.00584404
7316.00   0.28245142   0.00583633
7318.00   0.28068048   0.00549294
7320.00   0.28187805   0.00540588
7322.00   0.28679997   0.00547219
7324.00   0.29172432   0.00550613
7326.00   0.29796028   0.00547196
7328.00   0.30291045   0.00540915
7330.00   0.29875040   0.00532786
7332.00   0.28528574   0.00515273
7334.00   0.27746022   0.00520270
7336.00   0.26877341   0.00548640
7338.00   0.26474378   0.00567006
7340.00   0.26650390   0.00580240
7342.00   0.27120531   0.00583677
7344.00   0.27635077   0.00563556
7346.00   0.28371531   0.00517241
7348.00   0.28821048   0.00490372
7350.00   0.29203340   0.00461613
7352.00   0.29348898   0.00455373
7354.00   0.29009941   0.00481263
7356.00   0.28821367   0.00508946
7358.00   0.29445088   0.00519659
7360.00   0.30614406   0.00523613
7362.00   0.30609763   0.00526954
7364.00   0.29698020   0.00523692
7366.00   0.28919381   0.00526728
7368.00   0.27675280   0.00541695
7370.00   0.26894885   0.00546353
7372.00   0.27206787   0.00528418
7374.00   0.28117645   0.00495592
7376.00   0.28292021   0.00468531
7378.00   0.27970681   0.00425989
7380.00   0.27980059   0.00413047
7382.00   0.28070492   0.00429567
7384.00   0.28257358   0.00444975
7386.00   0.28604361   0.00453529
7388.00   0.29009953   0.00461592
7390.00   0.29226989   0.00471494
7392.00   0.29289618   0.00478577
7394.00   0.29473636   0.00498838
7396.00   0.29866287   0.00541310
7398.00   0.29963067   0.00560714
7400.00   0.29696479   0.00555520
7402.00   0.29240209   0.00536647
7404.00   0.28703004   0.00509365
7406.00   0.27937168   0.00463439
7408.00   0.27642375   0.00436329
7410.00   0.27611956   0.00420105
7412.00   0.27786687   0.00408665
7414.00   0.28316495   0.00405470
7416.00   0.28874192   0.00406095
7418.00   0.29258618   0.00406774
7420.00   0.29592508   0.00409451
7422.00   0.29354745   0.00411768
7424.00   0.28409523   0.00413716
7426.00   0.27768022   0.00417872
7428.00   0.26909247   0.00423747
7430.00   0.26592854   0.00430942
7432.00   0.27446759   0.00440595
7434.00   0.28980124   0.00451330
7436.00   0.29523668   0.00455619
7438.00   0.29719374   0.00457435
7440.00   0.29432517   0.00453162
7442.00   0.28183773   0.00439743
7444.00   0.27393392   0.00427665
7446.00   0.27534497   0.00419182
7448.00   0.28059390   0.00412732
7450.00   0.28226051   0.00409362
7452.00   0.28379297   0.00410017
7454.00   0.28273720   0.00409406
7456.00   0.27807271   0.00407946
7458.00   0.27496746   0.00409165
7460.00   0.27477181   0.00413304
7462.00   0.27453336   0.00419577
7464.00   0.27073887   0.00427900
7466.00   0.26434159   0.00439127
7468.00   0.25887918   0.00446818
7470.00   0.25051826   0.00452484
7472.00   0.24753891   0.00458206
7474.00   0.25073341   0.00464505
7476.00   0.25587416   0.00469613
7478.00   0.26038572   0.00471965
7480.00   0.26572457   0.00472220
7482.00   0.26810694   0.00473172
7484.00   0.26871392   0.00477045
7486.00   0.26786163   0.00473647
7488.00   0.26562914   0.00463877
7490.00   0.26164758   0.00450347
7492.00   0.25473079   0.00431457
7494.00   0.24593122   0.00408171
7496.00   0.24153443   0.00396932
7498.00   0.24036798   0.00397708
7500.00   0.23879953   0.00393863
7502.00   0.23817025   0.00389484
7504.00   0.23763233   0.00386333
7506.00   0.23645148   0.00384719
7508.00   0.23562232   0.00384494
7510.00   0.23765112   0.00385751
7512.00   0.24383692   0.00385257
7514.00   0.24474944   0.00396178
7516.00   0.24149476   0.00414889
7518.00   0.23922274   0.00437546
7520.00   0.23860663   0.00469557
7522.00   0.23816741   0.00498435
7524.00   0.23653464   0.00508491
7526.00   0.23393334   0.00507306
7528.00   0.23255070   0.00498244
7530.00   0.23076136   0.00472207
7532.00   0.23139434   0.00451022
7534.00   0.23587862   0.00432907
7536.00   0.24022718   0.00417058
7538.00   0.24107772   0.00403177
7540.00   0.23996410   0.00390879
7542.00   0.23789139   0.00393648
7544.00   0.23317692   0.00415087
7546.00   0.23012947   0.00428175
7548.00   0.22802854   0.00443467
7550.00   0.22646442   0.00449231
7552.00   0.22492814   0.00434012
7554.00   0.22382538   0.00404617
7556.00   0.22565340   0.00398518
7558.00   0.23019826   0.00410737
7560.00   0.23519716   0.00416018
7562.00   0.24508585   0.00418891
7564.00   0.24956274   0.00426055
7566.00   0.24441366   0.00441800
7568.00   0.23420671   0.00459864
7570.00   0.22622077   0.00467996
7572.00   0.21502914   0.00472941
7574.00   0.21135879   0.00468315
7576.00   0.21443468   0.00449796
7578.00   0.21707636   0.00434199
7580.00   0.21887884   0.00421687
7582.00   0.22070168   0.00412630
7584.00   0.22239912   0.00411183
7586.00   0.22394733   0.00415294
7588.00   0.22584720   0.00427829
7590.00   0.22825196   0.00433699
7592.00   0.23021014   0.00472992
7594.00   0.23297748   0.00528658
7596.00   0.23398638   0.00608087
7598.00   0.22858413   0.00727217
7600.00   0.21720420   0.00868923
7602.00   0.22296229   0.00926353
7604.00   0.25209588   0.00958045
7606.00   0.26001051   0.00939691
7608.00   0.24741624   0.00839697
7610.00   0.23443235   0.00727728
7612.00   0.23196051   0.00658743
7614.00   0.23355742   0.00611592
7616.00   0.22978877   0.00575200
7618.00   0.22149958   0.00561721
7620.00   0.21701694   0.00559790
7622.00   0.21211374   0.00577849
7624.00   0.21208347   0.00601841
7626.00   0.22115771   0.00634950
7628.00   0.23418133   0.00668622
7630.00   0.23837785   0.00673552
7632.00   0.23823936   0.00658207
7634.00   0.23515837   0.00636857
7636.00   0.22470912   0.00593307
7638.00   0.21836756   0.00555790
7640.00   0.21758224   0.00528212
7642.00   0.21972644   0.00507408
7644.00   0.22360609   0.00495165
7646.00   0.23169687   0.00494572
7648.00   0.23278417   0.00489768
7650.00   0.22719245   0.00486088
7652.00   0.22470672   0.00482741
7654.00   0.22483349   0.00479202
7656.00   0.22647361   0.00476832
7658.00   0.23046643   0.00478138
7660.00   0.23742504   0.00483087
7662.00   0.23559019   0.00478287
7664.00   0.22286853   0.00464396
7666.00   0.21835677   0.00452645
7668.00   0.22116710   0.00437964
7670.00   0.22454767   0.00427482
7672.00   0.22500935   0.00427514
7674.00   0.22451182   0.00434596
7676.00   0.22482619   0.00437829
7678.00   0.22612801   0.00444752
7680.00   0.22576240   0.00443086
7682.00   0.22430529   0.00432494
7684.00   0.22209530   0.00422157
7686.00   0.21819499   0.00413229
7688.00   0.21396507   0.00406031
7690.00   0.21436746   0.00408789
7692.00   0.22057201   0.00424278
7694.00   0.22088870   0.00429384
7696.00   0.21720608   0.00429937
7698.00   0.21420588   0.00429746
7700.00   0.21194777   0.00424220
7702.00   0.21045437   0.00421912
7704.00   0.21111028   0.00437772
7706.00   0.21409036   0.00461233
7708.00   0.21537590   0.00506855
7710.00   0.21505743   0.00582100
7712.00   0.21668544   0.00631985
7714.00   0.22207822   0.00671557
7716.00   0.22656237   0.00691718
7718.00   0.22493786   0.00675135
7720.00   0.21871234   0.00623730
7722.00   0.21711293   0.00583359
7724.00   0.21960679   0.00526836
7726.00   0.21820332   0.00486870
7728.00   0.21127857   0.00466093
7730.00   0.20634723   0.00453577
7732.00   0.20907068   0.00444987
7734.00   0.21625924   0.00443123
7736.00   0.21697628   0.00434371
7738.00   0.21316022   0.00407518
7740.00   0.21107125   0.00414715
7742.00   0.20967492   0.00445187
7744.00   0.20742755   0.00486594
7746.00   0.20257603   0.00543324
7748.00   0.19719476   0.00601742
7750.00   0.19774370   0.00624996
7752.00   0.20369199   0.00629685
7754.00   0.20796165   0.00621668
7756.00   0.21455744   0.00589012
7758.00   0.21816337   0.00557380
7760.00   0.21710674   0.00530001
7762.00   0.21416207   0.00503344
7764.00   0.21315804   0.00478130
7766.00   0.21316954   0.00452453
7768.00   0.21092696   0.00436568
7770.00   0.20485651   0.00428187
7772.00   0.20275931   0.00428076
7774.00   0.20696041   0.00441091
7776.00   0.21106967   0.00456161
7778.00   0.20795023   0.00461733
7780.00   0.19941679   0.00462147
7782.00   0.19908980   0.00469116
7784.00   0.20453086   0.00475131
7786.00   0.20926738   0.00491067
7788.00   0.21739008   0.00521291
7790.00   0.22175081   0.00547591
7792.00   0.21589050   0.00562634
7794.00   0.20325217   0.00571444
7796.00   0.19777881   0.00563961
7798.00   0.19183914   0.00532681
7800.00   0.19457090   0.00511141
7802.00   0.21081497   0.00487764
7804.00   0.22177377   0.00471341
7806.00   0.21887913   0.00467558
7808.00   0.20952797   0.00472362
7810.00   0.20634174   0.00476842
7812.00   0.20477091   0.00477903
7814.00   0.20430462   0.00498430
7816.00   0.20644364   0.00538842
7818.00   0.20738985   0.00572112
7820.00   0.20590013   0.00605003
7822.00   0.20392676   0.00626761
7824.00   0.20462401   0.00608173
7826.00   0.20899622   0.00544893
7828.00   0.20565997   0.00501435
7830.00   0.19220911   0.00445069
7832.00   0.18645531   0.00412325
7834.00   0.19032818   0.00417148
7836.00   0.19695954   0.00436461
7838.00   0.20118618   0.00448681
7840.00   0.20606363   0.00463250
7842.00   0.20495068   0.00479701
7844.00   0.19528106   0.00481062
7846.00   0.19194101   0.00519908
7848.00   0.19579904   0.00594709
7850.00   0.19883321   0.00666576
7852.00   0.19428486   0.00730069
7854.00   0.18552250   0.00790817
7856.00   0.18894243   0.00788087
7858.00   0.20731717   0.00712768
7860.00   0.21291329   0.00663232
7862.00   0.20849207   0.00609745
7864.00   0.20459810   0.00567894
7866.00   0.20528106   0.00550606
7868.00   0.20750958   0.00551722
7870.00   0.20819578   0.00555450
7872.00   0.20845196   0.00580728
7874.00   0.20837614   0.00579785
7876.00   0.20831440   0.00558319
7878.00   0.20721515   0.00539721
7880.00   0.20364444   0.00519027
7882.00   0.20000009   0.00507754
7884.00   0.20129444   0.00543837
7886.00   0.20771801   0.00631919
7888.00   0.20869485   0.00644422
7890.00   0.20530958   0.00608751
7892.00   0.20412952   0.00571860
7894.00   0.20578496   0.00524943
7896.00   0.20808065   0.00476358
7898.00   0.20923147   0.00448269
7900.00   0.21001813   0.00434389
7902.00   0.21050602   0.00437772
7904.00   0.20926808   0.00441478
7906.00   0.21069311   0.00493416
7908.00   0.21648431   0.00599322
7910.00   0.22095346   0.00687977
7912.00   0.21846493   0.00734486
7914.00   0.21159622   0.00762323
7916.00   0.21601215   0.00780510
7918.00   0.23580612   0.00797495
7920.00   0.23996508   0.00780343
7922.00   0.23231646   0.00714842
7924.00   0.22210206   0.00647175
7926.00   0.21026856   0.00600761
7928.00   0.19736032   0.00564423
7930.00   0.19530757   0.00537814
7932.00   0.20513138   0.00535580
7934.00   0.20790218   0.00515601
7936.00   0.20894608   0.00479456
7938.00   0.20910238   0.00454441
7940.00   0.20764267   0.00450597
7942.00   0.20588548   0.00458143
7944.00   0.20724221   0.00465703
7946.00   0.21174319   0.00482570
7948.00   0.21294944   0.00485061
7950.00   0.21245274   0.00475541
7952.00   0.21145514   0.00469216
7954.00   0.21201977   0.00429177
7956.00   0.20975451   0.00430166
7958.00   0.19741307   0.00576182
7960.00   0.17457220   0.00788861
7962.00   0.16879795   0.00842733
7964.00   0.17340013   0.00829108
7966.00   0.18130302   0.00786400
7968.00   0.19642597   0.00662445
7970.00   0.21207176   0.00526256
7972.00   0.22359309   0.00490721
7974.00   0.23344493   0.00528554
7976.00   0.23759338   0.00531678
7978.00   0.23687693   0.00543411
7980.00   0.23306668   0.00543030
7982.00   0.22262360   0.00524408
7984.00   0.21360549   0.00515308
7986.00   0.20926555   0.00530089
7988.00   0.20753731   0.00557529
7990.00   0.20816600   0.00582074
7992.00   0.21428889   0.00624832
7994.00   0.21544752   0.00631182
7996.00   0.21346134   0.00611565
7998.00   0.21186696   0.00584125
8000.00   0.21066424   0.00544867
8002.00   0.21026686   0.00498935
8004.00   0.21323189   0.00474745
8006.00   0.21994752   0.00465773
8008.00   0.22412953   0.00464590
8010.00   0.22816236   0.00480629
8012.00   0.23074734   0.00493223
8014.00   0.23242182   0.00498395
8016.00   0.23220885   0.00506682
8018.00   0.22783884   0.00529446
8020.00   0.21864381   0.00562903
8022.00   0.21650811   0.00587671
8024.00   0.21947183   0.00624635
8026.00   0.22169271   0.00630046
8028.00   0.22426562   0.00597005
8030.00   0.22657746   0.00555083
8032.00   0.22737154   0.00528562
8034.00   0.22709596   0.00506697
8036.00   0.23011719   0.00488638
8038.00   0.23838799   0.00480174
8040.00   0.24075523   0.00466006
8042.00   0.23768061   0.00442560
8044.00   0.23437990   0.00426763
8046.00   0.23317327   0.00428090
8048.00   0.23252337   0.00440872
8050.00   0.23085259   0.00457922
8052.00   0.22926983   0.00487649
8054.00   0.22595668   0.00506720
8056.00   0.22066519   0.00524833
8058.00   0.21554616   0.00535887
8060.00   0.21029639   0.00537870
8062.00   0.20568769   0.00534042
8064.00   0.20465164   0.00530069
8066.00   0.20677921   0.00529145
8068.00   0.20886338   0.00507047
8070.00   0.21369293   0.00447649
8072.00   0.21600094   0.00409002
8074.00   0.21483320   0.00407739
8076.00   0.21245691   0.00420048
8078.00   0.21119195   0.00422826
8080.00   0.21019512   0.00426575
8082.00   0.20845078   0.00427062
8084.00   0.20406550   0.00421397
8086.00   0.20387942   0.00422719
8088.00   0.20868085   0.00433065
8090.00   0.21455519   0.00443328
8092.00   0.21951316   0.00446792
8094.00   0.22486091   0.00446602
8096.00   0.22384050   0.00449324
8098.00   0.21619965   0.00455254
8100.00   0.21015097   0.00456188
8102.00   0.20292105   0.00453541
8104.00   0.19701687   0.00448278
8106.00   0.19370739   0.00438466
8108.00   0.19222601   0.00425793
8110.00   0.19241619   0.00423803
8112.00   0.19639415   0.00429829
8114.00   0.19721974   0.00436975
8116.00   0.19831908   0.00456492
8118.00   0.19578068   0.00462327
8120.00   0.18595082   0.00439911
8122.00   0.17397921   0.00406783
8124.00   0.17209591   0.00407247
8126.00   0.18099187   0.00433726
8128.00   0.17765290   0.00447790
8130.00   0.16221808   0.00467209
8132.00   0.15480100   0.00474783
8134.00   0.15955545   0.00464764
8136.00   0.16736406   0.00449934
8138.00   0.16859929   0.00447100
8140.00   0.16722709   0.00449844
8142.00   0.16397171   0.00455185
8144.00   0.15535632   0.00470837
8146.00   0.15132797   0.00475487
8148.00   0.15236568   0.00469072
8150.00   0.15455097   0.00458218
8152.00   0.15559049   0.00445795
8154.00   0.15679331   0.00429205
8156.00   0.15468554   0.00423177
8158.00   0.14788774   0.00426066
8160.00   0.14460084   0.00428461
8162.00   0.14377049   0.00434439
8164.00   0.14371547   0.00438615
8166.00   0.14508152   0.00435751
8168.00   0.14706421   0.00429752
8170.00   0.14156882   0.00437265
8172.00   0.12389307   0.00442665
8174.00   0.11953691   0.00476299
8176.00   0.12683628   0.00543182
8178.00   0.13081557   0.00590723
8180.00   0.12666988   0.00610990
8182.00   0.11936087   0.00619037
8184.00   0.11491971   0.00626949
8186.00   0.11107431   0.00625439
8188.00   0.10764945   0.00634844
8190.00   0.10310432   0.00654868
8192.00   0.10205060   0.00667443
8194.00   0.10773521   0.00677131
8196.00   0.11374895   0.00676517
8198.00   0.11064162   0.00647194
8200.00   0.10058472   0.00583424
8202.00   0.09454052   0.00542574
8204.00   0.08849327   0.00509069
8206.00   0.08401110   0.00480235
8208.00   0.08245356   0.00459945
8210.00   0.08035379   0.00443643
8212.00   0.07384408   0.00425362
8214.00   0.06411519   0.00407416
8216.00   0.06041066   0.00399130
8218.00   0.06184621   0.00400560
8220.00   0.06131771   0.00403662
8222.00   0.05855863   0.00411907
8224.00   0.05782627   0.00420378
8226.00   0.06159370   0.00425925
8228.00   0.06832229   0.00430625
8230.00   0.07488309   0.00438913
8232.00   0.08898450   0.00455021
8234.00   0.08857945   0.00458966
8236.00   0.07397009   0.00453887
8238.00   0.06071907   0.00446772
8240.00   0.05208524   0.00440582
8242.00   0.04586904   0.00432024
8244.00   0.04478260   0.00414442
8246.00   0.05101652   0.00381173
8248.00   0.05162307   0.00363756
8250.00   0.04929002   0.00356607
8252.00   0.04761162   0.00352438
8254.00   0.04604323   0.00352197
8256.00   0.04560487   0.00354342
8258.00   0.04959356   0.00354872
8260.00   0.05953592   0.00355980
8262.00   0.05854720   0.00354575
8264.00   0.04575468   0.00345520
8266.00   0.04011892   0.00347309
8268.00   0.04355809   0.00348671
8270.00   0.04728436   0.00369645
8272.00   0.04315645   0.00427710
8274.00   0.03377624   0.00504746
8276.00   0.03438704   0.00568319
8278.00   0.04342073   0.00640089
8280.00   0.04964265   0.00689561
8282.00   0.05885774   0.00731725
8284.00   0.06213477   0.00755793
8286.00   0.05248113   0.00750612
8288.00   0.03420692   0.00724361
8290.00   0.02076146   0.00717521
8292.00   0.00039712   0.00713417
8294.00   -0.00360754   0.00720764
8296.00   0.01125249   0.00751583
8298.00   0.02147512   0.00765978
8300.00   0.01672265   0.00754271
8302.00   0.00757226   0.00723900
8304.00   0.01330298   0.00672148
8306.00   0.03458213   0.00561499
8308.00   0.04026413   0.00509191
8310.00   0.03596395   0.00516452
8312.00   0.03260393   0.00510842
8314.00   0.03071791   0.00478932
8316.00   0.02947535   0.00440875
8318.00   0.03009204   0.00420580
8320.00   0.03238566   0.00414289
8322.00   0.03458210   0.00400049
8324.00   0.03969076   0.00383038
8326.00   0.04031312   0.00368087
8328.00   0.03521048   0.00346488
8330.00   0.02869995   0.00336775
8332.00   0.02455389   0.00338701
8334.00   0.02122038   0.00333115
8336.00   0.01656206   0.00503623
8338.00   0.00799838   0.00773659
8340.00   0.00597182   0.00899327
8342.00   0.01044282   0.00982158
8344.00   0.01670298   0.01012077
8346.00   0.02314075   0.00960932
8348.00   0.03053204   0.00837567
8350.00   0.03362283   0.00763798
8352.00   0.03026889   0.00706673
8354.00   0.03370726   0.00646801
8356.00   0.04574903   0.00588116
8358.00   0.05231600   0.00537448
8360.00   0.04740908   0.00501990
8362.00   0.03668421   0.00479589
8364.00   0.02936084   0.00457650
8366.00   0.01891982   0.00444882
8368.00   0.01701931   0.00430882
8370.00   0.02465108   0.00412885
8372.00   0.02898831   0.00408627
8374.00   0.02855652   0.00421891
8376.00   0.02561209   0.00445926
8378.00   0.02052361   0.00477583
8380.00   0.01159422   0.00527963
8382.00   0.00708717   0.00533209
8384.00   0.00389319   0.00486483
8386.00   0.00352849   0.00472568
8388.00   0.00481612   0.00485198
8390.00   0.01001601   0.00524660
8392.00   0.02339670   0.00603995
8394.00   0.04504557   0.00711925
8396.00   0.05414249   0.00755207
8398.00   0.05650846   0.00781333
8400.00   0.05552100   0.00768083
8402.00   0.04708441   0.00690523
8404.00   0.03967432   0.00604150
8406.00   0.03958761   0.00554457
8408.00   0.04337468   0.00525204
8410.00   0.04243638   0.00530170
8412.00   0.03718259   0.00606997
8414.00   0.03619026   0.00613028
8416.00   0.03912167   0.00551484
8418.00   0.04106174   0.00510530
8420.00   0.03969049   0.00526698
8422.00   0.03715902   0.00576264
8424.00   0.03752142   0.00654869
8426.00   0.03789140   0.00790794
8428.00   0.04338471   0.00837327
8430.00   0.05877120   0.00850006
8432.00   0.06620879   0.00830146
8434.00   0.06167396   0.00761597
8436.00   0.05143661   0.00657925
8438.00   0.04091674   0.00559893
8440.00   0.02173007   0.00416497
8442.00   0.02566999   0.00353027
8444.00   0.05546368   0.00400975
8446.00   0.07306978   0.00441988
8448.00   0.07904136   0.00492092
8450.00   0.07868169   0.00535146
8452.00   0.07192098   0.00546212
8454.00   0.05638077   0.00534014
8456.00   0.05463887   0.00552645
8458.00   0.06688274   0.00581743
8460.00   0.06913411   0.00623305
8462.00   0.06029980   0.00698703
8464.00   0.05294967   0.00746575
8466.00   0.05602848   0.00733789
8468.00   0.06485822   0.00679412
8470.00   0.06504471   0.00621113
8472.00   0.05753696   0.00505545
8474.00   0.05567814   0.00431102
8476.00   0.05697508   0.00399354
8478.00   0.05923383   0.00382340
8480.00   0.06155420   0.00369541
8482.00   0.06470026   0.00370190
8484.00   0.07009954   0.00384771
8486.00   0.08076441   0.00414014
8488.00   0.08380678   0.00447111
8490.00   0.08088360   0.00495729
8492.00   0.07818199   0.00529798
8494.00   0.07697380   0.00544730
8496.00   0.07546788   0.00553089
8498.00   0.07169367   0.00569586
8500.00   0.06492237   0.00592062
8502.00   0.06266719   0.00600625
8504.00   0.06038644   0.00607397
8506.00   0.06461275   0.00596361
8508.00   0.07873891   0.00558147
8510.00   0.09462924   0.00509166
8512.00   0.10393126   0.00470696
8514.00   0.11054013   0.00432706
8516.00   0.11292341   0.00407016
8518.00   0.10951789   0.00397213
8520.00   0.10679158   0.00388611
8522.00   0.10182729   0.00384284
8524.00   0.09905086   0.00383669
8526.00   0.10288413   0.00385462
8528.00   0.11116540   0.00390282
8530.00   0.11393612   0.00399880
8532.00   0.11087041   0.00414510
8534.00   0.11431949   0.00429870
8536.00   0.12479830   0.00447835
8538.00   0.13314702   0.00465458
8540.00   0.13454106   0.00482372
8542.00   0.13308004   0.00498622
8544.00   0.13756174   0.00511717
8546.00   0.14550006   0.00526972
8548.00   0.15421264   0.00529756
8550.00   0.17018829   0.00525251
8552.00   0.17751840   0.00511674
8554.00   0.16925819   0.00480942
8556.00   0.15592827   0.00443218
8558.00   0.15480882   0.00426877
8560.00   0.16177884   0.00423685
8562.00   0.16369745   0.00429477
8564.00   0.16284345   0.00459377
8566.00   0.16458605   0.00470486
8568.00   0.17114817   0.00457366
8570.00   0.17722228   0.00438532
8572.00   0.17541368   0.00432822
8574.00   0.16608728   0.00432574
8576.00   0.17245844   0.00436243
8578.00   0.19450639   0.00439692
8580.00   0.20868206   0.00456826
8582.00   0.21846806   0.00498118
8584.00   0.22431697   0.00528492
8586.00   0.22444503   0.00523954
8588.00   0.21955262   0.00496772
8590.00   0.21868050   0.00493793
8592.00   0.21788220   0.00507060
8594.00   0.21988718   0.00510838
8596.00   0.22580683   0.00510878
8598.00   0.23109823   0.00508270
8600.00   0.23379925   0.00501150
8602.00   0.23530145   0.00491558
8604.00   0.23705401   0.00490553
8606.00   0.23818721   0.00491362
8608.00   0.23988338   0.00503668
8610.00   0.24057552   0.00524681
8612.00   0.24364351   0.00551438
8614.00   0.25214157   0.00583945
8616.00   0.26129770   0.00619857
8618.00   0.26064134   0.00655222
8620.00   0.24748045   0.00692985
8622.00   0.25329274   0.00725829
8624.00   0.27816117   0.00762226
8626.00   0.29306978   0.00785466
8628.00   0.29781619   0.00796932
8630.00   0.29582652   0.00798333
8632.00   0.28499547   0.00788264
8634.00   0.26167229   0.00765482
8636.00   0.26016441   0.00740125
8638.00   0.27951959   0.00696500
8640.00   0.28811356   0.00669747
8642.00   0.28451747   0.00655727
8644.00   0.28300178   0.00656458
8646.00   0.29493728   0.00677203
8648.00   0.31532839   0.00714437
8650.00   0.32334295   0.00745256
8652.00   0.32207328   0.00787088
8654.00   0.32463443   0.00808000
8656.00   0.32995740   0.00801777
8658.00   0.33307245   0.00806984
8660.00   0.32934588   0.00847980
8662.00   0.32296127   0.00901668
8664.00   0.32968661   0.00915647
8666.00   0.35685524   0.00910213
8668.00   0.35988930   0.00887317
8670.00   0.34594294   0.00830699
8672.00   0.33167154   0.00775929
8674.00   0.31700516   0.00730794
8676.00   0.30409184   0.00690270
8678.00   0.30538058   0.00658649
8680.00   0.32010829   0.00638820
8682.00   0.32991314   0.00618466
8684.00   0.34314373   0.00598068
8686.00   0.35193592   0.00589047
8688.00   0.35416636   0.00593721
8690.00   0.35477573   0.00607342
8692.00   0.36011845   0.00629128
8694.00   0.36959779   0.00666117
8696.00   0.36809790   0.00663306
8698.00   0.35458460   0.00619552
8700.00   0.34735030   0.00591744
8702.00   0.34524968   0.00576369
8704.00   0.34503257   0.00566908
8706.00   0.34576491   0.00563396
8708.00   0.34813869   0.00566876
8710.00   0.34677628   0.00558665
8712.00   0.33887699   0.00533799
8714.00   0.33942756   0.00527670
8716.00   0.34880644   0.00536106
8718.00   0.35756904   0.00550664
8720.00   0.36181715   0.00570934
8722.00   0.36393505   0.00595157
8724.00   0.36422324   0.00607389
8726.00   0.35754746   0.00616815
8728.00   0.36088416   0.00614059
8730.00   0.37332621   0.00595437
8732.00   0.38377619   0.00577780
8734.00   0.39119881   0.00563845
8736.00   0.39573252   0.00552173
8738.00   0.39221436   0.00547421
8740.00   0.37823442   0.00550691
8742.00   0.37291726   0.00550446
8744.00   0.36975983   0.00543767
8746.00   0.37058342   0.00549528
8748.00   0.37851021   0.00561793
8750.00   0.38721091   0.00589768
8752.00   0.38746107   0.00645859
8754.00   0.38145900   0.00717239
8756.00   0.38077432   0.00804855
8758.00   0.38027969   0.00926717
8760.00   0.38429251   0.01005773
8762.00   0.39789331   0.01063510
8764.00   0.40815300   0.01095823
8766.00   0.40158004   0.01087397
8768.00   0.38309565   0.01042110
8770.00   0.38320437   0.01035357
8772.00   0.40009639   0.01047447
8774.00   0.40631297   0.01060964
8776.00   0.40750200   0.01099319
8778.00   0.40430117   0.01111829
8780.00   0.39199513   0.01068603
8782.00   0.37505016   0.00985485
8784.00   0.38127884   0.00907212
8786.00   0.41763291   0.00778112
8788.00   0.42710790   0.00712974
8790.00   0.41843307   0.00722111
8792.00   0.41219148   0.00724404
8794.00   0.41528451   0.00698110
8796.00   0.42006087   0.00662801
8798.00   0.41545051   0.00633622
8800.00   0.39959693   0.00599972
8802.00   0.39826033   0.00582582
8804.00   0.40683880   0.00577019
8806.00   0.41579798   0.00581860
8808.00   0.42707479   0.00597718
8810.00   0.43724668   0.00622190
8812.00   0.43855798   0.00649383
8814.00   0.43156728   0.00674728
8816.00   0.43344215   0.00735695
8818.00   0.44082516   0.00785589
8820.00   0.44715679   0.00906594
8822.00   0.45975053   0.01118366
8824.00   0.46385458   0.01284341
8826.00   0.44231534   0.01342427
8828.00   0.40078315   0.01344024
8830.00   0.37975323   0.01322357
8832.00   0.36100072   0.01247265
8834.00   0.35922271   0.01170021
8836.00   0.38071954   0.01060767
8838.00   0.40203702   0.00953657
8840.00   0.40970647   0.00875971
8842.00   0.41226146   0.00819624
8844.00   0.42500797   0.00780798
8846.00   0.45271868   0.00782433
8848.00   0.46108148   0.00768352
8850.00   0.45116764   0.00756099
8852.00   0.44605586   0.00740904
8854.00   0.45510757   0.00712887
8856.00   0.46793687   0.00684957
8858.00   0.46673986   0.00695931
8860.00   0.45150280   0.00734144
8862.00   0.45014998   0.00781689
8864.00   0.46155724   0.00875578
8866.00   0.46438769   0.00913411
8868.00   0.45354623   0.00879680
8870.00   0.43924055   0.00816015
8872.00   0.43347684   0.00769188
8874.00   0.43270633   0.00699993
8876.00   0.42807719   0.00724207
8878.00   0.41615391   0.00820018
8880.00   0.41600588   0.00918683
8882.00   0.43179679   0.01046237
8884.00   0.44936192   0.01150158
8886.00   0.45764086   0.01202580
8888.00   0.46203718   0.01230610
8890.00   0.45996931   0.01173890
8892.00   0.44568896   0.00948113
8894.00   0.44033000   0.00823772
8896.00   0.44282281   0.00805307
8898.00   0.44530293   0.00824387
8900.00   0.44479600   0.00855612
8902.00   0.44283393   0.00908320
8904.00   0.43550676   0.00933071
8906.00   0.41445923   0.00952085
8908.00   0.41221663   0.00954469
8910.00   0.42737192   0.00902209
8912.00   0.43979156   0.00905813
8914.00   0.44461548   0.01020132
8916.00   0.44550318   0.01161637
8918.00   0.44126302   0.01221035
8920.00   0.42798120   0.01263262
8922.00   0.42303854   0.01237451
8924.00   0.42367372   0.01120919
8926.00   0.42266014   0.01002216
8928.00   0.41655353   0.00871291
8930.00   0.41185760   0.00742624
8932.00   0.41882616   0.00700098
8934.00   0.43734622   0.00745475
8936.00   0.44368586   0.00775224
8938.00   0.44215158   0.00837501
8940.00   0.44253793   0.00877378
8942.00   0.44338027   0.00898327
8944.00   0.44565889   0.00911723
8946.00   0.45360655   0.00915993
8948.00   0.46746421   0.00905561
8950.00   0.46032661   0.00959251
8952.00   0.42328623   0.01064518
8954.00   0.41324490   0.01150652
8956.00   0.43114519   0.01264068
8958.00   0.44761914   0.01326405
8960.00   0.44631737   0.01291361
8962.00   0.43662959   0.01185953
8964.00   0.43122864   0.01092765
8966.00   0.42214966   0.00941145
8968.00   0.42100394   0.00840727
8970.00   0.42942211   0.00786327
8972.00   0.43475524   0.00750805
8974.00   0.43325910   0.00726320
8976.00   0.42793500   0.00722385
8978.00   0.41961256   0.00741285
8980.00   0.39897478   0.00777895
8982.00   0.40094727   0.00839905
8984.00   0.42348891   0.00949124
8986.00   0.44226375   0.01016359
8988.00   0.45695212   0.01035679
8990.00   0.46761194   0.01034717
8992.00   0.46820071   0.01034524
8994.00   0.45996055   0.01015180
8996.00   0.44969451   0.01038536
8998.00   0.42481664   0.01098026
9000.00   0.41681778   0.01147359
9002.00   0.43396968   0.01218332
9004.00   0.45162803   0.01252429
9006.00   0.44575706   0.01176417
9008.00   0.42497218   0.00988647
9010.00   0.41581419   0.00875107
9012.00   0.40784663   0.00777567
9014.00   0.40621763   0.00716398
9016.00   0.41497225   0.00722234
9018.00   0.42189285   0.00740116
9020.00   0.41853356   0.00738680
9022.00   0.40966004   0.00734975
9024.00   0.40671170   0.00727759
9026.00   0.41085315   0.00711651
9028.00   0.40493247   0.00705428
9030.00   0.39045393   0.00706494
9032.00   0.37528586   0.00709244
9034.00   0.35901153   0.00704978
9036.00   0.34363165   0.00704503
9038.00   0.34212860   0.00742091
9040.00   0.35348979   0.00818020
9042.00   0.36313358   0.00864307
9044.00   0.37973166   0.00916967
9046.00   0.39113206   0.00937872
9048.00   0.39598587   0.00916840
9050.00   0.39624736   0.00873112
9052.00   0.39136311   0.00831743
9054.00   0.37779683   0.00769782
9056.00   0.37537408   0.00745604
9058.00   0.38149771   0.00755380
9060.00   0.38522297   0.00764295
9062.00   0.38783357   0.00782592
9064.00   0.38858721   0.00794318
9066.00   0.38456023   0.00775678
9068.00   0.37579089   0.00730259
9070.00   0.37507364   0.00714932
9072.00   0.38249400   0.00714872
9074.00   0.38444778   0.00721331
9076.00   0.38151652   0.00734695
9078.00   0.37813580   0.00756892
9080.00   0.37675041   0.00795498
9082.00   0.37605160   0.00843865
9084.00   0.37460738   0.00852214
9086.00   0.37338951   0.00818794
9088.00   0.37084106   0.00811116
9090.00   0.36701787   0.00813207
9092.00   0.36281535   0.00822831
9094.00   0.35862747   0.00846098
9096.00   0.35410833   0.00873786
9098.00   0.34856218   0.00873752
9100.00   0.33948189   0.00846661
9102.00   0.33708850   0.00834975
9104.00   0.33981779   0.00836159
9106.00   0.34342769   0.00821910
9108.00   0.34968299   0.00775367
9110.00   0.35517913   0.00719794
9112.00   0.35123259   0.00703631
9114.00   0.33697987   0.00716864
9116.00   0.33455360   0.00725538
9118.00   0.34105203   0.00756869
9120.00   0.34441274   0.00760321
9122.00   0.34514484   0.00715459
9124.00   0.34412834   0.00671514
9126.00   0.34075713   0.00692467
9128.00   0.33491212   0.00755591
9130.00   0.33015469   0.00789962
9132.00   0.32127127   0.00840207
9134.00   0.32095757   0.00842866
9136.00   0.33438054   0.00784308
9138.00   0.34397477   0.00718950
9140.00   0.33625719   0.00688062
9142.00   0.31816140   0.00674221
9144.00   0.31087372   0.00678664
9146.00   0.30741370   0.00695664
9148.00   0.30655622   0.00740976
9150.00   0.31392869   0.00825499
9152.00   0.31558254   0.00893518
9154.00   0.30313447   0.00941187
9156.00   0.28431320   0.00972201
9158.00   0.27776107   0.00950084
9160.00   0.27628183   0.00850752
9162.00   0.28096417   0.00794767
9164.00   0.29902825   0.00746814
9166.00   0.30929253   0.00712235
9168.00   0.30581895   0.00696827
9170.00   0.29732123   0.00695566
9172.00   0.29481313   0.00698473
9174.00   0.29415351   0.00716746
9176.00   0.29404998   0.00714755
9178.00   0.29867274   0.00698106
9180.00   0.29682049   0.00682754
9182.00   0.28303680   0.00664299
9184.00   0.27037102   0.00649712
9186.00   0.27455953   0.00652359
9188.00   0.29170483   0.00670404
9190.00   0.29585159   0.00670057
9192.00   0.29418263   0.00655335
9194.00   0.29080021   0.00648209
9196.00   0.28286314   0.00641910
9198.00   0.27555212   0.00644507
9200.00   0.27288210   0.00668376
9202.00   0.27283946   0.00706145
9204.00   0.27235773   0.00709582
9206.00   0.26930645   0.00660784
9208.00   0.27411917   0.00674665
9210.00   0.28700423   0.00738323
9212.00   0.30089465   0.00802875
9214.00   0.31611663   0.00867853
9216.00   0.33094645   0.00927349
9218.00   0.33025259   0.00923849
9220.00   0.30927137   0.00833595
9222.00   0.30447379   0.00816181
9224.00   0.31278235   0.00860458
9226.00   0.31249022   0.00870890
9228.00   0.29579788   0.00813781
9230.00   0.27394673   0.00731939
9232.00   0.26377082   0.00713531
9234.00   0.26004136   0.00749346
9236.00   0.25591868   0.00740164
9238.00   0.25254184   0.00700488
9240.00   0.25283083   0.00675748
9242.00   0.26000601   0.00671423
9244.00   0.26704365   0.00674334
9246.00   0.26478258   0.00674608
9248.00   0.25546563   0.00677274
9250.00   0.25301874   0.00676791
9252.00   0.25241575   0.00674038
9254.00   0.25518063   0.00671881
9256.00   0.26668689   0.00669531
9258.00   0.27373388   0.00667815
9260.00   0.26378742   0.00668425
9262.00   0.24246319   0.00670718
9264.00   0.23705497   0.00666626
9266.00   0.24049850   0.00649210
9268.00   0.24527438   0.00649769
9270.00   0.25740403   0.00666303
9272.00   0.26587886   0.00684624
9274.00   0.26562503   0.00693187
9276.00   0.26022157   0.00702939
9278.00   0.25366649   0.00749594
9280.00   0.23956887   0.00850207
9282.00   0.23498277   0.00880853
9284.00   0.23418945   0.00867286
9286.00   0.23902610   0.00854815
9288.00   0.25455689   0.00849165
9290.00   0.27254912   0.00846241
9292.00   0.27383670   0.00847125
9294.00   0.25849760   0.00802951
9296.00   0.26058835   0.00928992
9298.00   0.27769881   0.01123245
9300.00   0.28589284   0.01354192
9302.00   0.28309625   0.01601762
9304.00   0.27585408   0.01867102
9306.00   0.26729292   0.02162416
9308.00   0.25245869   0.02487590
9310.00   0.25780126   0.02716232
9312.00   0.28267834   0.02953200
9314.00   0.30250260   0.03064512
9316.00   0.32504725   0.03055877
9318.00   0.34050182   0.02992763
9320.00   0.33800384   0.02912087
9322.00   0.32220566   0.02790538
9324.00   0.31363082   0.02651753
9326.00   0.29483205   0.02443416
9328.00   0.29967615   0.02285409
9330.00   0.33694762   0.02141650
9332.00   0.36447623   0.02054785
9334.00   0.36412442   0.02083595
9336.00   0.34760684   0.02179776
9338.00   0.32164913   0.02159393
9340.00   0.26830301   0.02066845
9342.00   0.24011326   0.01971038
9344.00   0.22022749   0.01816211
9346.00   0.21232338   0.01680665
9348.00   0.22462910   0.01595346
9350.00   0.24424793   0.01538313
9352.00   0.23953916   0.01480499
9354.00   0.20772982   0.01431293
9356.00   0.21568012   0.01408443
9358.00   0.25695133   0.01402578
9360.00   0.29004517   0.01429830
9362.00   0.32967606   0.01325378
9364.00   0.34932247   0.01422561
9366.00   0.29641744   0.02025102
9368.00   0.17042373   0.02735059
9370.00   0.13126804   0.03456697
9372.00   0.12911260   0.04522206
9374.00   0.15844928   0.04910656
9376.00   0.25094894   0.04812145
9378.00   0.33529761   0.04457907
9380.00   0.34930569   0.03864675
9382.00   0.32085764   0.02783228
9384.00   0.30516103   0.02021610
9386.00   0.27988657   0.01599440
9388.00   0.25656769   0.01154282
9390.00   0.22908950   0.01039808
9392.00   0.20655681   0.01057082
9394.00   0.19140129   0.01069936
9396.00   0.18285351   0.01152758
9398.00   0.19112994   0.01219101
9400.00   0.23239416   0.01311565
9402.00   0.23968932   0.01380337
9404.00   0.22365318   0.01463825
9406.00   0.20824629   0.01501618
9408.00   0.19286752   0.01450967
9410.00   0.18183155   0.01372707
9412.00   0.19906758   0.01414495
9414.00   0.25062129   0.01521938
9416.00   0.27081233   0.01656770
9418.00   0.28094742   0.01894694
9420.00   0.27769285   0.02011103
9422.00   0.24702588   0.01994030
9424.00   0.21690537   0.01921093
9426.00   0.23194282   0.01858804
9428.00   0.28707832   0.01757149
9430.00   0.29133579   0.01742742
9432.00   0.26027822   0.01651490
9434.00   0.23588316   0.01866842
9436.00   0.19855584   0.02426640
9438.00   0.18075629   0.02868944
9440.00   0.22731401   0.03043018
9442.00   0.32489067   0.03101432
9444.00   0.32665789   0.02936309
9446.00   0.24006064   0.02278954
9448.00   0.20087959   0.01881668
9450.00   0.17898814   0.01691327
9452.00   0.17762086   0.01709822
9454.00   0.21102010   0.02020298
9456.00   0.26718143   0.02448028
9458.00   0.28156418   0.02502319
9460.00   0.26677844   0.02287319
9462.00   0.25819254   0.02152525
9464.00   0.24969193   0.01914123
9466.00   0.23063383   0.01781276
9468.00   0.18954723   0.01864123
9470.00   0.14243482   0.02054175
9472.00   0.12823394   0.02217062
9474.00   0.13631381   0.02455609
9476.00   0.14856693   0.02530327
9478.00   0.18470882   0.02552181
9480.00   0.20365152   0.02449287
9482.00   0.19701892   0.02107943
9484.00   0.18245132   0.01633331
9486.00   0.17842223   0.01356667
9488.00   0.17679207   0.01228462
9490.00   0.17982970   0.01196009
9492.00   0.19112651   0.01313557
9494.00   0.19748813   0.01504046
9496.00   0.20187674   0.01845512
9498.00   0.20115606   0.02089932
9500.00   0.18723252   0.02092207
9502.00   0.16102396   0.01936435
9504.00   0.16679148   0.01805504
9506.00   0.21192099   0.01562428
9508.00   0.22503619   0.01397540
9510.00   0.21121399   0.01280799
9512.00   0.19437523   0.01246231
9514.00   0.18408445   0.01342914
9516.00   0.17509791   0.01518285
9518.00   0.17270246   0.01605606
9520.00   0.17929955   0.01715627
9522.00   0.18054579   0.01702345
9524.00   0.18393062   0.01538510
9526.00   0.17995258   0.01389328
9528.00   0.15956406   0.01310355
9530.00   0.13464452   0.01276820
9532.00   0.13502482   0.01315446
9534.00   0.15534849   0.01483255
9536.00   0.17116441   0.01485202
9538.00   0.19734283   0.01346260
9540.00   0.21248314   0.01250884
9542.00   0.20987707   0.01208394
9544.00   0.20261620   0.01223730
9546.00   0.20760058   0.01346560
9548.00   0.22002625   0.01560305
9550.00   0.22663383   0.01692188
9552.00   0.24178568   0.01854404
9554.00   0.23463917   0.01900670
9556.00   0.18605785   0.01765519
9558.00   0.14632232   0.01638369
9560.00   0.17121129   0.01746354
9562.00   0.24413525   0.01988460
9564.00   0.23864779   0.02065643
9566.00   0.15446243   0.02106808
9568.00   0.12753734   0.02059064
9570.00   0.14766271   0.01874069
9572.00   0.17349569   0.01661433
9574.00   0.19152062   0.01488119
9576.00   0.20817970   0.01323532
9578.00   0.19024819   0.01246887
9580.00   0.11816775   0.01320273
9582.00   0.09638293   0.01304721
9584.00   0.10118153   0.01228237
9586.00   0.12022794   0.01185081
9588.00   0.16046381   0.01231140
9590.00   0.20990781   0.01304835
9592.00   0.22343425   0.01292338
9594.00   0.21122079   0.01205190
9596.00   0.20061788   0.01164533
9598.00   0.17976612   0.01098665
9600.00   0.15888526   0.01112515
9602.00   0.13436686   0.01259679
9604.00   0.11308899   0.01412584
9606.00   0.10973313   0.01439944
9608.00   0.12167622   0.01391291
9610.00   0.12946938   0.01357963
9612.00   0.14132628   0.01270885
9614.00   0.15105145   0.01246100
9616.00   0.16182388   0.01307027
9618.00   0.16801792   0.01378646
9620.00   0.16056667   0.01412918
9622.00   0.14075191   0.01439140
9624.00   0.14277916   0.01400605
9626.00   0.16728324   0.01262920
9628.00   0.17605048   0.01173020
9630.00   0.17476958   0.01114448
9632.00   0.16732028   0.01076049
9634.00   0.15228708   0.01061429
9636.00   0.13086483   0.01069881
9638.00   0.12091689   0.01062174
9640.00   0.11523534   0.01045992
9642.00   0.11685976   0.01041417
9644.00   0.13258989   0.01037512
9646.00   0.14213060   0.01049594
9648.00   0.13433705   0.01092083
9650.00   0.12098224   0.01144667
9652.00   0.12819178   0.01159063
9654.00   0.15866052   0.01139022
9656.00   0.16418900   0.01145785
9658.00   0.15130815   0.01146805
9660.00   0.14289671   0.01181501
9662.00   0.14285994   0.01274112
9664.00   0.14464532   0.01369010
9666.00   0.14240703   0.01396479
9668.00   0.13842137   0.01382491
9670.00   0.13331822   0.01368208
9672.00   0.12538464   0.01311039
9674.00   0.11918236   0.01297991
9676.00   0.11220206   0.01337429
9678.00   0.10899387   0.01393865
9680.00   0.11553018   0.01452396
9682.00   0.13012442   0.01528869
9684.00   0.14172323   0.01514029
9686.00   0.15801586   0.01386258
9688.00   0.16626766   0.01319795
9690.00   0.16773610   0.01281712
9692.00   0.16502012   0.01289531
9694.00   0.15774013   0.01376560
9696.00   0.14623713   0.01511262
9698.00   0.14146127   0.01558948
9700.00   0.13911998   0.01574419
9702.00   0.14072451   0.01553633
9704.00   0.14823678   0.01458573
9706.00   0.15542221   0.01384281
9708.00   0.16159099   0.01367744
9710.00   0.16648392   0.01387824
9712.00   0.16431032   0.01442774
9714.00   0.15720057   0.01546958
9716.00   0.14528640   0.01628562
9718.00   0.12327977   0.01737440
9720.00   0.10605609   0.01793738
9722.00   0.09550528   0.01787140
9724.00   0.08891916   0.01741754
9726.00   0.08478304   0.01674065
9728.00   0.08140819   0.01547048
9730.00   0.09077218   0.01491276
9732.00   0.11466214   0.01483424
9734.00   0.13643044   0.01486695
9736.00   0.16184415   0.01521936
9738.00   0.18146326   0.01550079
9740.00   0.18204749   0.01524849
9742.00   0.16762975   0.01461485
9744.00   0.15701845   0.01399801
9746.00   0.14093587   0.01297335
9748.00   0.12906235   0.01237849
9750.00   0.11995221   0.01218040
9752.00   0.11301315   0.01224150
9754.00   0.10740719   0.01263738
9756.00   0.10358755   0.01329682
9758.00   0.10742569   0.01319106
9760.00   0.12410083   0.01245305
9762.00   0.12981619   0.01177881
9764.00   0.12860735   0.01072223
9766.00   0.12561202   0.00988671
9768.00   0.12302746   0.00943718
9770.00   0.11894139   0.00944224
9772.00   0.10972469   0.01059121
9774.00   0.08961127   0.01306372
9776.00   0.08468332   0.01411946
9778.00   0.08397950   0.01463286
9780.00   0.09636663   0.01501250
9782.00   0.13736607   0.01492781
9784.00   0.18006548   0.01501414
9786.00   0.17192852   0.01668603
9788.00   0.12136845   0.01972466
9790.00   0.09204222   0.02073638
9792.00   0.04526753   0.02084083
9794.00   0.03700336   0.02054826
9796.00   0.08383103   0.01945247
9798.00   0.14187111   0.01822420
9800.00   0.16976771   0.01792543
9802.00   0.18795262   0.01825966
9804.00   0.17909648   0.01815899
9806.00   0.13014700   0.01822925
9808.00   0.09987561   0.01766201
9810.00   0.07591516   0.01603076
9812.00   0.06440894   0.01438780
9814.00   0.07693477   0.01378033
9816.00   0.10785627   0.01383463
9818.00   0.11469819   0.01362480
9820.00   0.10661387   0.01343532
9822.00   0.10184973   0.01339837
9824.00   0.09006380   0.01365110
9826.00   0.08660281   0.01375236
9828.00   0.10268023   0.01352588
9830.00   0.12759997   0.01309632
9832.00   0.13135698   0.01259394
9834.00   0.11822803   0.01149173
9836.00   0.11257193   0.01142300
9838.00   0.10935425   0.01196272
9840.00   0.10231284   0.01295491
9842.00   0.08744854   0.01455669
9844.00   0.07116577   0.01620431
9846.00   0.06457531   0.01716519
9848.00   0.06282908   0.01810044
9850.00   0.06793460   0.01777126
9852.00   0.08658131   0.01566020
9854.00   0.09705315   0.01413103
9856.00   0.09408930   0.01330555
9858.00   0.09159021   0.01306040
9860.00   0.10503931   0.01345191
9862.00   0.13049063   0.01433184
9864.00   0.14415768   0.01625856
9866.00   0.15917133   0.01955379
9868.00   0.15880355   0.02149090
9870.00   0.13843395   0.02285500
9872.00   0.11530117   0.02354440
9874.00   0.09915061   0.02333495
9876.00   0.08479708   0.02234367
9878.00   0.08295091   0.02101539
9880.00   0.09730329   0.01814488
9882.00   0.10373642   0.01657761
9884.00   0.11026967   0.01604779
9886.00   0.11100098   0.01617977
9888.00   0.10108060   0.01706688
9890.00   0.08491977   0.01841686
9892.00   0.07560920   0.01897286
9894.00   0.06541664   0.01936238
9896.00   0.06462651   0.01918238
9898.00   0.07159781   0.01809974
9900.00   0.08238640   0.01729883
9902.00   0.09792664   0.01679239
9904.00   0.11623767   0.01679184
9906.00   0.13292179   0.01820156
9908.00   0.15799448   0.02076958
9910.00   0.15286940   0.02272567
9912.00   0.11270218   0.02542095
9914.00   0.08717659   0.02654553
9916.00   0.08098950   0.02600545
9918.00   0.07893976   0.02461537
9920.00   0.06850051   0.02295630
9922.00   0.05448294   0.02032796
9924.00   0.04196481   0.01882077
9926.00   0.01102651   0.01809119
9928.00   0.01844547   0.01767395
9930.00   0.08050199   0.01733552
9932.00   0.13895313   0.01788270
9934.00   0.15271863   0.01970932
9936.00   0.14197899   0.02229571
9938.00   0.12223466   0.02556761
9940.00   0.07615183   0.02961715
9942.00   0.04284383   0.03312239
9944.00   0.00286038   0.03787718
9946.00   -0.01701174   0.04024612
9948.00   0.00269924   0.03832280
9950.00   0.04569575   0.03366452
9952.00   0.06474710   0.03223362
9954.00   0.07468637   0.03297309
9956.00   0.08367100   0.03292738
9958.00   0.08492865   0.03341283
9960.00   0.09051996   0.03321657
9962.00   0.10973045   0.03186613
9964.00   0.12863128   0.02986825
9966.00   0.11607867   0.02811568
9968.00   0.05970617   0.02590214
9970.00   0.07047922   0.02472111
9972.00   0.15554161   0.02461792
9974.00   0.19311267   0.02449469
9976.00   0.16241166   0.02467619
9978.00   0.11652675   0.02460410
9980.00   0.10904752   0.02314531
9982.00   0.12174334   0.02007503
9984.00   0.11908433   0.01876504
9986.00   0.12181319   0.01839336
9988.00   0.10134376   0.01883923
9990.00   0.03369623   0.02085203
9992.00   -0.01600124   0.02244606
9994.00   0.01591245   0.02221311
9996.00   0.10350911   0.02081468
9998.00   0.10745876   0.02073408
10000.00   0.03915863   0.02061976
10002.00   0.01562150   0.02213349
10004.00   0.01665618   0.02455641
10006.00   0.02679123   0.02788743
10008.00   0.05095412   0.03231565
10010.00   0.08181178   0.03706546
10012.00   0.06185286   0.04034692
10014.00   -0.04367999   0.04496692
10016.00   -0.04679566   0.04468246
10018.00   0.02178817   0.03890291
10020.00   0.09480610   0.03360149
10022.00   0.18008338   0.03130841
10024.00   0.25615677   0.03033312
10026.00   0.23604484   0.02879721
10028.00   0.11601955   0.02759887
10030.00   0.06055996   0.02617061
10032.00   0.00067375   0.02433816
10034.00   -0.00995835   0.02307292
10036.00   0.06500716   0.02269101
10038.00   0.14918835   0.02273227
10040.00   0.13737378   0.02270725
10042.00   0.05301695   0.02290309
10044.00   0.04248519   0.02279707
10046.00   0.07795206   0.02242971
10048.00   0.09982882   0.02218548
10050.00   0.12015761   0.02180563
10052.00   0.12956086   0.02177370
10054.00   0.11415222   0.02238625
10056.00   0.07929613   0.02341155
10058.00   0.05306066   0.02564813
10060.00   0.00110426   0.03040783
10062.00   0.00351910   0.03157955
10064.00   0.07960485   0.02939293
10066.00   0.13633674   0.02734823
10068.00   0.11954566   0.02756005
10070.00   0.06683787   0.02875648
10072.00   0.06142553   0.02922518
10074.00   0.07745677   0.02911622
10076.00   0.10113344   0.03002889
10078.00   0.16785002   0.03195472
10080.00   0.19168368   0.03344072
10082.00   0.12815528   0.03458114
10084.00   0.03436170   0.03517150
10086.00   0.02160153   0.03387985
10088.00   0.07021064   0.02987963
10090.00   0.08102261   0.02787029
10092.00   0.08188446   0.02665481
10094.00   0.08021845   0.02610983
10096.00   0.06928171   0.02641935
10098.00   0.06201825   0.02729561
10100.00   0.08261877   0.02832706
10102.00   0.13172588   0.02973310
10104.00   0.13934156   0.03092011
10106.00   0.11258426   0.03299792
10108.00   0.09848341   0.03316393
10110.00   0.10771137   0.03029209
10112.00   0.10264442   0.02750182
10114.00   0.03821028   0.02819807
10116.00   -0.07339415   0.03089236
10118.00   -0.07420327   0.03357370
10120.00   0.03833744   0.03809164
10122.00   0.08470258   0.04000451
10124.00   0.08874672   0.04028950
10126.00   0.08527622   0.03963548
10128.00   0.08611466   0.03775490
10130.00   0.08487695   0.03477443
10132.00   0.09097052   0.03393551
10134.00   0.11017767   0.03567370
10136.00   0.11180048   0.03506650
10138.00   0.10057503   0.03241252
10140.00   0.08709694   0.03035812
10142.00   0.06754707   0.02978249
10144.00   0.04938142   0.03014463
10146.00   0.06032895   0.03133817
10148.00   0.10347706   0.03393220
10150.00   0.12219014   0.03523380
10152.00   0.12138539   0.03609606
10154.00   0.13685201   0.03665788
10156.00   0.18622066   0.03666336
10158.00   0.23443632   0.03663849
10160.00   0.23187517   0.03735183
10162.00   0.18971904   0.03835566
10164.00   0.16682366   0.04020558
10166.00   0.15262941   0.04330882
10168.00   0.12199134   0.04547439
10170.00   0.06372741   0.04739521
10172.00   0.00954254   0.04836146
10174.00   -0.01486192   0.04733229
10176.00   -0.02199252   0.04450097
10178.00   -0.00706610   0.04302290
10180.00   0.06828182   0.03931978
10182.00   0.07615239   0.04161020
10184.00   -0.00067172   0.05168977
10186.00   -0.05461485   0.05805582
10188.00   -0.01348227   0.05682980
10190.00   0.07601985   0.05118061
10192.00   0.07889812   0.04755069
10194.00   -0.00220048   0.04210100
10196.00   -0.01564918   0.03966445
10198.00   0.01693651   0.03998113
10200.00   0.04130118   0.04137371
10202.00   0.04139573   0.04330599
10204.00   0.03189021   0.04607019
10206.00   0.02573011   0.04987760
10208.00   0.02000550   0.05594678
10210.00   0.00660002   0.05795594
10212.00   -0.04488369   0.05800686
10214.00   -0.03990108   0.05660104
10216.00   0.06794579   0.05109437
10218.00   0.18990277   0.04571357
10220.00   0.19622742   0.05082417
10222.00   0.11573381   0.06400914
10224.00   0.09461116   0.06568187
10226.00   0.10313726   0.06029291
10228.00   0.09038471   0.05550114
10230.00   0.05057753   0.04997405
10232.00   0.00868713   0.04451209
10234.00   -0.01809678   0.04137921
10236.00   -0.03949399   0.04021811
10238.00   -0.03419606   0.03938776
10240.00   0.01659952   0.03998558
10242.00   0.03029761   0.04055168
10244.00   0.00613455   0.04211407
10246.00   -0.01413757   0.04278751
10248.00   -0.01620028   0.04102951
10250.00   -0.00681053   0.03761830
10252.00   0.05387950   0.03667027
10254.00   0.23389222   0.03749045
10256.00   0.25985229   0.03800091
10258.00   0.12098481   0.03834139
10260.00   0.04321614   0.03959859
10262.00   0.12272906   0.04271871
10264.00   0.26238954   0.04616999
10266.00   0.29598856   0.04674810
10268.00   0.28453088   0.04457054
10270.00   0.23531573   0.04451338
10272.00   0.08492731   0.04382321
10274.00   0.00846932   0.04616417
10276.00   0.05589659   0.05084851
10278.00   0.13657345   0.05780095
10280.00   0.13470300   0.06840792
10282.00   0.08531261   0.08293123
10284.00   0.05885780   0.08803523
10286.00   0.01870078   0.08859518
10288.00   0.00815228   0.08716489
10290.00   0.04174377   0.08216015
10292.00   0.07823574   0.07586263
10294.00   0.07318089   0.07134219
10296.00   0.03938704   0.06736805
10298.00   0.06383828   0.06362214
10300.00   0.14196534   0.05982926
10302.00   0.19650225   0.05754369
10304.00   0.27398384   0.05717922
10306.00   0.29585874   0.05751131
10308.00   0.17227773   0.05829174
10310.00   -0.04169707   0.05957190
10312.00   -0.03990237   0.05840767
10314.00   0.16933531   0.05441508
10316.00   0.25668409   0.05183117
10318.00   0.32178807   0.04921216
10320.00   0.32947347   0.04761758
10322.00   0.23782834   0.04795792
10324.00   0.09699713   0.04933624
10326.00   0.05137344   0.04949682
10328.00   0.05749040   0.04860729
10330.00   0.07425214   0.04929120
10332.00   0.11407333   0.05082310
10334.00   0.17689869   0.05286630
10336.00   0.28687325   0.05607984
10338.00   0.39972663   0.05904314
10340.00   0.43857571   0.05933664
10342.00   0.44243774   0.05707615
10344.00   0.37048882   0.05744044
10346.00   0.12702267   0.05955135
10348.00   0.03863284   0.06104621
10350.00   0.16488570   0.06283116
10352.00   0.31364194   0.06347421
10354.00   0.30686188   0.06056606
10356.00   0.21254309   0.05385556
10358.00   0.16500790   0.05269602
10360.00   0.10486978   0.05558404
10362.00   0.07931267   0.05828060
10364.00   0.08231986   0.06133354
10366.00   0.10789068   0.06498627
10368.00   0.16974545   0.06995293
10370.00   0.25952148   0.07553493
10372.00   0.26187384   0.07687444
10374.00   0.16977616   0.07529418
10376.00   0.13962266   0.07287345
10378.00   0.15214784   0.06753035
10380.00   0.15243848   0.06261351
10382.00   0.12191717   0.05969407
10384.00   0.07509112   0.05795393
10386.00   0.02190315   0.05680540
10388.00   -0.07686511   0.05517145
10390.00   -0.08900517   0.05815571
10392.00   -0.03603455   0.06725094
10394.00   0.03056290   0.07199828
10396.00   0.13275252   0.07149012
10398.00   0.22828138   0.06849585
10400.00   0.21615280   0.06533662
10402.00   0.10527243   0.05978865
10404.00   0.05961000   0.05720063
10406.00   -0.01959111   0.05632927
10408.00   0.00920591   0.05671494
10410.00   0.21802163   0.05848500
10412.00   0.42858356   0.06129496
10414.00   0.45638910   0.06502110
10416.00   0.37548843   0.06985857
10418.00   0.27029869   0.07253988
10420.00   0.01405441   0.07511409
10422.00   -0.08200023   0.07512215
10424.00   -0.02802536   0.07115675
10426.00   0.07154860   0.06741957
10428.00   0.18773305   0.06774975
10430.00   0.33613679   0.07025497
10432.00   0.32187253   0.06886128
10434.00   0.09367245   0.06430867
10436.00   0.04307133   0.06049765
10438.00   0.11497953   0.05503872
10440.00   0.19767880   0.05136250
10442.00   0.27091375   0.05206478
10444.00   0.34003174   0.05515751
10446.00   0.33160073   0.05639017
10448.00   0.25583097   0.05749771
10450.00   0.17458984   0.05802459
10452.00   0.03034084   0.05818396
10454.00   -0.06716053   0.05781380
10456.00   -0.10487726   0.05619540
10458.00   -0.09778986   0.05451021
10460.00   -0.03401727   0.05538826
10462.00   0.12191721   0.05831015
10464.00   0.17111032   0.06030558
10466.00   0.14859749   0.06325553
10468.00   0.13520454   0.06431765
10470.00   0.13288690   0.06314681
10472.00   0.12557030   0.06102464
10474.00   0.09892966   0.05906054
10476.00   0.05162336   0.05657594
10478.00   0.05028563   0.05476963
10480.00   0.11109986   0.05288108
10482.00   0.11500248   0.05221445
10484.00   0.04854538   0.05296366
10486.00   -0.00962272   0.05424568
10488.00   -0.00944590   0.05588745
10490.00   0.02349316   0.05795954
10492.00   0.06744485   0.05782122
10494.00   0.15395005   0.05516084
10496.00   0.20431936   0.05396602
10498.00   0.22542886   0.05321784
10500.00   0.24913263   0.05317211
10502.00   0.30001763   0.05423341
10504.00   0.35423219   0.05593216
10506.00   0.33737904   0.05677876
10508.00   0.21987088   0.05646585
10510.00   0.20443194   0.05811464
10512.00   0.27452150   0.06194994
10514.00   0.30745244   0.06435715
10516.00   0.25841722   0.06468041
10518.00   0.19344108   0.06408244
10520.00   0.21383373   0.06375331
10522.00   0.29937375   0.06300617
10524.00   0.35429356   0.06283747
10526.00   0.44327712   0.06349815
10528.00   0.46296695   0.06333505
10530.00   0.36972496   0.06175532
10532.00   0.26743391   0.06014154
10534.00   0.28247824   0.06024012
10536.00   0.38489890   0.06159605
10538.00   0.36876607   0.06182627
10540.00   0.24349487   0.06135989
10542.00   0.18917269   0.06130292
10544.00   0.19372632   0.06141524
10546.00   0.21935745   0.06185719
10548.00   0.26118574   0.06286924
10550.00   0.32426816   0.06431876
10552.00   0.29606777   0.06546291
10554.00   0.11703311   0.06660653
10556.00   0.10775540   0.06760295
10558.00   0.26389849   0.06868660
10560.00   0.40101779   0.06935923
10562.00   0.44566914   0.06889679
10564.00   0.44818300   0.06804350
10566.00   0.44416636   0.06983197
10568.00   0.39235827   0.07490414
10570.00   0.39106780   0.07661431
10572.00   0.44887394   0.07663689
10574.00   0.46081847   0.07619443
10576.00   0.38415629   0.07495697
10578.00   0.27949032   0.07357276
10580.00   0.24564093   0.07405230
10582.00   0.25878209   0.07564617
10584.00   0.24897863   0.07805619
10586.00   0.22746862   0.08288610
10588.00   0.22502996   0.08530030
10590.00   0.23583990   0.08504461
10592.00   0.26867178   0.08355059
10594.00   0.35369566   0.08171148
10596.00   0.50584823   0.07859946
10598.00   0.51447332   0.07775550
10600.00   0.37506375   0.07870033
10602.00   0.31390512   0.07953328
10604.00   0.31655088   0.08101121
10606.00   0.33865589   0.08199752
10608.00   0.35691857   0.08133052
10610.00   0.38253722   0.07949489
10612.00   0.42898428   0.07895127
10614.00   0.52016252   0.07922505
10616.00   0.56342763   0.07917442
10618.00   0.59334368   0.07930156
10620.00   0.57561654   0.07898852
10622.00   0.46072099   0.07765175
10624.00   0.29562032   0.07575808
10626.00   0.27637342   0.07511752
10628.00   0.41709635   0.07602415
10630.00   0.42653131   0.07532344
10632.00   0.36816368   0.07361127
10634.00   0.30454227   0.07172230
10636.00   0.22802752   0.06937758
10638.00   0.15878335   0.06709825
10640.00   0.17544597   0.06680622
10642.00   0.28548568   0.06880833
10644.00   0.31811839   0.06858129
10646.00   0.30834979   0.06709776
10648.00   0.30812651   0.06555181
10650.00   0.32530954   0.06373594
10652.00   0.33975723   0.06194072
10654.00   0.32878199   0.06087063
10656.00   0.29393268   0.06041477
10658.00   0.29322582   0.05949629
10660.00   0.32968447   0.05835563
10662.00   0.33603162   0.05729805
10664.00   0.30821925   0.05634845
10666.00   0.27729759   0.05535900
10668.00   0.26291439   0.05415552
10670.00   0.25513026   0.05278299
10672.00   0.26018682   0.05187481
10674.00   0.29823506   0.05145662
10676.00   0.29719558   0.05081918
10678.00   0.25701135   0.05015630
10680.00   0.21858944   0.04936740
10682.00   0.19470476   0.04793297
10684.00   0.17920977   0.04631905
10686.00   0.19442582   0.04733390
10688.00   0.25522226   0.05226146
10690.00   0.28412983   0.05290522
10692.00   0.29170546   0.05069690
10694.00   0.31094924   0.04850271
10696.00   0.36220253   0.04694502
10698.00   0.41752160   0.04553882
10700.00   0.42081273   0.04439845
10702.00   0.39020252   0.04330790
10704.00   0.34156182   0.04313936
10706.00   0.23641197   0.04276838
10708.00   0.17280202   0.04472714
10710.00   0.15586585   0.05103631
10712.00   0.16948862   0.05631420
10714.00   0.21185467   0.05497155
10716.00   0.29419869   0.04797274
10718.00   0.34683436   0.04439884
10720.00   0.38035032   0.04122653
10722.00   0.43114629   0.03944082
10724.00   0.51195323   0.03995107
10726.00   0.58272451   0.04086578
10728.00   0.61025184   0.04064436
10730.00   0.60919291   0.03999052
10732.00   0.60663927   0.03971747
10734.00   0.59600377   0.03999168
10736.00   0.56895012   0.03940037
10738.00   0.50722730   0.03770871
10740.00   0.46150386   0.03614143
10742.00   0.46523127   0.03528057
10744.00   0.49478775   0.03486186
10746.00   0.48623350   0.03519561
10748.00   0.44588444   0.03740351
10750.00   0.42975610   0.03725759
10752.00   0.43150082   0.03525801
10754.00   0.42482373   0.03320748
10756.00   0.40557495   0.03123653
10758.00   0.37627220   0.02948122
10760.00   0.32494336   0.02964066
10762.00   0.20098656   0.03234719
10764.00   0.23652048   0.03224226
10766.00   0.44933754   0.02992348
10768.00   0.58153456   0.02831573
10770.00   0.61883384   0.02803061
10772.00   0.59923327   0.02805192
10774.00   0.51774776   0.02737563
10776.00   0.33950323   0.02631634
10778.00   0.29806075   0.02536953
10780.00   0.34547469   0.02378283
10782.00   0.39946896   0.02334541
10784.00   0.49215132   0.02478940
10786.00   0.57353914   0.02600174
10788.00   0.59241503   0.02527072
10790.00   0.57122934   0.02318469
10792.00   0.54217315   0.02238660
10794.00   0.50128698   0.02188574
10796.00   0.42647323   0.02223464
10798.00   0.26545957   0.02392903
10800.00   0.16083027   0.02526145
10802.00   0.20414458   0.02548594
10804.00   0.33536410   0.02514786
10806.00   0.40837222   0.02492396
10808.00   0.49353060   0.02442065
10810.00   0.52986604   0.02412850
10812.00   0.51844090   0.02388254
10814.00   0.50252831   0.02376976
10816.00   0.48373845   0.02356870
10818.00   0.46660683   0.02363100
10820.00   0.49044085   0.02510978
10822.00   0.57077193   0.02873362
10824.00   0.58262259   0.02889261
10826.00   0.53746217   0.02595311
10828.00   0.51218492   0.02385328
10830.00   0.51686180   0.02325610
10832.00   0.53070784   0.02338583
10834.00   0.53891814   0.02398770
10836.00   0.55361146   0.02561797
10838.00   0.53916085   0.02528438
10840.00   0.48506328   0.02271415
10842.00   0.45793498   0.02140416
10844.00   0.46473670   0.02199880
10846.00   0.47299764   0.02256995
10848.00   0.44829971   0.02146663
10850.00   0.39940351   0.01910359
10852.00   0.42888674   0.01820669
10854.00   0.55436826   0.01827138
10856.00   0.60967201   0.01842459
10858.00   0.62773132   0.01911499
10860.00   0.60934734   0.01963266
10862.00   0.53297096   0.01953760
