# File created by shivutils (I.Shivvers)
# Blotched regions marked with a #.
# wl(A)   flm    er(optional)
3440.00   0.18082437
3442.00   0.26500008
3444.00   0.28468105
3446.00   0.20981967
3448.00   0.30120543
3450.00   0.22496845
3452.00   0.16571961
3454.00   0.34703356
3456.00   0.24902454
3458.00   0.15990762
3460.00   0.29007760
3462.00   0.12676084
3464.00   0.28938252
3466.00   0.27856672
3468.00   0.25701579
3470.00   0.17785670
3472.00   0.21106209
3474.00   0.27490637
3476.00   0.30405158
3478.00   0.20289010
3480.00   0.26841176
3482.00   0.26991329
3484.00   0.22835219
3486.00   0.15508023
3488.00   0.23246850
3490.00   0.27270958
3492.00   0.31665251
3494.00   0.18255249
3496.00   0.26350331
3498.00   0.29576701
3500.00   0.30838475
3502.00   0.25917739
3504.00   0.22407889
3506.00   0.23403427
3508.00   0.17738277
3510.00   0.30650759
3512.00   0.22550930
3514.00   0.16905805
3516.00   0.16917992
3518.00   0.23892416
3520.00   0.33819479
3522.00   0.26237139
3524.00   0.26244438
3526.00   0.34554166
3528.00   0.24226271
3530.00   0.22762102
3532.00   0.28359047
3534.00   0.32150704
3536.00   0.21290433
3538.00   0.27679297
3540.00   0.25690654
3542.00   0.26614764
3544.00   0.24451812
3546.00   0.22853401
3548.00   0.13020363
3550.00   0.30966881
3552.00   0.19541331
3554.00   0.27702898
3556.00   0.18093562
3558.00   0.24249105
3560.00   0.20010562
3562.00   0.26776749
3564.00   0.30311677
3566.00   0.29090235
3568.00   0.24205540
3570.00   0.17791307
3572.00   0.22632943
3574.00   0.22842263
3576.00   0.23977573
3578.00   0.35297194
3580.00   0.19081225
3582.00   0.30305418
3584.00   0.19798531
3586.00   0.17249015
3588.00   0.22038373
3590.00   0.19404177
3592.00   0.23497607
3594.00   0.24205476
3596.00   0.25826028
3598.00   0.26339051
3600.00   0.25443780
3602.00   0.24774142
3604.00   0.25477508
3606.00   0.22629285
3608.00   0.24110815
3610.00   0.33533338
3612.00   0.21649745
3614.00   0.29108092
3616.00   0.29051077
3618.00   0.31375933
3620.00   0.21120510
3622.00   0.25250852
3624.00   0.22602406
3626.00   0.22689231
3628.00   0.20748603
3630.00   0.24581082
3632.00   0.26103637
3634.00   0.22207220
3636.00   0.13970955
3638.00   0.26289320
3640.00   0.21030593
3642.00   0.24253036
3644.00   0.30556127
3646.00   0.24010989
3648.00   0.28933686
3650.00   0.21561456
3652.00   0.32460758
3654.00   0.24160382
3656.00   0.29370838
3658.00   0.21896130
3660.00   0.16020466
3662.00   0.24425752
3664.00   0.28510210
3666.00   0.22412463
3668.00   0.19016826
3670.00   0.22917996
3672.00   0.28683364
3674.00   0.20245202
3676.00   0.26994604
3678.00   0.28681567
3680.00   0.28975123
3682.00   0.22827615
3684.00   0.26427013
3686.00   0.23606955
3688.00   0.28717515
3690.00   0.27219900
3692.00   0.23388511
3694.00   0.23732539
3696.00   0.31989536
3698.00   0.29123852
3700.00   0.29464960
3702.00   0.27084473
3704.00   0.21838647
3706.00   0.22269782
3708.00   0.28251004
3710.00   0.25968805
3712.00   0.30165938
3714.00   0.24196863
3716.00   0.27258569
3718.00   0.25708061
3720.00   0.35432070
3722.00   0.28429273
3724.00   0.25390539
3726.00   0.21834539
3728.00   0.26485673
3730.00   0.22868247
3732.00   0.23794049
3734.00   0.22354768
3736.00   0.30232757
3738.00   0.26208124
3740.00   0.20125799
3742.00   0.29133499
3744.00   0.26896545
3746.00   0.25854325
3748.00   0.29348394
3750.00   0.31326333
3752.00   0.23876818
3754.00   0.18175279
3756.00   0.18744214
3758.00   0.23949912
3760.00   0.26972881
3762.00   0.25863272
3764.00   0.22063515
3766.00   0.26828641
3768.00   0.28510195
3770.00   0.29261428
3772.00   0.28166768
3774.00   0.28861329
3776.00   0.34627673
3778.00   0.25504559
3780.00   0.22066063
3782.00   0.30447686
3784.00   0.31370071
3786.00   0.23743160
3788.00   0.25943065
3790.00   0.26631284
3792.00   0.24753623
3794.00   0.24994716
3796.00   0.24650802
3798.00   0.27849242
3800.00   0.24985442
3802.00   0.28004384
3804.00   0.29742426
3806.00   0.30905321
3808.00   0.27106345
3810.00   0.21303748
3812.00   0.22228414
3814.00   0.27466640
3816.00   0.26798835
3818.00   0.30100471
3820.00   0.31356907
3822.00   0.27933598
3824.00   0.24130821
3826.00   0.22890951
3828.00   0.30257532
3830.00   0.24670789
3832.00   0.26776233
3834.00   0.23467466
3836.00   0.29960039
3838.00   0.31522733
3840.00   0.30133188
3842.00   0.28608951
3844.00   0.30252585
3846.00   0.28336057
3848.00   0.26000345
3850.00   0.24435525
3852.00   0.26039529
3854.00   0.32172111
3856.00   0.27403650
3858.00   0.25321254
3860.00   0.31404954
3862.00   0.28984609
3864.00   0.28004882
3866.00   0.28336692
3868.00   0.28735352
3870.00   0.29327059
3872.00   0.28871036
3874.00   0.28826892
3876.00   0.27980721
3878.00   0.33741653
3880.00   0.32750043
3882.00   0.33797172
3884.00   0.31628257
3886.00   0.26275280
3888.00   0.28163725
3890.00   0.26422879
3892.00   0.25731257
3894.00   0.29471076
3896.00   0.31530368
3898.00   0.31344071
3900.00   0.32009116
3902.00   0.24647792
#3904.00   0.26802313
#3906.00   0.46417248
#3908.00   0.60649675
#3910.00   0.71847254
#3912.00   0.58172160
#3914.00   0.34051594
#3916.00   0.26776847
3918.00   0.26759544
3920.00   0.30061567
3922.00   0.33022800
3924.00   0.32316762
3926.00   0.27969623
3928.00   0.31901625
3930.00   0.29730693
3932.00   0.22621959
3934.00   0.28392667
3936.00   0.30492941
3938.00   0.35392722
3940.00   0.35219651
3942.00   0.32905489
3944.00   0.35305220
3946.00   0.33283544
3948.00   0.28654331
3950.00   0.29330844
3952.00   0.31150991
3954.00   0.26346329
3956.00   0.30271092
3958.00   0.30621144
3960.00   0.30757514
3962.00   0.32589746
3964.00   0.36563739
3966.00   0.36047211
3968.00   0.34704444
3970.00   0.35223091
3972.00   0.36465305
3974.00   0.31441709
3976.00   0.33922899
3978.00   0.30810487
3980.00   0.28437614
3982.00   0.26587829
3984.00   0.23366596
3986.00   0.28433555
3988.00   0.29691738
3990.00   0.31139967
3992.00   0.32389385
3994.00   0.33655092
3996.00   0.34577641
3998.00   0.35218695
4000.00   0.35329711
4002.00   0.35632762
4004.00   0.33199081
4006.00   0.31967643
4008.00   0.32308105
4010.00   0.34590977
4012.00   0.31747559
4014.00   0.30086318
4016.00   0.28454757
4018.00   0.25163424
4020.00   0.26351312
4022.00   0.28295222
4024.00   0.26642933
4026.00   0.24098507
4028.00   0.29194990
4030.00   0.32410035
4032.00   0.31461146
4034.00   0.33914155
4036.00   0.33433408
4038.00   0.35646334
4040.00   0.41541427
4042.00   0.38882852
4044.00   0.41218606
4046.00   0.32245743
4048.00   0.32914764
4050.00   0.39536777
4052.00   0.41470590
4054.00   0.42009529
4056.00   0.37488687
4058.00   0.38934833
4060.00   0.35189787
4062.00   0.34137437
4064.00   0.38783583
4066.00   0.34436002
4068.00   0.33321029
4070.00   0.34175548
4072.00   0.35035491
4074.00   0.31600973
4076.00   0.28116289
4078.00   0.30719969
4080.00   0.33287078
4082.00   0.32597181
4084.00   0.33604920
4086.00   0.37082827
4088.00   0.37489936
4090.00   0.38168854
4092.00   0.34728315
4094.00   0.37473091
4096.00   0.36895776
4098.00   0.37061957
4100.00   0.43153197
4102.00   0.42572924
4104.00   0.40750915
4106.00   0.43133962
4108.00   0.41156954
4110.00   0.37408513
4112.00   0.38386193
4114.00   0.38785070
4116.00   0.38096806
4118.00   0.37154588
4120.00   0.33761296
4122.00   0.32308081
4124.00   0.31547529
4126.00   0.27768120
4128.00   0.28981271
4130.00   0.32901955
4132.00   0.38972831
4134.00   0.37875143
4136.00   0.37271976
4138.00   0.38483453
4140.00   0.38146460
4142.00   0.39653414
4144.00   0.42543799
4146.00   0.42348069
4148.00   0.43806598
4150.00   0.43738681
4152.00   0.41958043
4154.00   0.37929416
4156.00   0.34673163
4158.00   0.33772048
4160.00   0.29927862
4162.00   0.31296024
4164.00   0.34877747
4166.00   0.31035194
4168.00   0.31001860
4170.00   0.34711421
4172.00   0.36784232
4174.00   0.40453452
4176.00   0.43908238
4178.00   0.42225322
4180.00   0.41955990
4182.00   0.40159535
4184.00   0.46490136
4186.00   0.45104539
4188.00   0.44606745
4190.00   0.45921397
4192.00   0.44119313
4194.00   0.46554968
4196.00   0.46797672
4198.00   0.44722053
4200.00   0.43521026
4202.00   0.47347331
4204.00   0.44955710
4206.00   0.43104741
4208.00   0.43944603
4210.00   0.43624353
4212.00   0.45200118
4214.00   0.44949588
4216.00   0.42602620
4218.00   0.44702208
4220.00   0.43633607
4222.00   0.43034491
4224.00   0.43664360
4226.00   0.41015774
4228.00   0.40662116
4230.00   0.42047188
4232.00   0.43139723
4234.00   0.44417873
4236.00   0.43875259
4238.00   0.43151945
4240.00   0.42713845
4242.00   0.42437020
4244.00   0.43574476
4246.00   0.41923583
4248.00   0.44430906
4250.00   0.43209198
4252.00   0.42664012
4254.00   0.40432271
4256.00   0.39342722
4258.00   0.45402822
4260.00   0.39772674
4262.00   0.40099585
4264.00   0.41719815
4266.00   0.39956656
4268.00   0.40240023
4270.00   0.39169246
4272.00   0.41643813
4274.00   0.40841994
4276.00   0.42752340
4278.00   0.42550546
4280.00   0.41305301
4282.00   0.43678537
4284.00   0.40910709
4286.00   0.44345424
4288.00   0.41951284
4290.00   0.41084433
4292.00   0.41385433
4294.00   0.40586245
4296.00   0.37150156
4298.00   0.34311366
4300.00   0.40164170
4302.00   0.42445150
4304.00   0.35625064
4306.00   0.32232168
4308.00   0.35937595
4310.00   0.37690514
4312.00   0.36762947
4314.00   0.40750897
4316.00   0.42272091
4318.00   0.43742475
4320.00   0.41845429
4322.00   0.42617169
4324.00   0.44362670
4326.00   0.43124002
4328.00   0.42372814
4330.00   0.39901382
4332.00   0.40768531
4334.00   0.40770841
4336.00   0.44127372
4338.00   0.42487285
4340.00   0.42762548
4342.00   0.39841026
4344.00   0.40179047
4346.00   0.36444810
4348.00   0.42532670
4350.00   0.46740228
4352.00   0.45032921
4354.00   0.40459982
4356.00   0.51547933
4358.00   0.38439772
4360.00   0.34164631
4362.00   0.38116843
4364.00   0.44507548
4366.00   0.43009272
4368.00   0.45602107
4370.00   0.43093157
4372.00   0.42430353
4374.00   0.45424154
4376.00   0.42276385
4378.00   0.39872009
4380.00   0.38252243
4382.00   0.39658609
4384.00   0.41170257
4386.00   0.43512866
4388.00   0.42065576
4390.00   0.43816155
4392.00   0.39471361
4394.00   0.39678141
4396.00   0.42720300
4398.00   0.40502784
4400.00   0.43464816
4402.00   0.41565892
4404.00   0.42314059
4406.00   0.41765702
4408.00   0.41836458
4410.00   0.44289044
4412.00   0.41766417
4414.00   0.43060863
4416.00   0.42301181
4418.00   0.41753951
4420.00   0.40936843
4422.00   0.41067147
4424.00   0.42593458
4426.00   0.43835837
4428.00   0.42972866
4430.00   0.41097370
4432.00   0.38815558
4434.00   0.38162491
4436.00   0.42239913
4438.00   0.45257643
4440.00   0.45082292
4442.00   0.42142856
4444.00   0.44736266
4446.00   0.45727897
4448.00   0.43833303
4450.00   0.46588138
4452.00   0.41857934
4454.00   0.45371512
4456.00   0.41027901
4458.00   0.44162869
4460.00   0.42772475
4462.00   0.44788945
4464.00   0.43205738
4466.00   0.39493620
4468.00   0.42656034
4470.00   0.39430007
4472.00   0.41972119
4474.00   0.45138371
4476.00   0.45422444
4478.00   0.41992673
4480.00   0.40344062
4482.00   0.39574191
4484.00   0.38083005
4486.00   0.41945288
4488.00   0.44430941
4490.00   0.43283027
4492.00   0.38593465
4494.00   0.39632228
4496.00   0.40102407
4498.00   0.42880964
4500.00   0.40513361
4502.00   0.39921743
4504.00   0.39606243
4506.00   0.42299545
4508.00   0.40929961
4510.00   0.37006947
4512.00   0.38672739
4514.00   0.37585479
4516.00   0.38382679
4518.00   0.39512452
4520.00   0.38171759
4522.00   0.39437258
4524.00   0.41305780
4526.00   0.40893942
4528.00   0.44759783
4530.00   0.42619115
4532.00   0.44688904
4534.00   0.44600302
4536.00   0.39132157
4538.00   0.39310470
4540.00   0.42751455
4542.00   0.41535661
4544.00   0.38923281
4546.00   0.39824688
4548.00   0.33942720
4550.00   0.38239363
4552.00   0.48506388
4554.00   0.43989247
4556.00   0.38461843
4558.00   0.38460359
4560.00   0.39481643
4562.00   0.38230583
4564.00   0.38282812
4566.00   0.41699100
4568.00   0.43837413
4570.00   0.45273840
4572.00   0.41973910
4574.00   0.43743646
4576.00   0.44830298
4578.00   0.43643814
4580.00   0.43523794
4582.00   0.44490528
4584.00   0.41883659
4586.00   0.38920021
4588.00   0.40549073
4590.00   0.40613836
4592.00   0.40653917
4594.00   0.39819437
4596.00   0.41210213
4598.00   0.35661742
4600.00   0.37052509
4602.00   0.36981398
4604.00   0.39842829
4606.00   0.38723850
4608.00   0.38964888
4610.00   0.42239782
4612.00   0.39833808
4614.00   0.38062346
4616.00   0.41569099
4618.00   0.38824555
4620.00   0.38886243
4622.00   0.40769240
4624.00   0.40508926
4626.00   0.42192042
4628.00   0.42430526
4630.00   0.39979962
4632.00   0.38968286
4634.00   0.42480737
4636.00   0.39978233
4638.00   0.39624587
4640.00   0.41135806
4642.00   0.41132513
4644.00   0.38147026
4646.00   0.39211485
4648.00   0.41596109
4650.00   0.39445868
4652.00   0.38723761
4654.00   0.42847806
4656.00   0.42334080
4658.00   0.41415888
4660.00   0.39275751
4662.00   0.40900281
4664.00   0.42479390
4666.00   0.42761946
4668.00   0.40436324
4670.00   0.41820005
4672.00   0.38575813
4674.00   0.37757751
4676.00   0.36931780
4678.00   0.40000066
4680.00   0.39290640
4682.00   0.40488470
4684.00   0.39661908
4686.00   0.39669648
4688.00   0.39937603
4690.00   0.43695760
4692.00   0.42205459
4694.00   0.42600968
4696.00   0.44176340
4698.00   0.42676887
4700.00   0.39939082
4702.00   0.40699404
4704.00   0.43473500
4706.00   0.44914719
4708.00   0.41341582
4710.00   0.42491651
4712.00   0.44261897
4714.00   0.42233017
4716.00   0.43167114
4718.00   0.41883230
4720.00   0.41669798
4722.00   0.42065006
4724.00   0.44250312
4726.00   0.47417292
4728.00   0.45707551
4730.00   0.44739538
4732.00   0.45661682
4734.00   0.46434301
4736.00   0.45424423
4738.00   0.44403765
4740.00   0.48022708
4742.00   0.46500322
4744.00   0.47452325
4746.00   0.45190394
4748.00   0.44793826
4750.00   0.43241206
4752.00   0.44524598
4754.00   0.43021387
4756.00   0.42451826
4758.00   0.44194597
4760.00   0.47857711
4762.00   0.46095011
4764.00   0.46296817
4766.00   0.46682003
4768.00   0.44495147
4770.00   0.42939809
4772.00   0.42279750
4774.00   0.42895913
4776.00   0.46585503
4778.00   0.47116497
4780.00   0.47187662
4782.00   0.48586079
4784.00   0.49896437
4786.00   0.47711501
4788.00   0.50059098
4790.00   0.47845742
4792.00   0.48277125
4794.00   0.48975518
4796.00   0.49059558
4798.00   0.50439090
4800.00   0.51437289
4802.00   0.52512836
4804.00   0.50568497
4806.00   0.51306623
4808.00   0.52548867
4810.00   0.47211039
4812.00   0.49134895
4814.00   0.53513116
4816.00   0.53683913
4818.00   0.51514834
4820.00   0.52413970
4822.00   0.53573948
4824.00   0.52920562
4826.00   0.53755432
4828.00   0.54061764
4830.00   0.53827137
4832.00   0.52967089
4834.00   0.54534400
4836.00   0.56442630
4838.00   0.54848433
4840.00   0.54505640
4842.00   0.55952007
4844.00   0.56953484
4846.00   0.55046451
4848.00   0.57288742
4850.00   0.58046472
4852.00   0.56692475
4854.00   0.52821594
4856.00   0.54336548
4858.00   0.52942699
4860.00   0.55705488
4862.00   0.56545973
4864.00   0.52487713
4866.00   0.54090458
4868.00   0.53537834
4870.00   0.53241158
4872.00   0.53101671
4874.00   0.52510524
4876.00   0.50164253
4878.00   0.53941989
4880.00   0.54546392
4882.00   0.52972615
4884.00   0.52072352
4886.00   0.53101861
4888.00   0.55155021
4890.00   0.54230809
4892.00   0.52531499
4894.00   0.51070893
4896.00   0.46764773
4898.00   0.50943923
4900.00   0.55880690
4902.00   0.54521352
4904.00   0.52065670
4906.00   0.52394968
4908.00   0.52333152
4910.00   0.48796988
4912.00   0.48012087
4914.00   0.49767187
4916.00   0.52866977
4918.00   0.48788777
4920.00   0.51259077
4922.00   0.50378275
4924.00   0.49330723
4926.00   0.50454146
4928.00   0.48922196
4930.00   0.46710578
4932.00   0.46684650
4934.00   0.44823790
4936.00   0.45736820
4938.00   0.46519831
4940.00   0.44853958
4942.00   0.46517971
4944.00   0.50848556
4946.00   0.45987728
4948.00   0.44930723
4950.00   0.48111060
4952.00   0.45097879
4954.00   0.47547713
4956.00   0.48199448
4958.00   0.46149319
4960.00   0.41801450
4962.00   0.42985111
4964.00   0.48872694
4966.00   0.44093636
4968.00   0.41871095
4970.00   0.43534166
4972.00   0.47070038
4974.00   0.49603096
4976.00   0.45337304
4978.00   0.48255977
4980.00   0.47001031
4982.00   0.48036441
4984.00   0.46956325
4986.00   0.44787979
4988.00   0.43933812
4990.00   0.45490536
4992.00   0.45118591
4994.00   0.46067059
4996.00   0.42399952
4998.00   0.44670287
5000.00   0.41870639
5002.00   0.43869561
5004.00   0.46014839
5006.00   0.44672045
5008.00   0.44994193
5010.00   0.46565074
5012.00   0.43604687
5014.00   0.46300974
5016.00   0.45625529
5018.00   0.48352510
5020.00   0.44679195
5022.00   0.45556268
5024.00   0.45126003
5026.00   0.45415616
5028.00   0.46509698
5030.00   0.47519943
5032.00   0.47707018
5034.00   0.45760113
5036.00   0.44897482
5038.00   0.45855474
5040.00   0.45519361
5042.00   0.44629836
5044.00   0.44922197
5046.00   0.44156575
5048.00   0.44805673
5050.00   0.44233793
5052.00   0.45300701
5054.00   0.43515173
5056.00   0.43398532
5058.00   0.45665145
5060.00   0.44447809
5062.00   0.46117941
5064.00   0.45391873
5066.00   0.45439434
5068.00   0.45324191
5070.00   0.43427753
5072.00   0.44518495
5074.00   0.43411708
5076.00   0.44563532
5078.00   0.44565487
5080.00   0.44825485
5082.00   0.42390528
5084.00   0.43548489
5086.00   0.43532735
5088.00   0.45716408
#5090.00   0.42852604
#5092.00   0.42618060
#5094.00   0.37986833
#5096.00   0.47697079
#5098.00   0.65358555
#5100.00   0.67708808
#5102.00   0.47634071
#5104.00   0.45300436
#5106.00   0.42684245
5108.00   0.43558219
5110.00   0.41525859
5112.00   0.41145062
5114.00   0.41414580
5116.00   0.42339972
5118.00   0.43043467
5120.00   0.43979830
5122.00   0.43983278
5124.00   0.45838612
5126.00   0.43399090
5128.00   0.43707645
5130.00   0.44060388
5132.00   0.43800443
5134.00   0.44696739
5136.00   0.45637330
5138.00   0.43979093
5140.00   0.47620171
5142.00   0.43964511
5144.00   0.46698746
5146.00   0.45800710
5148.00   0.48484951
5150.00   0.44079751
5152.00   0.47387859
5154.00   0.47819939
5156.00   0.42573136
5158.00   0.44893593
5160.00   0.47186264
5162.00   0.47167671
5164.00   0.44844356
5166.00   0.46918815
5168.00   0.48122820
5170.00   0.51161110
5172.00   0.49790791
5174.00   0.46220282
5176.00   0.47018328
5178.00   0.47227085
5180.00   0.50431538
5182.00   0.46936411
5184.00   0.48793224
5186.00   0.48302829
5188.00   0.49437374
5190.00   0.48660457
5192.00   0.50047791
5194.00   0.50071889
5196.00   0.48863062
5198.00   0.45614982
5200.00   0.50330156
5202.00   0.50816858
5204.00   0.47827771
5206.00   0.47389612
5208.00   0.46459889
5210.00   0.48922926
5212.00   0.47746208
5214.00   0.47108537
5216.00   0.47440490
5218.00   0.48666564
5220.00   0.47111952
5222.00   0.45989162
5224.00   0.49482185
5226.00   0.42324379
5228.00   0.40211493
5230.00   0.41916549
5232.00   0.46223074
5234.00   0.44064042
5236.00   0.44145611
5238.00   0.47768894
5240.00   0.44604883
5242.00   0.43805057
5244.00   0.43074140
5246.00   0.42511114
5248.00   0.44433957
5250.00   0.50902480
5252.00   0.54256606
5254.00   0.49164549
5256.00   0.45550171
5258.00   0.42006436
5260.00   0.44544461
5262.00   0.41066489
5264.00   0.40402585
5266.00   0.42202926
5268.00   0.41665283
5270.00   0.41322753
5272.00   0.46464077
5274.00   0.42967948
5276.00   0.41431022
5278.00   0.43739754
5280.00   0.41690129
5282.00   0.39715305
5284.00   0.39932755
5286.00   0.41948643
5288.00   0.40735728
5290.00   0.41562942
5292.00   0.39575723
5294.00   0.41746524
5296.00   0.39351144
5298.00   0.42777681
5300.00   0.42076555
5302.00   0.40969923
5304.00   0.42767408
5306.00   0.42225897
5308.00   0.41193467
5310.00   0.42373857
5312.00   0.42321143
5314.00   0.44668841
5316.00   0.39203548
5318.00   0.41228601
5320.00   0.43180841
5322.00   0.42447823
5324.00   0.39013162
5326.00   0.43131015
5328.00   0.43130532
5330.00   0.40381727
5332.00   0.41420680
5334.00   0.39871103
5336.00   0.41641694
5338.00   0.39386103
5340.00   0.41068354
5342.00   0.43926078
5344.00   0.42653808
5346.00   0.41812629
5348.00   0.38065931
5350.00   0.38560209
5352.00   0.38917488
5354.00   0.39308804
5356.00   0.40547296
5358.00   0.39412707
5360.00   0.37992758
5362.00   0.39425695
5364.00   0.40934899
5366.00   0.42028838
5368.00   0.43033552
5370.00   0.43293935
5372.00   0.39633328
5374.00   0.43676889
5376.00   0.40408838
5378.00   0.41120291
5380.00   0.40921602
5382.00   0.38879189
5384.00   0.44329879
5386.00   0.43480274
5388.00   0.41030818
5390.00   0.38974386
5392.00   0.42023873
5394.00   0.40128896
5396.00   0.43535650
5398.00   0.37162882
5400.00   0.36849606
5402.00   0.44739506
5404.00   0.42009410
5406.00   0.41379896
5408.00   0.45572236
5410.00   0.48758087
5412.00   0.49493751
5414.00   0.46605811
5416.00   0.43548518
5418.00   0.44883233
5420.00   0.40322083
5422.00   0.39873946
5424.00   0.37395194
5426.00   0.38705751
5428.00   0.39565179
5430.00   0.37929043
5432.00   0.39722681
5434.00   0.41018078
5436.00   0.42816874
5438.00   0.39203545
5440.00   0.39578661
5442.00   0.40391594
5444.00   0.41350618
5446.00   0.42508933
5448.00   0.43181521
5450.00   0.43628627
5452.00   0.44084209
5454.00   0.44710594
5456.00   0.44771370
5458.00   0.44212118
5460.00   0.43401846
5462.00   0.42218158
5464.00   0.40620399
5466.00   0.41695493
5468.00   0.46628141
5470.00   0.48124546
5472.00   0.46702880
5474.00   0.45371431
5476.00   0.45411012
5478.00   0.45912129
5480.00   0.45830327
5482.00   0.45748830
5484.00   0.44960138
5486.00   0.42922464
5488.00   0.41736290
5490.00   0.41987902
5492.00   0.42873386
5494.00   0.43408978
5496.00   0.43941796
5498.00   0.44684535
5500.00   0.45758265
5502.00   0.46605289
5504.00   0.47243372
5506.00   0.47713593
5508.00   0.48012501
5510.00   0.48160672
5512.00   0.47987401
5514.00   0.47296470
5516.00   0.46881118
5518.00   0.46620566
5520.00   0.46481454
5522.00   0.46588391
5524.00   0.46872380
5526.00   0.46453214
5528.00   0.44764525
5530.00   0.44689870
5532.00   0.45898393
5534.00   0.47323552
5536.00   0.48841804
5538.00   0.50418282
5540.00   0.51126230
5542.00   0.51042354
5544.00   0.51193315
5546.00   0.51349539
5548.00   0.51284182
5550.00   0.50878716
5552.00   0.50345391
5554.00   0.49984017
5556.00   0.49630538
5558.00   0.49514198
5560.00   0.49472070
5562.00   0.49778128
5564.00   0.50653702
5566.00   0.51548469
5568.00   0.51879001
5570.00   0.51845503
5572.00   0.52338886
5574.00   0.53976285
5576.00   0.53837931
5578.00   0.51644099
5580.00   0.49520290
5582.00   0.48509058
5584.00   0.48018542
5586.00   0.47943398
5588.00   0.48373836
5590.00   0.49133006
5592.00   0.50821787
5594.00   0.51942700
5596.00   0.51954287
5598.00   0.51429725
5600.00   0.51181573
5602.00   0.51022881
5604.00   0.50434297
5606.00   0.48898453
5608.00   0.48379701
5610.00   0.49333021
5612.00   0.50785702
5614.00   0.51744974
5616.00   0.52767003
5618.00   0.52956921
5620.00   0.52111012
5622.00   0.51741219
5624.00   0.51929605
5626.00   0.52032137
5628.00   0.51505542
5630.00   0.50566298
5632.00   0.50283355
5634.00   0.50415885
5636.00   0.50567931
5638.00   0.51110631
5640.00   0.51319152
5642.00   0.50684971
5644.00   0.49612698
5646.00   0.49246278
5648.00   0.49509057
5650.00   0.49242741
5652.00   0.48576823
5654.00   0.48101604
5656.00   0.47917441
5658.00   0.47926143
5660.00   0.48145071
5662.00   0.48653060
5664.00   0.49052104
5666.00   0.49482906
5668.00   0.49894047
5670.00   0.50576359
5672.00   0.50930196
5674.00   0.50088286
5676.00   0.48203215
5678.00   0.47141442
5680.00   0.45817223
5682.00   0.45722109
5684.00   0.47518957
5686.00   0.49057302
5688.00   0.48721021
5690.00   0.47324890
5692.00   0.46824470
5694.00   0.46460032
5696.00   0.46505198
5698.00   0.47047886
5700.00   0.47679996
5702.00   0.48463005
5704.00   0.49236017
5706.00   0.48977566
5708.00   0.47177717
5710.00   0.47121900
5712.00   0.48443848
5714.00   0.49393037
5716.00   0.49761727
5718.00   0.49826509
5720.00   0.49555993
5722.00   0.48704597
5724.00   0.48636711
5726.00   0.49252269
5728.00   0.49560460
5730.00   0.49604946
5732.00   0.49481738
5734.00   0.49108061
5736.00   0.48432484
5738.00   0.48440543
5740.00   0.49189705
5742.00   0.49458924
5744.00   0.49216026
5746.00   0.49104410
5748.00   0.49607944
5750.00   0.50428808
5752.00   0.50463885
5754.00   0.49583083
5756.00   0.49517474
5758.00   0.49952972
5760.00   0.50481033
5762.00   0.51163799
5764.00   0.51839840
5766.00   0.51757973
5768.00   0.50905907
5770.00   0.50484973
5772.00   0.50058889
5774.00   0.49833184
5776.00   0.50125718
5778.00   0.50319040
5780.00   0.49340621
5782.00   0.47167268
5784.00   0.46714640
5786.00   0.47480497
5788.00   0.48151681
5790.00   0.49087504
5792.00   0.49830166
5794.00   0.49779177
5796.00   0.49151826
5798.00   0.49178541
5800.00   0.49556085
5802.00   0.49923146
5804.00   0.50569081
5806.00   0.50955868
5808.00   0.50645864
5810.00   0.49976170
5812.00   0.50080609
5814.00   0.51036114
5816.00   0.51202524
5818.00   0.50837314
5820.00   0.50544322
5822.00   0.50472414
5824.00   0.50462067
5826.00   0.50407773
5828.00   0.50524521
5830.00   0.50035608
5832.00   0.48624313
5834.00   0.47926459
5836.00   0.48146489
5838.00   0.48722914
5840.00   0.49212003
5842.00   0.49878025
5844.00   0.50178128
5846.00   0.50173330
5848.00   0.50221753
5850.00   0.50550193
5852.00   0.50497234
5854.00   0.49376333
5856.00   0.47492248
5858.00   0.46779191
5860.00   0.46721229
5862.00   0.46831360
5864.00   0.47484073
5866.00   0.48006114
5868.00   0.48166239
5870.00   0.48105705
5872.00   0.47722849
5874.00   0.46575284
5876.00   0.46388385
5878.00   0.46902746
5880.00   0.47400936
5882.00   0.47972280
5884.00   0.48402151
5886.00   0.48008370
5888.00   0.46882308
5890.00   0.45942461
5892.00   0.44632098
5894.00   0.43757534
5896.00   0.43432063
5898.00   0.43278769
5900.00   0.42854142
5902.00   0.42210039
5904.00   0.42801642
5906.00   0.44833773
5908.00   0.46142623
5910.00   0.47264054
5912.00   0.47832286
5914.00   0.47351110
5916.00   0.46111211
5918.00   0.45662230
5920.00   0.45752564
5922.00   0.45415697
5924.00   0.44519630
5926.00   0.44091359
5928.00   0.44658154
5930.00   0.45672327
5932.00   0.46044978
5934.00   0.46487713
5936.00   0.45822522
5938.00   0.43428916
5940.00   0.42108405
5942.00   0.42470431
5944.00   0.43394771
5946.00   0.43652382
5948.00   0.43677524
5950.00   0.43902266
5952.00   0.44272554
5954.00   0.44535097
5956.00   0.44851163
5958.00   0.44921395
5960.00   0.44369158
5962.00   0.43309900
5964.00   0.42643166
5966.00   0.41850963
5968.00   0.41626850
5970.00   0.42141676
5972.00   0.42609683
5974.00   0.42755219
5976.00   0.42706704
5978.00   0.41902098
5980.00   0.39762309
5982.00   0.38911673
5984.00   0.38533476
5986.00   0.38827056
5988.00   0.40265939
5990.00   0.42138398
5992.00   0.42650917
5994.00   0.42184100
5996.00   0.42083150
5998.00   0.41835794
6000.00   0.41733137
6002.00   0.41829476
6004.00   0.41997904
6006.00   0.42109105
6008.00   0.42210469
6010.00   0.42357594
6012.00   0.42480993
6014.00   0.42740184
6016.00   0.43263200
6018.00   0.43699828
6020.00   0.43746153
6022.00   0.43538240
6024.00   0.43500471
6026.00   0.43748826
6028.00   0.43433979
6030.00   0.42239252
6032.00   0.41486079
6034.00   0.41903764
6036.00   0.42918256
6038.00   0.43310550
6040.00   0.43423098
6042.00   0.43615824
6044.00   0.43840018
6046.00   0.43933409
6048.00   0.43755862
6050.00   0.43532017
6052.00   0.43687078
6054.00   0.44083688
6056.00   0.44569945
6058.00   0.45708606
6060.00   0.45965800
6062.00   0.44910073
6064.00   0.43665862
6066.00   0.43300214
6068.00   0.43292809
6070.00   0.44054282
6072.00   0.46217871
6074.00   0.47369793
6076.00   0.47567132
6078.00   0.47654086
6080.00   0.48137712
6082.00   0.48750609
6084.00   0.49026468
6086.00   0.49076650
6088.00   0.49069282
6090.00   0.48783636
6092.00   0.48691279
6094.00   0.49026355
6096.00   0.49568650
6098.00   0.49901235
6100.00   0.50250340
6102.00   0.50348783
6104.00   0.49997926
6106.00   0.49992770
6108.00   0.50668144
6110.00   0.51432872
6112.00   0.51400572
6114.00   0.50733137
6116.00   0.50540066
6118.00   0.50602812
6120.00   0.50521690
6122.00   0.50323224
6124.00   0.50035870
6126.00   0.49579716
6128.00   0.48928857
6130.00   0.48866543
6132.00   0.49287701
6134.00   0.49694043
6136.00   0.50576752
6138.00   0.50957346
6140.00   0.49980932
6142.00   0.48218709
6144.00   0.47880220
6146.00   0.48326901
6148.00   0.49070802
6150.00   0.50681055
6152.00   0.51979786
6154.00   0.52693224
6156.00   0.53037018
6158.00   0.52969956
6160.00   0.52434534
6162.00   0.51735455
6164.00   0.50705194
6166.00   0.49560142
6168.00   0.48117876
6170.00   0.46730098
6172.00   0.45972607
6174.00   0.45673996
6176.00   0.45363370
6178.00   0.45325294
6180.00   0.45149067
6182.00   0.44624546
6184.00   0.44357517
6186.00   0.44958508
6188.00   0.46193761
6190.00   0.46697056
6192.00   0.46753812
6194.00   0.46941471
6196.00   0.47166100
6198.00   0.47340941
6200.00   0.47350270
6202.00   0.47304794
6204.00   0.47705302
6206.00   0.49112892
6208.00   0.48990920
6210.00   0.47421923
6212.00   0.46254027
6214.00   0.45818743
6216.00   0.45784652
6218.00   0.46181819
6220.00   0.47441703
6222.00   0.47512761
6224.00   0.46511680
6226.00   0.45972568
6228.00   0.46059263
6230.00   0.46259990
6232.00   0.46132186
6234.00   0.45832071
6236.00   0.45666337
6238.00   0.45755526
6240.00   0.45410073
6242.00   0.44362763
6244.00   0.43511653
6246.00   0.43546283
6248.00   0.44121718
6250.00   0.44308099
6252.00   0.44617864
6254.00   0.44423509
6256.00   0.43353161
6258.00   0.42787597
6260.00   0.43456277
6262.00   0.44704726
6264.00   0.45179322
6266.00   0.45474467
6268.00   0.45248646
6270.00   0.44370985
6272.00   0.43501228
6274.00   0.42525578
6276.00   0.41688722
6278.00   0.41695511
6280.00   0.42543191
6282.00   0.42746028
6284.00   0.42669469
6286.00   0.42619243
6288.00   0.42575830
6290.00   0.42523545
6292.00   0.42443970
6294.00   0.42313927
6296.00   0.42477962
6298.00   0.43291634
6300.00   0.43263376
6302.00   0.42138785
6304.00   0.41229007
6306.00   0.41310865
6308.00   0.41941130
6310.00   0.42492786
6312.00   0.43636870
6314.00   0.43873680
6316.00   0.43202746
6318.00   0.42707890
6320.00   0.42650366
6322.00   0.42842668
6324.00   0.43412593
6326.00   0.44872385
6328.00   0.44966412
6330.00   0.43791795
6332.00   0.43045312
6334.00   0.42878860
6336.00   0.42981794
6338.00   0.43284687
6340.00   0.44011441
6342.00   0.43964687
6344.00   0.42955860
6346.00   0.42731574
6348.00   0.43499738
6350.00   0.44315910
6352.00   0.44479114
6354.00   0.44316557
6356.00   0.43963170
6358.00   0.42985350
6360.00   0.42633766
6362.00   0.42794943
6364.00   0.43082175
6366.00   0.43384078
6368.00   0.43749189
6370.00   0.43917233
6372.00   0.44210130
6374.00   0.43856576
6376.00   0.42542410
6378.00   0.41747233
6380.00   0.42002407
6382.00   0.42652321
6384.00   0.42716479
6386.00   0.42429811
6388.00   0.42447048
6390.00   0.42528531
6392.00   0.42785674
6394.00   0.43432784
6396.00   0.44022700
6398.00   0.43917948
6400.00   0.43243206
6402.00   0.43129584
6404.00   0.43878803
6406.00   0.43411970
6408.00   0.41074634
6410.00   0.39138085
6412.00   0.39448947
6414.00   0.41138747
6416.00   0.41494292
6418.00   0.41247821
6420.00   0.41052416
6422.00   0.40390739
6424.00   0.40205631
6426.00   0.41141829
6428.00   0.42614916
6430.00   0.43064278
6432.00   0.42842215
6434.00   0.42743719
6436.00   0.42426476
6438.00   0.42186430
6440.00   0.42018017
6442.00   0.41955119
6444.00   0.42198706
6446.00   0.42869225
6448.00   0.42958173
6450.00   0.42548972
6452.00   0.42335612
6454.00   0.42406017
6456.00   0.42458472
6458.00   0.42199966
6460.00   0.41712663
6462.00   0.41480091
6464.00   0.41455063
6466.00   0.41283220
6468.00   0.40888435
6470.00   0.40609011
6472.00   0.40705740
6474.00   0.41031504
6476.00   0.41070744
6478.00   0.40911636
6480.00   0.40860385
6482.00   0.40858626
6484.00   0.40849137
6486.00   0.40760055
6488.00   0.40681896
6490.00   0.40895575
6492.00   0.41550678
6494.00   0.41651928
6496.00   0.41434699
6498.00   0.41086701
6500.00   0.40376741
6502.00   0.39744341
6504.00   0.40042540
6506.00   0.41210628
6508.00   0.41556314
6510.00   0.41586816
6512.00   0.41393638
6514.00   0.40848956
6516.00   0.40216726
6518.00   0.39731926
6520.00   0.39277279
6522.00   0.38949972
6524.00   0.38461277
6526.00   0.38632473
6528.00   0.39665738
6530.00   0.40633580
6532.00   0.41078204
6534.00   0.41270924
6536.00   0.41358134
6538.00   0.41096982
6540.00   0.41128317
6542.00   0.41435272
6544.00   0.41569284
6546.00   0.41322601
6548.00   0.40951538
6550.00   0.40920934
6552.00   0.41115239
6554.00   0.41260210
6556.00   0.41511533
6558.00   0.41660067
6560.00   0.41696826
6562.00   0.41652119
6564.00   0.41515520
6566.00   0.41252306
6568.00   0.41134781
6570.00   0.41042838
6572.00   0.41076347
6574.00   0.41338748
6576.00   0.41557112
6578.00   0.41494882
6580.00   0.41258115
6582.00   0.41155910
6584.00   0.41152278
6586.00   0.41021058
6588.00   0.40772384
6590.00   0.40513733
6592.00   0.40246436
6594.00   0.39989319
6596.00   0.39952669
6598.00   0.39935380
6600.00   0.40371966
6602.00   0.41540432
6604.00   0.42305565
6606.00   0.42416048
6608.00   0.42186570
6610.00   0.41864690
6612.00   0.41195667
6614.00   0.40931383
6616.00   0.40892676
6618.00   0.40916654
6620.00   0.41175380
6622.00   0.41327873
6624.00   0.40862590
6626.00   0.39859286
6628.00   0.39614087
6630.00   0.39923310
6632.00   0.40092272
6634.00   0.40202555
6636.00   0.40338466
6638.00   0.40540272
6640.00   0.40786761
6642.00   0.40992036
6644.00   0.41254574
6646.00   0.41347963
6648.00   0.41283885
6650.00   0.41182858
6652.00   0.41032076
6654.00   0.40871918
6656.00   0.40947455
6658.00   0.41281602
6660.00   0.41441506
6662.00   0.41694716
6664.00   0.41650236
6666.00   0.41014576
6668.00   0.40314829
6670.00   0.40415522
6672.00   0.41110811
6674.00   0.41589588
6676.00   0.42241538
6678.00   0.42662716
6680.00   0.42875671
6682.00   0.42917567
6684.00   0.42689621
6686.00   0.42150384
6688.00   0.42369956
6690.00   0.43453243
6692.00   0.43927878
6694.00   0.44008261
6696.00   0.43874931
6698.00   0.43447086
6700.00   0.42806870
6702.00   0.42880759
6704.00   0.43819338
6706.00   0.44018665
6708.00   0.43739492
6710.00   0.43471390
6712.00   0.43280444
6714.00   0.43147802
6716.00   0.43301204
6718.00   0.43856195
6720.00   0.43972754
6722.00   0.43827248
6724.00   0.43651679
6726.00   0.43276796
6728.00   0.43027756
6730.00   0.43511641
6732.00   0.44703889
6734.00   0.45098296
6736.00   0.45201740
6738.00   0.44941089
6740.00   0.43847898
6742.00   0.43019733
6744.00   0.43563825
6746.00   0.45042068
6748.00   0.45355782
6750.00   0.44950861
6752.00   0.44688389
6754.00   0.44283995
6756.00   0.43978965
6758.00   0.43891561
6760.00   0.43947956
6762.00   0.44124860
6764.00   0.44699734
6766.00   0.44755805
6768.00   0.44470164
6770.00   0.44102085
6772.00   0.43573058
6774.00   0.43045518
6776.00   0.43029267
6778.00   0.43564087
6780.00   0.43543020
6782.00   0.42991444
6784.00   0.42847237
6786.00   0.43242285
6788.00   0.43800637
6790.00   0.44234538
6792.00   0.44746688
6794.00   0.44719574
6796.00   0.44113049
6798.00   0.43681473
6800.00   0.43146211
6802.00   0.42886552
6804.00   0.43356422
6806.00   0.44338179
6808.00   0.44496951
6810.00   0.44000524
6812.00   0.43812588
6814.00   0.43623659
6816.00   0.43626785
6818.00   0.44037226
6820.00   0.44624662
6822.00   0.44652507
6824.00   0.44035375
6826.00   0.44090191
6828.00   0.44599909
6830.00   0.45063403
6832.00   0.45543340
6834.00   0.45896000
6836.00   0.45640621
6838.00   0.44667637
6840.00   0.44567990
6842.00   0.45195124
6844.00   0.45486370
6846.00   0.45467702
6848.00   0.45282143
6850.00   0.44891518
6852.00   0.44225433
6854.00   0.44230589
6856.00   0.44725224
6858.00   0.45290673
6860.00   0.46068946
6862.00   0.46902210
6864.00   0.47810638
6866.00   0.48761666
6868.00   0.48939675
6870.00   0.46148753
6872.00   0.48660517
6874.00   0.53970331
6876.00   0.62859547
6878.00   0.78988594
6880.00   0.97193956
6882.00   1.01980722
6884.00   0.97725028
6886.00   0.90449983
6888.00   0.73518044
6890.00   0.60795599
6892.00   0.53039658
6894.00   0.48682606
6896.00   0.48408988
6898.00   0.52812165
6900.00   0.56521976
6902.00   0.64179283
6904.00   0.66829580
6906.00   0.64005756
6908.00   0.59165442
6910.00   0.54241848
6912.00   0.48071203
6914.00   0.44718117
6916.00   0.43311998
6918.00   0.42243275
6920.00   0.42092523
6922.00   0.42253703
6924.00   0.42517719
6926.00   0.42971161
6928.00   0.43051788
6930.00   0.42934892
6932.00   0.42711216
6934.00   0.42147252
6936.00   0.41812742
6938.00   0.41943660
6940.00   0.42238998
6942.00   0.42194340
6944.00   0.41901803
6946.00   0.41823697
6948.00   0.42036933
6950.00   0.41897270
6952.00   0.41236687
6954.00   0.40450901
6956.00   0.39953837
6958.00   0.39561388
6960.00   0.39312238
6962.00   0.39110598
6964.00   0.39215228
6966.00   0.39808282
6968.00   0.40371117
6970.00   0.40501419
6972.00   0.40392736
6974.00   0.40409985
6976.00   0.40665889
6978.00   0.40382630
6980.00   0.39440131
6982.00   0.38629130
6984.00   0.38209736
6986.00   0.38026464
6988.00   0.38209185
6990.00   0.38959536
6992.00   0.39385390
6994.00   0.39822266
6996.00   0.40074453
6998.00   0.40062580
7000.00   0.39909801
7002.00   0.39789963
7004.00   0.39578950
7006.00   0.39549178
7008.00   0.39779651
7010.00   0.39779535
7012.00   0.39522079
7014.00   0.39143312
7016.00   0.38704214
7018.00   0.38134742
7020.00   0.37845737
7022.00   0.37702784
7024.00   0.37702942
7026.00   0.37862384
7028.00   0.38143045
7030.00   0.38499960
7032.00   0.38959274
7034.00   0.39681178
7036.00   0.40318945
7038.00   0.41836166
7040.00   0.44790152
7042.00   0.47027656
7044.00   0.47955152
7046.00   0.47987449
7048.00   0.46923751
7050.00   0.43565962
7052.00   0.42863885
7054.00   0.43955320
7056.00   0.45025963
7058.00   0.46397364
7060.00   0.47432971
7062.00   0.46509501
7064.00   0.43764016
7066.00   0.42271504
7068.00   0.41066670
7070.00   0.40117604
7072.00   0.39506671
7074.00   0.39057374
7076.00   0.38578287
7078.00   0.38138416
7080.00   0.38031298
7082.00   0.38360462
7084.00   0.38478899
7086.00   0.38482764
7088.00   0.38460451
7090.00   0.38389885
7092.00   0.38300952
7094.00   0.38524991
7096.00   0.39255354
7098.00   0.39444497
7100.00   0.39249402
7102.00   0.39047676
7104.00   0.38891092
7106.00   0.38757154
7108.00   0.38772836
7110.00   0.38917863
7112.00   0.39069489
7114.00   0.39515007
7116.00   0.39525560
7118.00   0.38727587
7120.00   0.37909776
7122.00   0.38175866
7124.00   0.39363790
7126.00   0.39339632
7128.00   0.38203827
7130.00   0.37772039
7132.00   0.38090014
7134.00   0.38469067
7136.00   0.38394874
7138.00   0.38094017
7140.00   0.38314521
7142.00   0.39314416
7144.00   0.39424762
7146.00   0.38652831
7148.00   0.37961546
7150.00   0.37771434
7152.00   0.37790066
7154.00   0.37698847
7156.00   0.37632963
7158.00   0.37526202
7160.00   0.37262681
7162.00   0.37220201
7164.00   0.37602508
7166.00   0.38100621
7168.00   0.38165039
7170.00   0.37902927
7172.00   0.37843597
7174.00   0.37840703
7176.00   0.37839979
7178.00   0.37886029
7180.00   0.37892112
7182.00   0.37663341
7184.00   0.37157333
7186.00   0.37497276
7188.00   0.39080343
7190.00   0.39504033
7192.00   0.38702139
7194.00   0.37798285
7196.00   0.37424594
7198.00   0.37250626
7200.00   0.37230441
7202.00   0.37405202
7204.00   0.37691781
7206.00   0.38342750
7208.00   0.38745829
7210.00   0.38605762
7212.00   0.38192862
7214.00   0.38006416
7216.00   0.37922066
7218.00   0.37706223
7220.00   0.37121493
7222.00   0.37043163
7224.00   0.37808025
7226.00   0.38830915
7228.00   0.39291683
7230.00   0.39484295
7232.00   0.39632502
7234.00   0.39772421
7236.00   0.39581260
7238.00   0.38811943
7240.00   0.38077709
7242.00   0.38062227
7244.00   0.38555413
7246.00   0.38274822
7248.00   0.37179804
7250.00   0.36762002
7252.00   0.36817592
7254.00   0.37133870
7256.00   0.37859097
7258.00   0.38853294
7260.00   0.38633355
7262.00   0.36897117
7264.00   0.36414260
7266.00   0.36579549
7268.00   0.36973137
7270.00   0.37735355
7272.00   0.38586923
7274.00   0.38462642
7276.00   0.37298396
7278.00   0.37041447
7280.00   0.37351689
7282.00   0.37493092
7284.00   0.37404943
7286.00   0.37228948
7288.00   0.37020335
7290.00   0.36711815
7292.00   0.36587510
7294.00   0.36392576
7296.00   0.36630440
7298.00   0.37633285
7300.00   0.38491586
7302.00   0.38304862
7304.00   0.37422571
7306.00   0.37636650
7308.00   0.38868883
7310.00   0.39406717
7312.00   0.39710397
7314.00   0.39565778
7316.00   0.38576564
7318.00   0.37109572
7320.00   0.36789459
7322.00   0.37309039
7324.00   0.37713405
7326.00   0.38627028
7328.00   0.39101678
7330.00   0.38757196
7332.00   0.38107422
7334.00   0.37975612
7336.00   0.38130888
7338.00   0.38149297
7340.00   0.38208830
7342.00   0.38171184
7344.00   0.37980351
7346.00   0.37767088
7348.00   0.37683785
7350.00   0.37682316
7352.00   0.37614903
7354.00   0.37488529
7356.00   0.37431741
7358.00   0.37476802
7360.00   0.37498966
7362.00   0.37392679
7364.00   0.37209320
7366.00   0.37159717
7368.00   0.37241814
7370.00   0.37223369
7372.00   0.37109369
7374.00   0.37035260
7376.00   0.37076539
7378.00   0.37164226
7380.00   0.37137794
7382.00   0.36965850
7384.00   0.36981353
7386.00   0.37327772
7388.00   0.37318158
7390.00   0.36632124
7392.00   0.35802311
7394.00   0.35667971
7396.00   0.36023879
7398.00   0.36172757
7400.00   0.36561331
7402.00   0.36504915
7404.00   0.35719192
7406.00   0.34948352
7408.00   0.34971961
7410.00   0.35522801
7412.00   0.35666275
7414.00   0.35691983
7416.00   0.35663065
7418.00   0.35430068
7420.00   0.35331297
7422.00   0.35678887
7424.00   0.36281505
7426.00   0.36303312
7428.00   0.35861710
7430.00   0.35545486
7432.00   0.35077363
7434.00   0.34779909
7436.00   0.34789357
7438.00   0.34968999
7440.00   0.35108140
7442.00   0.35369724
7444.00   0.35421622
7446.00   0.35377702
7448.00   0.35200280
7450.00   0.34792945
7452.00   0.34341267
7454.00   0.34113982
7456.00   0.33962807
7458.00   0.34107876
7460.00   0.34652960
7462.00   0.35066277
7464.00   0.35505345
7466.00   0.35754600
7468.00   0.35528871
7470.00   0.34926400
7472.00   0.34569389
7474.00   0.34076604
7476.00   0.34000492
7478.00   0.34400910
7480.00   0.34831583
7482.00   0.35177907
7484.00   0.35475954
7486.00   0.35236973
7488.00   0.34236670
7490.00   0.33825094
7492.00   0.33661062
7494.00   0.33611426
7496.00   0.33700407
7498.00   0.33870614
7500.00   0.33903000
7502.00   0.33733875
7504.00   0.34021232
7506.00   0.35001886
7508.00   0.35385853
7510.00   0.34878072
7512.00   0.34182206
7514.00   0.33999491
7516.00   0.33984676
7518.00   0.34451398
7520.00   0.35943422
7522.00   0.36455908
7524.00   0.35916877
7526.00   0.35188898
7528.00   0.34758681
7530.00   0.34373668
7532.00   0.34361717
7534.00   0.34871626
7536.00   0.35049894
7538.00   0.35012880
7540.00   0.34981158
7542.00   0.35010153
7544.00   0.35074109
7546.00   0.35274303
7548.00   0.35775599
7550.00   0.35856977
7552.00   0.35655963
7554.00   0.35389206
7556.00   0.34945476
7558.00   0.34538266
7560.00   0.34712535
7562.00   0.35479006
7564.00   0.35700074
7566.00   0.35605824
7568.00   0.35570773
7570.00   0.35602632
7572.00   0.35625809
7574.00   0.35558552
7576.00   0.35388136
7578.00   0.35585782
7580.00   0.36082834
7582.00   0.36606365
7584.00   0.37582010
7586.00   0.38092232
7588.00   0.37314424
7590.00   0.35710189
7592.00   0.35203448
7594.00   0.35081157
7596.00   0.35476971
7598.00   0.37041432
7600.00   0.37949505
7602.00   0.37258810
7604.00   0.35924572
7606.00   0.35891181
7608.00   0.36710110
7610.00   0.37287372
7612.00   0.38352397
7614.00   0.38762873
7616.00   0.38244250
7618.00   0.37291333
7620.00   0.36374623
7622.00   0.35001752
7624.00   0.34885350
7626.00   0.36158982
7628.00   0.36765578
7630.00   0.36754382
7632.00   0.36504054
7634.00   0.36146516
7636.00   0.35577396
7638.00   0.35385984
7640.00   0.35594830
7642.00   0.35499546
7644.00   0.34851021
7646.00   0.34629759
7648.00   0.35566431
7650.00   0.37158653
7652.00   0.37748680
7654.00   0.37901157
7656.00   0.37705934
7658.00   0.36967137
7660.00   0.36149848
7662.00   0.35273421
7664.00   0.34381536
7666.00   0.33790651
7668.00   0.33086598
7670.00   0.33514673
7672.00   0.35266992
7674.00   0.36670125
7676.00   0.37803248
7678.00   0.38598281
7680.00   0.38577855
7682.00   0.37706429
7684.00   0.37623638
7686.00   0.37948102
7688.00   0.38226190
7690.00   0.38566330
7692.00   0.38861194
7694.00   0.39040691
7696.00   0.39151070
7698.00   0.38880169
7700.00   0.37886804
7702.00   0.37625912
7704.00   0.38008371
7706.00   0.38411629
7708.00   0.38645068
7710.00   0.38807026
7712.00   0.38669366
7714.00   0.38354760
7716.00   0.37725753
7718.00   0.36446220
7720.00   0.35566074
7722.00   0.35330948
7724.00   0.35433531
7726.00   0.35602582
7728.00   0.36055434
7730.00   0.36268303
7732.00   0.36207429
7734.00   0.36456704
7736.00   0.37145877
7738.00   0.37925676
7740.00   0.38450155
7742.00   0.38854903
7744.00   0.39291376
7746.00   0.40284890
7748.00   0.40031096
7750.00   0.38066182
7752.00   0.36223838
7754.00   0.35763758
7756.00   0.36030060
7758.00   0.35833657
7760.00   0.35301930
7762.00   0.35376692
7764.00   0.35988265
7766.00   0.36695626
7768.00   0.37530416
7770.00   0.38365686
7772.00   0.38371560
7774.00   0.37540475
7776.00   0.37064692
7778.00   0.36564729
7780.00   0.36100706
7782.00   0.35516539
7784.00   0.35101783
7786.00   0.35435253
7788.00   0.36471683
7790.00   0.37171915
7792.00   0.38100174
7794.00   0.38542143
7796.00   0.38308680
7798.00   0.37966073
7800.00   0.38010946
7802.00   0.38221979
7804.00   0.38505280
7806.00   0.39035606
7808.00   0.39355668
7810.00   0.39572838
7812.00   0.39640015
7814.00   0.39536321
7816.00   0.39269832
7818.00   0.38744354
7820.00   0.37822184
7822.00   0.37077743
7824.00   0.36215991
7826.00   0.35609561
7828.00   0.35243791
7830.00   0.35206047
7832.00   0.36010811
7834.00   0.37992015
7836.00   0.38965347
7838.00   0.39815518
7840.00   0.39908060
7842.00   0.38749149
7844.00   0.37324026
7846.00   0.37045094
7848.00   0.37524658
7850.00   0.37431666
7852.00   0.37170327
7854.00   0.36809057
7856.00   0.36272460
7858.00   0.35713407
7860.00   0.35232154
7862.00   0.34767422
7864.00   0.34576035
7866.00   0.34549150
7868.00   0.34757376
7870.00   0.35298708
7872.00   0.35883749
7874.00   0.36441228
7876.00   0.36991036
7878.00   0.37230119
7880.00   0.37059662
7882.00   0.37186629
7884.00   0.37693322
7886.00   0.37775311
7888.00   0.37051281
7890.00   0.36051527
7892.00   0.35698271
7894.00   0.35720265
7896.00   0.35703608
7898.00   0.35919896
7900.00   0.35945180
7902.00   0.35518000
7904.00   0.35223177
7906.00   0.35900825
7908.00   0.37488830
7910.00   0.37573004
7912.00   0.36465091
7914.00   0.35645434
7916.00   0.34803990
7918.00   0.34127837
7920.00   0.33842856
7922.00   0.33837834
7924.00   0.33808938
7926.00   0.33877030
7928.00   0.33989546
7930.00   0.34253725
7932.00   0.34422207
7934.00   0.34337494
7936.00   0.34147191
7938.00   0.34220573
7940.00   0.34484339
7942.00   0.34707144
7944.00   0.35019681
7946.00   0.35248297
7948.00   0.35384387
7950.00   0.35431987
7952.00   0.35329261
7954.00   0.35014874
7956.00   0.34936309
7958.00   0.34900761
7960.00   0.35065523
7962.00   0.35534263
7964.00   0.36053476
7966.00   0.36338693
7968.00   0.36477664
7970.00   0.36908540
7972.00   0.37816742
7974.00   0.38154715
7976.00   0.38050354
7978.00   0.37662843
7980.00   0.36863598
7982.00   0.35753950
7984.00   0.35646921
7986.00   0.36571711
7988.00   0.36893895
7990.00   0.37252885
7992.00   0.37100297
7994.00   0.35975167
7996.00   0.34437501
7998.00   0.33878422
8000.00   0.33760512
8002.00   0.34125778
8004.00   0.35641816
8006.00   0.36349320
8008.00   0.35706234
8010.00   0.34758720
8012.00   0.34730941
8014.00   0.35083342
8016.00   0.35995379
8018.00   0.38341683
8020.00   0.39275309
8022.00   0.38638273
8024.00   0.37535268
8026.00   0.36662099
8028.00   0.35649064
8030.00   0.35124522
8032.00   0.34980690
8034.00   0.34883517
8036.00   0.35061815
8038.00   0.35114959
8040.00   0.34722003
8042.00   0.34121105
8044.00   0.34102520
8046.00   0.34685180
8048.00   0.34847721
8050.00   0.34836015
8052.00   0.34782374
8054.00   0.34680331
8056.00   0.34558842
8058.00   0.34556681
8060.00   0.34686816
8062.00   0.34654689
8064.00   0.34526879
8066.00   0.34373990
8068.00   0.34216508
8070.00   0.34007356
8072.00   0.33597264
8074.00   0.32856572
8076.00   0.33205450
8078.00   0.34925419
8080.00   0.35714814
8082.00   0.35530153
8084.00   0.35263458
8086.00   0.35577130
8088.00   0.36167115
8090.00   0.35979611
8092.00   0.35001299
8094.00   0.34455389
8096.00   0.34024796
8098.00   0.33786404
8100.00   0.33802667
8102.00   0.34021410
8104.00   0.34329844
8106.00   0.34968364
8108.00   0.35228625
8110.00   0.35204279
8112.00   0.35223997
8114.00   0.35306820
8116.00   0.35448217
8118.00   0.35765579
8120.00   0.36318621
8122.00   0.36579189
8124.00   0.36900055
8126.00   0.36720163
8128.00   0.35642901
8130.00   0.34602067
8132.00   0.34633842
8134.00   0.35369691
8136.00   0.35904881
8138.00   0.36893472
8140.00   0.37211725
8142.00   0.36885220
8144.00   0.36328122
8146.00   0.35698095
8148.00   0.34915572
8150.00   0.34384656
8152.00   0.33880547
8154.00   0.33680111
8156.00   0.33746475
8158.00   0.33987361
8160.00   0.34455508
8162.00   0.35060871
8164.00   0.35430914
8166.00   0.35678875
8168.00   0.35907817
8170.00   0.36087123
8172.00   0.36215389
8174.00   0.36348066
8176.00   0.36381021
8178.00   0.36139417
8180.00   0.35693422
8182.00   0.35053557
8184.00   0.33863896
8186.00   0.33195582
8188.00   0.33043092
8190.00   0.33167148
8192.00   0.33537006
8194.00   0.34247050
8196.00   0.34205809
8198.00   0.33253491
8200.00   0.33071324
8202.00   0.33667889
8204.00   0.34174684
8206.00   0.34100854
8208.00   0.33756417
8210.00   0.33742198
8212.00   0.33830693
8214.00   0.34066600
8216.00   0.34633741
8218.00   0.34997207
8220.00   0.34869531
8222.00   0.34611145
8224.00   0.34949780
8226.00   0.35859475
8228.00   0.36260253
8230.00   0.36555624
8232.00   0.36533234
8234.00   0.36062711
8236.00   0.35414913
8238.00   0.34933689
8240.00   0.34479246
8242.00   0.34006312
8244.00   0.33352691
8246.00   0.33064249
8248.00   0.33335033
8250.00   0.33543110
8252.00   0.33106303
8254.00   0.32265487
8256.00   0.32192570
8258.00   0.32890725
8260.00   0.33052412
8262.00   0.32999536
8264.00   0.32666358
8266.00   0.31782106
8268.00   0.30628657
8270.00   0.30482545
8272.00   0.30912641
8274.00   0.31801951
8276.00   0.33844510
8278.00   0.35204646
8280.00   0.35500956
8282.00   0.35183448
8284.00   0.34462342
8286.00   0.32627702
8288.00   0.32654065
8290.00   0.34563991
8292.00   0.35547021
8294.00   0.35646310
8296.00   0.35131302
8298.00   0.33727050
8300.00   0.31182435
8302.00   0.30691084
8304.00   0.32031155
8306.00   0.32620502
8308.00   0.32823610
8310.00   0.32788602
8312.00   0.32414353
8314.00   0.31751728
8316.00   0.31579182
8318.00   0.31893474
8320.00   0.31814700
8322.00   0.31277531
8324.00   0.31036100
8326.00   0.31468740
8328.00   0.32224643
8330.00   0.32613793
8332.00   0.33093423
8334.00   0.32912564
8336.00   0.31668088
8338.00   0.31146526
8340.00   0.31753236
8342.00   0.32825029
8344.00   0.33752507
8346.00   0.35213980
8348.00   0.34878963
8350.00   0.32596895
8352.00   0.31042299
8354.00   0.29882929
8356.00   0.29294664
8358.00   0.29855645
8360.00   0.31460944
8362.00   0.32204944
8364.00   0.32835671
8366.00   0.32990143
8368.00   0.32505769
8370.00   0.31958067
8372.00   0.31606051
8374.00   0.31314451
8376.00   0.31331158
8378.00   0.31772557
8380.00   0.31956327
8382.00   0.31969374
8384.00   0.32080400
8386.00   0.32424346
8388.00   0.32845065
8390.00   0.33016053
8392.00   0.32825953
8394.00   0.33243334
8396.00   0.34640214
8398.00   0.35083953
8400.00   0.33971742
8402.00   0.32531893
8404.00   0.32281613
8406.00   0.32740742
8408.00   0.32899061
8410.00   0.33346993
8412.00   0.33264905
8414.00   0.32283077
8416.00   0.31483287
8418.00   0.31757334
8420.00   0.32701600
8422.00   0.33781701
8424.00   0.36152759
8426.00   0.36665568
8428.00   0.35537514
8430.00   0.33965066
8432.00   0.32165349
8434.00   0.30119574
8436.00   0.29317626
8438.00   0.29386273
8440.00   0.29765406
8442.00   0.30997065
8444.00   0.32039064
8446.00   0.32729879
8448.00   0.33203238
8450.00   0.33304590
8452.00   0.32782388
8454.00   0.33059296
8456.00   0.33979809
8458.00   0.34705189
8460.00   0.35594776
8462.00   0.35991600
8464.00   0.34736887
8466.00   0.31930619
8468.00   0.30758962
8470.00   0.30321181
8472.00   0.30193028
8474.00   0.30557916
8476.00   0.31137031
8478.00   0.31817552
8480.00   0.32668427
8482.00   0.32931292
8484.00   0.32511795
8486.00   0.32577136
8488.00   0.33087772
8490.00   0.33406773
8492.00   0.33198804
8494.00   0.32759270
8496.00   0.32725886
8498.00   0.33019313
8500.00   0.33069375
8502.00   0.33146411
8504.00   0.32968599
8506.00   0.32283276
8508.00   0.31523603
8510.00   0.31449065
8512.00   0.31820443
8514.00   0.32291746
8516.00   0.33425441
8518.00   0.33858490
8520.00   0.33493802
8522.00   0.32786745
8524.00   0.31961134
8526.00   0.30788466
8528.00   0.30591261
8530.00   0.31379807
8532.00   0.31735283
8534.00   0.31788918
8536.00   0.31855887
8538.00   0.32126543
8540.00   0.32489476
8542.00   0.32590306
8544.00   0.32406145
8546.00   0.32427555
8548.00   0.32541856
8550.00   0.32702032
8552.00   0.33034995
8554.00   0.33350718
8556.00   0.32999268
8558.00   0.31911787
8560.00   0.31339133
8562.00   0.30743706
8564.00   0.30581227
8566.00   0.31107032
8568.00   0.31831855
8570.00   0.32080007
8572.00   0.32133800
8574.00   0.31985974
8576.00   0.31408471
8578.00   0.31104746
8580.00   0.31136736
8582.00   0.31181768
8584.00   0.30970564
8586.00   0.30608231
8588.00   0.30457926
8590.00   0.30467430
8592.00   0.30411607
8594.00   0.30252579
8596.00   0.30204955
8598.00   0.30429798
8600.00   0.30808339
8602.00   0.30943552
8604.00   0.30899814
8606.00   0.30940494
8608.00   0.30889049
8610.00   0.31022236
8612.00   0.31551290
8614.00   0.32178664
8616.00   0.32256216
8618.00   0.31827709
8620.00   0.31805274
8622.00   0.32067782
8624.00   0.32147774
8626.00   0.32035574
8628.00   0.31785825
8630.00   0.31344458
8632.00   0.30624154
8634.00   0.30428696
8636.00   0.30899987
8638.00   0.30790532
8640.00   0.29963276
8642.00   0.29164302
8644.00   0.28890941
8646.00   0.28897887
8648.00   0.29061803
8650.00   0.29609421
8652.00   0.29938704
8654.00   0.30143657
8656.00   0.30346164
8658.00   0.30672491
8660.00   0.30994782
8662.00   0.30839831
8664.00   0.29907072
8666.00   0.29879671
8668.00   0.30727085
8670.00   0.31131515
8672.00   0.30746928
8674.00   0.30058745
8676.00   0.29609543
8678.00   0.29074827
8680.00   0.28986982
8682.00   0.29723248
8684.00   0.29661563
8686.00   0.28207764
8688.00   0.26875898
8690.00   0.27330178
8692.00   0.29052126
8694.00   0.29925635
8696.00   0.30817407
8698.00   0.31189319
8700.00   0.30913493
8702.00   0.30526534
8704.00   0.30385044
8706.00   0.30296293
8708.00   0.29899806
8710.00   0.29007027
8712.00   0.28658834
8714.00   0.28670445
8716.00   0.28820056
8718.00   0.29090118
8720.00   0.29464719
8722.00   0.29739276
8724.00   0.30001247
8726.00   0.30209464
8728.00   0.30362338
8730.00   0.30499923
8732.00   0.30714592
8734.00   0.30834255
8736.00   0.30538648
8738.00   0.29822469
8740.00   0.29464358
8742.00   0.29102167
8744.00   0.29086393
8746.00   0.29603788
8748.00   0.30157086
8750.00   0.30278358
8752.00   0.30158564
8754.00   0.30170023
8756.00   0.30332682
8758.00   0.30184156
8760.00   0.29705080
8762.00   0.29175600
8764.00   0.28636041
8766.00   0.28090945
8768.00   0.28112900
8770.00   0.28575909
8772.00   0.29218173
8774.00   0.30931291
8776.00   0.31487724
8778.00   0.29515457
8780.00   0.26775846
8782.00   0.26996544
8784.00   0.29595599
8786.00   0.30965382
8788.00   0.32761937
8790.00   0.33376953
8792.00   0.32240766
8794.00   0.30565795
8796.00   0.29744589
8798.00   0.29113862
8800.00   0.29153642
8802.00   0.29978043
8804.00   0.30758110
8806.00   0.31920877
8808.00   0.32737026
8810.00   0.32316706
8812.00   0.30997676
8814.00   0.31261411
8816.00   0.32727155
8818.00   0.33887506
8820.00   0.35498109
8822.00   0.36491838
8824.00   0.36468646
8826.00   0.35651684
8828.00   0.33737841
8830.00   0.28801441
8832.00   0.27887455
8834.00   0.30347940
8836.00   0.32181221
8838.00   0.32610491
8840.00   0.32512513
8842.00   0.32312822
8844.00   0.31607676
8846.00   0.31510493
8848.00   0.31829190
8850.00   0.32107845
8852.00   0.32303134
8854.00   0.32563138
8856.00   0.33032817
8858.00   0.33689597
8860.00   0.34181628
8862.00   0.34841353
8864.00   0.34987226
8866.00   0.34575117
8868.00   0.33978942
8870.00   0.33301428
8872.00   0.32486162
8874.00   0.32397565
8876.00   0.32635075
8878.00   0.33530429
8880.00   0.35796323
8882.00   0.37334895
8884.00   0.37255049
8886.00   0.36305049
8888.00   0.35536698
8890.00   0.34268752
8892.00   0.33585095
8894.00   0.33268806
8896.00   0.33011672
8898.00   0.32775822
8900.00   0.32616013
8902.00   0.32620901
8904.00   0.33030191
8906.00   0.32356393
8908.00   0.30117542
8910.00   0.29183877
8912.00   0.29574037
8914.00   0.30659720
8916.00   0.32391921
8918.00   0.35088375
8920.00   0.35309494
8922.00   0.33153310
8924.00   0.31949157
8926.00   0.30985352
8928.00   0.30445355
8930.00   0.30476439
8932.00   0.31003845
8934.00   0.32230288
8936.00   0.34798336
8938.00   0.36321679
8940.00   0.38026911
8942.00   0.38356498
8944.00   0.35970604
8946.00   0.32588443
8948.00   0.32454136
8950.00   0.35218021
8952.00   0.35688362
8954.00   0.36000296
8956.00   0.34549758
8958.00   0.29887959
8960.00   0.24879302
8962.00   0.23654856
8964.00   0.24926849
8966.00   0.25849110
8968.00   0.27922192
8970.00   0.29336622
8972.00   0.30186048
8974.00   0.30772105
8976.00   0.31225497
8978.00   0.31480184
8980.00   0.31593987
8982.00   0.31620461
8984.00   0.31323341
8986.00   0.30464736
8988.00   0.29781047
8990.00   0.29499906
8992.00   0.29523438
8994.00   0.30378616
8996.00   0.32988179
8998.00   0.33581856
9000.00   0.32628435
9002.00   0.31892076
9004.00   0.31726730
9006.00   0.31777626
9008.00   0.31932285
9010.00   0.32256636
9012.00   0.32651272
9014.00   0.33378914
9016.00   0.33755383
9018.00   0.33666545
9020.00   0.33415264
9022.00   0.33265102
9024.00   0.33066905
9026.00   0.33088452
9028.00   0.33130264
9030.00   0.33542851
9032.00   0.34736845
9034.00   0.35611120
9036.00   0.35212621
9038.00   0.33998802
9040.00   0.33669454
9042.00   0.33850330
9044.00   0.33847848
9046.00   0.34320000
9048.00   0.33984762
9050.00   0.31737363
9052.00   0.28689522
9054.00   0.28227741
9056.00   0.30141321
9058.00   0.30647790
9060.00   0.30789369
9062.00   0.30814579
9064.00   0.30691561
9066.00   0.30494586
9068.00   0.30448884
9070.00   0.30508858
9072.00   0.30442566
9074.00   0.30394763
9076.00   0.30149281
9078.00   0.29621112
9080.00   0.29032367
9082.00   0.28606534
9084.00   0.28257135
9086.00   0.27831280
9088.00   0.26969668
9090.00   0.26970321
9092.00   0.27726114
9094.00   0.28920197
9096.00   0.30708593
9098.00   0.32962051
9100.00   0.33583432
9102.00   0.32714647
9104.00   0.32333648
9106.00   0.31984374
9108.00   0.31485996
9110.00   0.30545625
9112.00   0.29553628
9114.00   0.29691750
9116.00   0.31063452
9118.00   0.31488785
9120.00   0.31544518
9122.00   0.31471905
9124.00   0.31143436
9126.00   0.30803180
9128.00   0.30903074
9130.00   0.31297243
9132.00   0.31735167
9134.00   0.33037987
9136.00   0.32943058
9138.00   0.30540040
9140.00   0.28463805
9142.00   0.29200286
9144.00   0.31784189
9146.00   0.32873106
9148.00   0.33762017
9150.00   0.33901876
9152.00   0.32848385
9154.00   0.32010674
9156.00   0.32228115
9158.00   0.32940683
9160.00   0.32989570
9162.00   0.32635987
9164.00   0.32400134
9166.00   0.31968337
9168.00   0.31791833
9170.00   0.32148597
9172.00   0.32661974
9174.00   0.32563037
9176.00   0.31961957
9178.00   0.31681174
9180.00   0.31636539
9182.00   0.31333718
9184.00   0.30324635
9186.00   0.29552242
9188.00   0.30404183
9190.00   0.32723054
9192.00   0.33337897
9194.00   0.32720375
9196.00   0.32588330
9198.00   0.32931450
9200.00   0.33193457
9202.00   0.32990718
9204.00   0.32500237
9206.00   0.32225645
9208.00   0.31778371
9210.00   0.31863359
9212.00   0.32523534
9214.00   0.33221284
9216.00   0.33802712
9218.00   0.34343284
9220.00   0.34611329
9222.00   0.34571463
9224.00   0.34649613
9226.00   0.34692404
9228.00   0.34774607
9230.00   0.34920809
9232.00   0.35095099
9234.00   0.35250282
9236.00   0.35415930
9238.00   0.35539231
9240.00   0.35748509
9242.00   0.35710084
9244.00   0.35458869
9246.00   0.34970596
9248.00   0.34080461
9250.00   0.32728872
9252.00   0.32149738
9254.00   0.31943509
9256.00   0.32091111
9258.00   0.33025843
9260.00   0.33706468
9262.00   0.33239248
9264.00   0.32113236
9266.00   0.32230732
9268.00   0.33382636
9270.00   0.34064221
9272.00   0.35092101
9274.00   0.35323575
9276.00   0.33893296
9278.00   0.31758475
9280.00   0.31399706
9282.00   0.32356766
9284.00   0.32824358
9286.00   0.33592021
9288.00   0.33959526
9290.00   0.33690342
9292.00   0.33208424
9294.00   0.33009472
9296.00   0.32696003
9298.00   0.33362955
9300.00   0.35316548
9302.00   0.36575297
9304.00   0.37566224
9306.00   0.37794596
9308.00   0.36284593
9310.00   0.33209595
9312.00   0.32303530
9314.00   0.32801428
9316.00   0.33157185
9318.00   0.34367996
9320.00   0.34714910
9322.00   0.32914606
9324.00   0.29812759
9326.00   0.27898887
9328.00   0.25725016
9330.00   0.25175729
9332.00   0.26264051
9334.00   0.27523676
9336.00   0.28782463
9338.00   0.30068904
9340.00   0.30688819
9342.00   0.30709088
9344.00   0.30973378
9346.00   0.31507927
9348.00   0.31484798
9350.00   0.30545697
9352.00   0.29440823
9354.00   0.29139221
9356.00   0.29357868
9358.00   0.29231247
9360.00   0.28588232
9362.00   0.28815413
9364.00   0.29507807
9366.00   0.31171840
9368.00   0.35382599
9370.00   0.41770551
9372.00   0.40544280
9374.00   0.30749094
9376.00   0.26298848
9378.00   0.24578123
9380.00   0.24263304
9382.00   0.25364241
9384.00   0.27691358
9386.00   0.29120922
9388.00   0.30832794
9390.00   0.31419969
9392.00   0.30900863
9394.00   0.30382162
9396.00   0.30101916
9398.00   0.29781505
9400.00   0.29199171
9402.00   0.28358486
9404.00   0.27654937
9406.00   0.26455083
9408.00   0.26273280
9410.00   0.27373889
9412.00   0.29017228
9414.00   0.30842987
9416.00   0.33506647
9418.00   0.32825315
9420.00   0.27636507
9422.00   0.25867561
9424.00   0.27103251
9426.00   0.29240102
9428.00   0.31205133
9430.00   0.33554506
9432.00   0.36322701
9434.00   0.41516015
9436.00   0.42488900
9438.00   0.39979953
9440.00   0.36402428
9442.00   0.31587547
9444.00   0.26217213
9446.00   0.24881049
9448.00   0.27373230
9450.00   0.28093109
9452.00   0.28929341
9454.00   0.29292521
9456.00   0.29012972
9458.00   0.28371370
9460.00   0.27543795
9462.00   0.25767386
9464.00   0.26752692
9466.00   0.30310971
9468.00   0.33484885
9470.00   0.37474093
9472.00   0.40246558
9474.00   0.39235130
9476.00   0.35331658
9478.00   0.31845593
9480.00   0.25414637
9482.00   0.23237613
9484.00   0.25676599
9486.00   0.28445715
9488.00   0.29395288
9490.00   0.29721627
9492.00   0.29590607
9494.00   0.27475134
9496.00   0.28278834
9498.00   0.32370830
9500.00   0.35160568
9502.00   0.35190016
9504.00   0.33821511
9506.00   0.32325786
9508.00   0.29019445
9510.00   0.28793201
9512.00   0.31316277
9514.00   0.33238342
9516.00   0.34683123
9518.00   0.35479683
9520.00   0.34612793
9522.00   0.32188475
9524.00   0.30225769
9526.00   0.26783350
9528.00   0.25834924
9530.00   0.27966312
9532.00   0.30718565
9534.00   0.32410854
9536.00   0.33904392
9538.00   0.34221697
9540.00   0.32379526
9542.00   0.32620966
9544.00   0.34844124
9546.00   0.36971900
9548.00   0.38567647
9550.00   0.39717188
9552.00   0.37998495
9554.00   0.31900290
9556.00   0.29499108
9558.00   0.28697267
9560.00   0.28751364
9562.00   0.30102545
9564.00   0.31930065
9566.00   0.31931922
9568.00   0.30622837
9570.00   0.29747856
9572.00   0.28346950
9574.00   0.27661270
9576.00   0.27936238
9578.00   0.28547356
9580.00   0.28905103
9582.00   0.29301879
9584.00   0.29459873
9586.00   0.29538554
9588.00   0.29322320
9590.00   0.28512236
9592.00   0.27894062
9594.00   0.27928010
9596.00   0.28369987
9598.00   0.29809350
9600.00   0.33362886
9602.00   0.34706163
9604.00   0.34710035
9606.00   0.33820572
9608.00   0.31772402
9610.00   0.28965265
9612.00   0.27407655
9614.00   0.26460055
9616.00   0.25753853
9618.00   0.25661972
9620.00   0.25443751
9622.00   0.24846673
9624.00   0.24267158
9626.00   0.24264179
9628.00   0.24668039
9630.00   0.25196075
9632.00   0.25906706
9634.00   0.26890433
9636.00   0.28720826
9638.00   0.30143794
9640.00   0.29587424
9642.00   0.27460662
9644.00   0.26849404
9646.00   0.26788953
9648.00   0.27105322
9650.00   0.28228083
9652.00   0.29183924
9654.00   0.29279715
9656.00   0.28908578
9658.00   0.28983307
9660.00   0.29180643
9662.00   0.29509780
9664.00   0.30216154
9666.00   0.30636227
9668.00   0.30324417
9670.00   0.29791343
9672.00   0.30306739
9674.00   0.32366180
9676.00   0.32117841
9678.00   0.30078834
9680.00   0.28116545
9682.00   0.25831744
9684.00   0.23993246
9686.00   0.24359547
9688.00   0.26607534
9690.00   0.28320107
9692.00   0.31269082
9694.00   0.32396010
9696.00   0.31100380
9698.00   0.29513174
9700.00   0.29590204
9702.00   0.30596188
9704.00   0.29597878
9706.00   0.26188394
9708.00   0.24843426
9710.00   0.24753204
9712.00   0.25615567
9714.00   0.27920491
9716.00   0.31182241
9718.00   0.32004970
9720.00   0.30720165
9722.00   0.30311084
9724.00   0.29767162
9726.00   0.29520893
9728.00   0.30015522
9730.00   0.30612504
9732.00   0.29776910
9734.00   0.27184671
9736.00   0.26839751
9738.00   0.28254473
9740.00   0.29253811
9742.00   0.29782742
9744.00   0.30104420
9746.00   0.30247965
9748.00   0.30231053
9750.00   0.29837415
9752.00   0.28639904
9754.00   0.28179398
9756.00   0.28889379
9758.00   0.29239669
9760.00   0.27672043
9762.00   0.24833903
9764.00   0.25028837
9766.00   0.28504971
9768.00   0.29651126
9770.00   0.29197422
9772.00   0.28632888
9774.00   0.28257251
9776.00   0.27991781
9778.00   0.28980237
9780.00   0.31085572
9782.00   0.33312577
9784.00   0.37379539
9786.00   0.39306110
9788.00   0.38040259
9790.00   0.35034493
9792.00   0.31784421
9794.00   0.26701927
9796.00   0.24640860
9798.00   0.24396890
9800.00   0.25048366
9802.00   0.27673081
9804.00   0.30116454
9806.00   0.29496828
9808.00   0.26591197
9810.00   0.26069620
9812.00   0.27027890
9814.00   0.27482027
9816.00   0.27585316
9818.00   0.27791950
9820.00   0.28422168
9822.00   0.29301199
9824.00   0.29639703
9826.00   0.30043268
9828.00   0.29419506
9830.00   0.26552603
9832.00   0.25413540
9834.00   0.28337091
9836.00   0.32915011
9838.00   0.33627269
9840.00   0.31337771
9842.00   0.30659732
9844.00   0.30651200
9846.00   0.30031061
9848.00   0.28081182
9850.00   0.26104793
9852.00   0.26187119
9854.00   0.28073817
9856.00   0.28381321
9858.00   0.27494010
9860.00   0.27494311
9862.00   0.28709131
9864.00   0.29939941
9866.00   0.30498973
9868.00   0.30918220
9870.00   0.28436032
9872.00   0.20498724
9874.00   0.18220028
9876.00   0.21766855
9878.00   0.25211430
9880.00   0.25083447
9882.00   0.23557943
9884.00   0.25208965
9886.00   0.29984242
9888.00   0.32601425
9890.00   0.35464710
9892.00   0.36036879
9894.00   0.32620445
9896.00   0.27398869
9898.00   0.25029510
9900.00   0.23682649
9902.00   0.23530184
9904.00   0.25269014
9906.00   0.26718009
9908.00   0.28471187
9910.00   0.29446459
9912.00   0.27279502
9914.00   0.21894993
9916.00   0.20500334
9918.00   0.21276265
9920.00   0.22688231
9922.00   0.25788310
9924.00   0.28618616
9926.00   0.29320472
9928.00   0.28711718
9930.00   0.28954783
9932.00   0.29208454
9934.00   0.29815900
9936.00   0.31501272
9938.00   0.32209438
9940.00   0.30517048
9942.00   0.27581099
9944.00   0.26695961
9946.00   0.26970485
9948.00   0.27351189
9950.00   0.29034227
9952.00   0.29562479
9954.00   0.27898097
9956.00   0.25511608
9958.00   0.24736519
9960.00   0.24555837
9962.00   0.25421506
9964.00   0.28304705
9966.00   0.29911789
9968.00   0.30020282
9970.00   0.29491699
9972.00   0.28841284
9974.00   0.27695584
9976.00   0.27278781
9978.00   0.27286160
9980.00   0.27419549
9982.00   0.27464148
9984.00   0.28049433
9986.00   0.30019912
9988.00   0.32959118
9990.00   0.33434945
9992.00   0.30933776
9994.00   0.31059510
9996.00   0.33240613
9998.00   0.35320103
10000.00   0.36916140
10002.00   0.38111311
10004.00   0.37435168
10006.00   0.34708792
10008.00   0.32631084
10010.00   0.30121532
10012.00   0.27948233
10014.00   0.25440258
10016.00   0.23859593
10018.00   0.26146111
10020.00   0.32867196
10022.00   0.34611839
10024.00   0.33288294
10026.00   0.32077932
10028.00   0.30595857
10030.00   0.29050228
10032.00   0.27994904
10034.00   0.27237737
10036.00   0.26074618
10038.00   0.23190220
10040.00   0.23511644
10042.00   0.28452730
10044.00   0.32214957
10046.00   0.30939028
10048.00   0.26940718
10050.00   0.25932625
10052.00   0.26133680
10054.00   0.26752281
10056.00   0.28969342
10058.00   0.30178607
10060.00   0.29061070
10062.00   0.27102628
10064.00   0.27264187
10066.00   0.29335481
10068.00   0.29588082
10070.00   0.28115162
10072.00   0.27927437
10074.00   0.30262086
10076.00   0.32658851
10078.00   0.31711176
10080.00   0.28089565
10082.00   0.26546264
10084.00   0.25521427
10086.00   0.25138724
10088.00   0.25915533
10090.00   0.26637837
10092.00   0.25993410
10094.00   0.24454826
10096.00   0.24934524
10098.00   0.28068888
10100.00   0.28626010
10102.00   0.26788071
10104.00   0.24959123
10106.00   0.23979227
10108.00   0.23406589
10110.00   0.24086946
10112.00   0.25674674
10114.00   0.28307116
10116.00   0.32826656
10118.00   0.36799508
10120.00   0.40764633
10122.00   0.43516585
10124.00   0.40833688
10126.00   0.32024643
10128.00   0.27642041
10130.00   0.23631132
10132.00   0.22341019
10134.00   0.24838489
10136.00   0.28711894
10138.00   0.31648579
10140.00   0.35363281
10142.00   0.34406954
10144.00   0.27305856
10146.00   0.24165727
10148.00   0.25111634
10150.00   0.26206484
10152.00   0.24933288
10154.00   0.22535218
10156.00   0.20781417
10158.00   0.18029398
10160.00   0.17663996
10162.00   0.19277446
10164.00   0.21813057
10166.00   0.25608259
10168.00   0.30046827
10170.00   0.31583086
10172.00   0.32076150
10174.00   0.29529408
10176.00   0.21495906
10178.00   0.16545695
10180.00   0.16117433
10182.00   0.18290542
10184.00   0.22433928
10186.00   0.31288895
10188.00   0.32184669
10190.00   0.25689116
10192.00   0.21998149
10194.00   0.20919010
10196.00   0.21113873
10198.00   0.22363470
10200.00   0.24963044
10202.00   0.26934427
10204.00   0.28482562
10206.00   0.31025916
10208.00   0.37178770
10210.00   0.39929441
10212.00   0.32649365
10214.00   0.19262186
10216.00   0.18253808
10218.00   0.28942597
10220.00   0.32046515
10222.00   0.31685138
10224.00   0.30414763
10226.00   0.28082415
10228.00   0.25338766
10230.00   0.25965026
10232.00   0.30554217
10234.00   0.31150690
10236.00   0.27730006
10238.00   0.27281711
10240.00   0.32827330
10242.00   0.38661361
10244.00   0.36653265
10246.00   0.28701532
10248.00   0.23509312
10250.00   0.15326981
10252.00   0.13244413
10254.00   0.19470041
10256.00   0.26747021
10258.00   0.28830940
10260.00   0.28361404
10262.00   0.30057386
10264.00   0.32130480
10266.00   0.35232815
10268.00   0.41674253
10270.00   0.45301530
10272.00   0.41198498
10274.00   0.32935914
10276.00   0.32911551
10278.00   0.37645671
10280.00   0.43906337
10282.00   0.58249760
10284.00   0.65253729
10286.00   0.59488118
10288.00   0.47238183
10290.00   0.37080881
10292.00   0.23067659
10294.00   0.16606499
10296.00   0.16916203
10298.00   0.16027941
10300.00   0.10835942
10302.00   0.08142439
10304.00   0.17965102
10306.00   0.40507874
10308.00   0.43735376
10310.00   0.29984123
10312.00   0.24081658
10314.00   0.23900971
10316.00   0.26153761
10318.00   0.30716157
10320.00   0.37936881
10322.00   0.38603330
10324.00   0.31207880
10326.00   0.30932498
10328.00   0.39039737
10330.00   0.43159825
10332.00   0.36157951
10334.00   0.23906602
10336.00   0.20274305
10338.00   0.24091171
10340.00   0.21599837
10342.00   0.14321193
10344.00   0.09433653
10346.00   0.07936967
10348.00   0.08787677
10350.00   0.12258579
10352.00   0.18470311
10354.00   0.26306283
10356.00   0.41970417
10358.00   0.48013005
10360.00   0.41045615
10362.00   0.30783796
10364.00   0.26265365
10366.00   0.23623982
10368.00   0.21387096
10370.00   0.19120772
10372.00   0.19712447
10374.00   0.24895436
10376.00   0.29288536
10378.00   0.29798585
10380.00   0.28052169
10382.00   0.23135051
10384.00   0.05970600
10386.00   0.07616930
10388.00   0.31072313
10390.00   0.47339725
10392.00   0.45155001
10394.00   0.34198922
10396.00   0.26633111
10398.00   0.12214577
10400.00   0.12675712
10402.00   0.29827562
10404.00   0.39817891
10406.00   0.37285486
10408.00   0.31479508
10410.00   0.32519600
10412.00   0.36351049
10414.00   0.42437789
10416.00   0.57719338
10418.00   0.61674660
10420.00   0.51670092
10422.00   0.38148621
10424.00   0.28775725
10426.00   0.19582777
10428.00   0.15752491
10430.00   0.15497920
10432.00   0.18998605
10434.00   0.30772188
10436.00   0.39472482
10438.00   0.38303652
10440.00   0.31402752
10442.00   0.25439855
10444.00   0.14640872
10446.00   0.10412364
10448.00   0.10674970
10450.00   0.12473061
10452.00   0.16272332
10454.00   0.20884496
10456.00   0.21342240
10458.00   0.18030396
10460.00   0.17325252
10462.00   0.17967205
10464.00   0.17952181
10466.00   0.16207410
10468.00   0.14939198
10470.00   0.17640007
10472.00   0.24506594
10474.00   0.24404061
10476.00   0.17320940
10478.00   0.14316882
10480.00   0.16154908
10482.00   0.17704652
10484.00   0.14391616
10486.00   0.07999435
10488.00   0.08896570
10490.00   0.17770021
10492.00   0.20964272
10494.00   0.20893042
10496.00   0.19188449
10498.00   0.14572398
10500.00   0.08674368
10502.00   0.11629750
10504.00   0.27419999
10506.00   0.29724190
10508.00   0.21006544
10510.00   0.16036414
10512.00   0.19317356
10514.00   0.24985382
10516.00   0.25139552
10518.00   0.20768669
10520.00   0.21801725
10522.00   0.27851725
10524.00   0.30946311
10526.00   0.31413236
10528.00   0.29507676
10530.00   0.23448260
10532.00   0.12306404
10534.00   0.10256939
10536.00   0.16694465
10538.00   0.19025874
10540.00   0.16967322
10542.00   0.16050734
10544.00   0.21001083
10546.00   0.29466337
10548.00   0.29238847
10550.00   0.19732423
10552.00   0.16780056
10554.00   0.17391489
10556.00   0.19127874
10558.00   0.22532405
10560.00   0.26472947
10562.00   0.24612734
10564.00   0.16359040
10566.00   0.12642553
10568.00   0.09701344
10570.00   0.08907820
10572.00   0.11356182
10574.00   0.15131615
10576.00   0.17052549
10578.00   0.18212765
10580.00   0.19661389
10582.00   0.21538901
10584.00   0.22426887
10586.00   0.22039580
10588.00   0.21280587
10590.00   0.21303096
10592.00   0.21951611
10594.00   0.19040650
10596.00   0.10334012
10598.00   0.07357161
10600.00   0.09411587
10602.00   0.12851964
10604.00   0.16730563
10606.00   0.21415055
10608.00   0.21872051
10610.00   0.17853208
10612.00   0.16115877
10614.00   0.14425051
10616.00   0.13884121
10618.00   0.15530416
10620.00   0.18045883
10622.00   0.18102708
10624.00   0.16095355
10626.00   0.15555933
10628.00   0.15575710
10630.00   0.15676677
10632.00   0.15480688
10634.00   0.15728949
10636.00   0.17642832
10638.00   0.21233726
10640.00   0.23242572
10642.00   0.25058529
10644.00   0.25616390
10646.00   0.24387312
10648.00   0.22870357
10650.00   0.22396792
10652.00   0.22403736
10654.00   0.21521309
10656.00   0.19426200
10658.00   0.18654568
10660.00   0.18608162
10662.00   0.19422832
10664.00   0.21963035
10666.00   0.25396097
10668.00   0.25187790
10670.00   0.20947570
10672.00   0.19524635
10674.00   0.18948685
10676.00   0.19143754
10678.00   0.20265923
10680.00   0.22051606
10682.00   0.24015337
10684.00   0.27591002
10686.00   0.27190462
10688.00   0.22571211
10690.00   0.19522007
10692.00   0.18302438
10694.00   0.17852534
10696.00   0.17626870
10698.00   0.17825688
10700.00   0.18726894
10702.00   0.19895937
10704.00   0.22404915
10706.00   0.28287473
10708.00   0.32358035
10710.00   0.30398095
10712.00   0.24438863
10714.00   0.19694248
10716.00   0.11421680
10718.00   0.09274618
10720.00   0.13084030
10722.00   0.17266792
10724.00   0.20274268
10726.00   0.22910737
10728.00   0.23200761
10730.00   0.20137303
10732.00   0.19981743
10734.00   0.22581615
10736.00   0.23107208
10738.00   0.20385447
10740.00   0.16127129
10742.00   0.11901822
10744.00   0.05595444
10746.00   0.04732020
10748.00   0.10037779
10750.00   0.12279214
10752.00   0.11345691
10754.00   0.09038992
10756.00   0.05251060
10758.00   -0.01237254
10760.00   0.02228114
10762.00   0.18484773
10764.00   0.25351903
10766.00   0.25309995
10768.00   0.22024643
10770.00   0.15395591
10772.00   0.05672827
10774.00   0.04052137
10776.00   0.08377501
10778.00   0.12772664
10780.00   0.21742812
10782.00   0.27368572
10784.00   0.26724258
10786.00   0.22427484
10788.00   0.17409186
10790.00   0.07868478
10792.00   0.04386572
10794.00   0.04638690
10796.00   0.06105996
10798.00   0.09674278
10800.00   0.13639399
10802.00   0.14581040
10804.00   0.13545617
10806.00   0.12709682
10808.00   0.10587154
10810.00   0.09597901
10812.00   0.09372794
10814.00   0.10137772
10816.00   0.12889606
10818.00   0.17573412
10820.00   0.18009995
10822.00   0.13854879
10824.00   0.12873909
10826.00   0.14582340
10828.00   0.16175915
10830.00   0.16794179
10832.00   0.16818169
10834.00   0.14166430
10836.00   0.05443737
10838.00   0.04588217
10840.00   0.11960468
10842.00   0.15732631
10844.00   0.10796274
10846.00   0.03433862
10848.00   0.04816099
10850.00   0.14845382
10852.00   0.15244709
10854.00   0.08607578
10856.00   0.03759997
10858.00   -0.00275446
10860.00   -0.02102828
