# File created by shivutils (I.Shivvers)
# 
# wl(A)   flm    er(optional)
3440.00   7.89280987   0.15718704
3442.00   7.87332678   0.15712613
3444.00   8.12166882   0.15923859
3446.00   7.77665854   0.15715478
3448.00   8.34914684   0.16235152
3450.00   8.61189079   0.16543056
3452.00   8.66421223   0.16647999
3454.00   8.41927433   0.16494928
3456.00   8.58975410   0.16618049
3458.00   8.52535439   0.16539195
3460.00   8.52762127   0.16512410
3462.00   8.52990150   0.16557792
3464.00   8.71608353   0.16727962
3466.00   8.26146126   0.16344924
3468.00   8.65071964   0.16680384
3470.00   8.61126041   0.16647500
3472.00   8.32999802   0.16405702
3474.00   8.71959877   0.16692613
3476.00   8.85299492   0.16748287
3478.00   9.28515911   0.17191902
3480.00   8.89549255   0.17016338
3482.00   9.04879093   0.17207059
3484.00   8.98903370   0.17080976
3486.00   9.07647228   0.17092110
3488.00   9.20853806   0.17145576
3490.00   8.98643780   0.16935678
3492.00   8.88132095   0.16786093
3494.00   8.81065369   0.16698055
3496.00   9.01981449   0.16790633
3498.00   8.97975540   0.16700040
3500.00   8.66570091   0.16396272
3502.00   8.87765980   0.16477813
3504.00   8.80978584   0.16477424
3506.00   8.64058399   0.16300817
3508.00   8.42930889   0.16027039
3510.00   8.56523132   0.16153975
3512.00   8.38895035   0.15991813
3514.00   8.29775715   0.15876560
3516.00   8.44194126   0.15921865
3518.00   8.29590034   0.15761739
3520.00   8.21687984   0.15681982
3522.00   8.61386681   0.15944429
3524.00   8.57130146   0.15868780
3526.00   8.59031582   0.15821053
3528.00   8.62408543   0.15807490
3530.00   8.77559185   0.15826705
3532.00   8.90069485   0.15898961
3534.00   8.83888149   0.15789060
3536.00   8.83135605   0.15763503
3538.00   9.02890682   0.15843628
3540.00   8.92737484   0.15802236
3542.00   8.63771725   0.15693496
3544.00   8.75252914   0.15754783
3546.00   8.80007458   0.15675329
3548.00   8.63516045   0.15446541
3550.00   8.80584526   0.15471625
3552.00   8.46687317   0.15166715
3554.00   8.82297611   0.15402468
3556.00   8.89761353   0.15360323
3558.00   8.68980885   0.15159726
3560.00   8.89607811   0.15234086
3562.00   8.66306686   0.14927849
3564.00   8.59032249   0.14815533
3566.00   8.72369576   0.14774401
3568.00   8.64531040   0.14721677
3570.00   8.57559681   0.14619328
3572.00   8.64469624   0.14551646
3574.00   8.52866459   0.14466546
3576.00   8.56277847   0.14412178
3578.00   8.50303459   0.14311971
3580.00   8.63104916   0.14313030
3582.00   8.92244244   0.14431199
3584.00   8.81445980   0.14283188
3586.00   8.79868126   0.14188962
3588.00   9.13135242   0.14391571
3590.00   8.94161320   0.14218663
3592.00   9.00117779   0.14211172
3594.00   9.05575085   0.14145747
3596.00   9.05431652   0.14044611
3598.00   8.77445030   0.13816707
3600.00   9.24468899   0.14047612
3602.00   9.28174305   0.14023373
3604.00   8.88322926   0.13707410
3606.00   9.11468792   0.13764741
3608.00   9.07658100   0.13654694
3610.00   9.07081032   0.13610594
3612.00   9.38199520   0.13787802
3614.00   9.19386101   0.13702583
3616.00   8.95627117   0.13512634
3618.00   9.03384686   0.13481803
3620.00   9.01442242   0.13360022
3622.00   8.65109539   0.13033080
3624.00   9.03580284   0.13231915
3626.00   8.80573940   0.13031411
3628.00   8.74861336   0.12933126
3630.00   8.77798843   0.12988339
3632.00   8.54885483   0.12805168
3634.00   8.69448471   0.12812376
3636.00   8.45489979   0.12578797
3638.00   8.56725597   0.12629955
3640.00   8.44339275   0.12496645
3642.00   8.55669785   0.12583907
3644.00   8.48717308   0.12488542
3646.00   8.55886745   0.12536007
3648.00   8.55064201   0.12801968
3650.00   8.33081055   0.13167469
3652.00   8.34213161   0.13089506
3654.00   8.46549892   0.12804058
3656.00   8.16846466   0.12424827
3658.00   8.01539326   0.12005990
3660.00   7.84262085   0.11756760
3662.00   7.87123966   0.11943210
3664.00   7.76023245   0.11888468
3666.00   7.54347467   0.11469393
3668.00   7.56701183   0.11250196
3670.00   7.34098053   0.11068241
3672.00   7.26450491   0.10959007
3674.00   7.04243851   0.10746822
3676.00   7.08561754   0.10726164
3678.00   7.30506039   0.10796294
3680.00   6.84228468   0.10585906
3682.00   6.75262737   0.10386817
3684.00   6.46238375   0.10118401
3686.00   6.23274231   0.09918148
3688.00   6.08008814   0.09785201
3690.00   6.04135036   0.09762888
3692.00   6.02432966   0.09706257
3694.00   5.93757248   0.09641789
3696.00   5.73002243   0.09468023
3698.00   5.90733957   0.09585649
3700.00   5.60437298   0.09385099
3702.00   5.59287691   0.09311052
3704.00   5.56364202   0.09284266
3706.00   5.16320753   0.08981668
3708.00   5.32414532   0.09005149
3710.00   5.31427383   0.09001637
3712.00   5.36112547   0.08985546
3714.00   5.46216011   0.09023473
3716.00   5.32754230   0.08959987
3718.00   5.28046179   0.08847988
3720.00   5.16339493   0.08770420
3722.00   5.11116838   0.08659174
3724.00   4.99849463   0.08559020
3726.00   4.99769735   0.08544419
3728.00   4.88466835   0.08475793
3730.00   4.90296555   0.08450851
3732.00   4.80080652   0.08361382
3734.00   4.71113968   0.08332130
3736.00   4.68368006   0.08253554
3738.00   4.62106895   0.08226129
3740.00   4.59189892   0.08197631
3742.00   4.45724726   0.08098029
3744.00   4.34758329   0.07946912
3746.00   4.32739401   0.07885051
3748.00   4.17592478   0.07756396
3750.00   4.34964371   0.07841232
3752.00   4.31465673   0.07827499
3754.00   4.41199923   0.07856915
3756.00   4.51169538   0.07917853
3758.00   4.51651430   0.07913496
3760.00   4.74142361   0.08005086
3762.00   4.66671324   0.07928023
3764.00   5.03939772   0.08203201
3766.00   5.67668104   0.09257523
3768.00   5.96643925   0.09817168
3770.00   6.03711033   0.10140651
3772.00   5.84913397   0.09491461
3774.00   5.58076143   0.08484558
3776.00   5.44444990   0.08332742
3778.00   5.53072977   0.08358034
3780.00   5.68612528   0.08458127
3782.00   6.00291300   0.08660410
3784.00   5.99050903   0.08637572
3786.00   6.06506586   0.08645027
3788.00   6.06358433   0.08630496
3790.00   6.04045057   0.08597425
3792.00   6.11915159   0.08637716
3794.00   6.15677500   0.08644602
3796.00   6.32418728   0.08741791
3798.00   6.20403862   0.08642880
3800.00   6.13802719   0.08572694
3802.00   6.07835579   0.08532093
3804.00   6.01863289   0.08466467
3806.00   5.88085461   0.08604202
3808.00   5.77862167   0.08578462
3810.00   5.91075945   0.08313801
3812.00   5.82321358   0.08262823
3814.00   5.80763197   0.08259650
3816.00   5.87029123   0.08303804
3818.00   5.92564487   0.08315478
3820.00   5.91318607   0.08283632
3822.00   6.07557964   0.08371446
3824.00   6.04850197   0.08326450
3826.00   6.00407600   0.08305021
3828.00   5.90805340   0.08258092
3830.00   6.02175522   0.08309618
3832.00   5.91312742   0.08240077
3834.00   5.86651325   0.08161525
3836.00   5.74224329   0.08042829
3838.00   5.74596405   0.08015116
3840.00   5.72703171   0.07969287
3842.00   5.74406767   0.07960676
3844.00   5.82551384   0.08004894
3846.00   5.97642517   0.08077305
3848.00   6.05409002   0.08108655
3850.00   6.05271387   0.08075664
3852.00   6.29683352   0.08165842
3854.00   6.27765226   0.08149939
3856.00   6.21176720   0.08097113
3858.00   6.31472349   0.08117169
3860.00   6.33439684   0.08115855
3862.00   6.36677170   0.08132683
3864.00   6.60572577   0.08270495
3866.00   6.71144056   0.08289830
3868.00   6.56866646   0.08171505
3870.00   6.76908398   0.08254299
3872.00   6.82347298   0.08286414
3874.00   6.77886724   0.08272769
3876.00   7.01939440   0.08388747
3878.00   7.01778698   0.08316696
3880.00   7.15317965   0.08364041
3882.00   7.19428635   0.08364949
3884.00   7.41209507   0.08486263
3886.00   7.73207045   0.08641071
3888.00   7.67400932   0.08608571
3890.00   7.99642801   0.08758490
3892.00   7.90897465   0.08712734
3894.00   8.09828281   0.08797092
3896.00   8.32836437   0.08912063
3898.00   8.30665302   0.08893384
3900.00   8.55453587   0.08981398
3902.00   8.70282745   0.09049033
3904.00   8.66843796   0.09039204
3906.00   8.93410969   0.09262216
3908.00   9.09078598   0.09402343
3910.00   8.94178677   0.09348097
3912.00   9.04424095   0.09372397
3914.00   9.13774300   0.09354412
3916.00   9.18318748   0.09270484
3918.00   9.14288998   0.09204427
3920.00   9.31304169   0.09226365
3922.00   9.23494434   0.09149116
3924.00   9.20724964   0.09118658
3926.00   9.08113003   0.09026504
3928.00   9.16911983   0.09042981
3930.00   9.21250820   0.09051472
3932.00   9.24273205   0.09101719
3934.00   9.08995819   0.09030547
3936.00   9.35556698   0.09066883
3938.00   9.52459049   0.09125499
3940.00   9.71621418   0.09215168
3942.00   9.74680519   0.09238020
3944.00   9.78473473   0.09270887
3946.00   10.06917858   0.09383055
3948.00   9.91147423   0.09264572
3950.00   10.25429344   0.09383947
3952.00   10.41493320   0.09410307
3954.00   10.40349770   0.09404432
3956.00   10.67294312   0.09489573
3958.00   10.81613255   0.09522056
3960.00   10.67001343   0.09508161
3962.00   11.00806141   0.09642451
3964.00   10.96681786   0.09572140
3966.00   10.94883728   0.09511009
3968.00   10.67918205   0.09394193
3970.00   10.89668941   0.09429936
3972.00   10.99406147   0.09450517
3974.00   10.67830372   0.09483565
3976.00   10.50418663   0.09210652
3978.00   10.73367023   0.09300770
3980.00   11.27064514   0.09513788
3982.00   11.28905106   0.09494391
3984.00   11.25845337   0.09488445
3986.00   11.31453419   0.09488252
3988.00   11.10619068   0.09392141
3990.00   10.91201591   0.09321723
3992.00   11.01814461   0.09336340
3994.00   10.73062611   0.09220909
3996.00   10.49903870   0.09159306
3998.00   10.42255306   0.09122118
4000.00   10.24347973   0.08982845
4002.00   10.11180210   0.08902984
4004.00   9.99916553   0.08821984
4006.00   9.68520737   0.08693380
4008.00   9.56263447   0.08629034
4010.00   9.24494553   0.08488250
4012.00   9.23858452   0.08495783
4014.00   9.33547783   0.08501437
4016.00   9.29862785   0.08466564
4018.00   9.15803337   0.08460382
4020.00   9.24044704   0.08585527
4022.00   9.31524754   0.08671671
4024.00   9.14197826   0.08583552
4026.00   9.04449463   0.08452895
4028.00   9.07493114   0.08391707
4030.00   8.99628544   0.08340205
4032.00   9.21447086   0.08414691
4034.00   9.20740986   0.08382923
4036.00   9.13938522   0.08314674
4038.00   9.01990700   0.08260886
4040.00   9.05263424   0.08261123
4042.00   9.06598186   0.08276700
4044.00   9.07299042   0.08662950
4046.00   9.03396988   0.09331577
4048.00   9.11024570   0.09319401
4050.00   8.99776936   0.08542281
4052.00   9.30107403   0.08376955
4054.00   9.25144577   0.08351915
4056.00   9.38640022   0.08370876
4058.00   9.45064545   0.08330864
4060.00   9.71282578   0.08392914
4062.00   9.56780815   0.08319861
4064.00   9.69314384   0.08354834
4066.00   9.59739685   0.08307809
4068.00   9.56192398   0.08289033
4070.00   9.68068504   0.08296584
4072.00   9.70495987   0.08269979
4074.00   9.73798847   0.08293213
4076.00   9.74982357   0.08396260
4078.00   9.97748852   0.08545792
4080.00   9.92867279   0.08483007
4082.00   10.11736870   0.08464541
4084.00   10.28861809   0.08508462
4086.00   10.21043015   0.08461159
4088.00   10.28696156   0.08435209
4090.00   10.32751846   0.08392510
4092.00   10.33787060   0.08363837
4094.00   10.51762486   0.08414064
4096.00   10.46952343   0.08389413
4098.00   10.58219624   0.08409941
4100.00   10.64167595   0.08409765
4102.00   10.39938831   0.08301658
4104.00   10.75694942   0.08399223
4106.00   10.51732635   0.08313779
4108.00   10.57342434   0.08325961
4110.00   10.57304668   0.08316172
4112.00   10.71591759   0.08352611
4114.00   10.58361435   0.08339117
4116.00   10.51602077   0.08481745
4118.00   10.70185566   0.08276022
4120.00   10.53821564   0.08206886
4122.00   10.61821175   0.08224731
4124.00   10.66358185   0.08231468
4126.00   10.61749172   0.08216240
4128.00   10.84547710   0.08281636
4130.00   10.93451023   0.08308580
4132.00   10.70241833   0.08254598
4134.00   10.57631588   0.08196229
4136.00   10.53532982   0.08132025
4138.00   10.51599216   0.08118127
4140.00   10.38133812   0.08066069
4142.00   10.25524330   0.07998654
4144.00   10.22784424   0.07924092
4146.00   10.22123337   0.07921405
4148.00   10.50156975   0.08001778
4150.00   10.15250778   0.07876032
4152.00   9.86341572   0.07795440
4154.00   10.00579262   0.07836325
4156.00   9.75517082   0.07710308
4158.00   9.85952568   0.07726070
4160.00   9.91407204   0.07733113
4162.00   9.85421562   0.07722314
4164.00   9.78337097   0.07741536
4166.00   9.65173817   0.07701463
4168.00   9.73152065   0.07662500
4170.00   9.61648846   0.07585240
4172.00   9.58406258   0.07548890
4174.00   9.52875137   0.07503206
4176.00   9.48835850   0.07476792
4178.00   9.36959934   0.07425848
4180.00   9.50147724   0.07464807
4182.00   9.37605095   0.07389103
4184.00   9.33360291   0.07360866
4186.00   9.50560474   0.07409388
4188.00   9.24730778   0.07305844
4190.00   9.35590839   0.07324444
4192.00   9.20443058   0.07268756
4194.00   9.27029037   0.07288127
4196.00   9.24848747   0.07262222
4198.00   9.20432472   0.07225361
4200.00   9.30056477   0.07247420
4202.00   9.42545033   0.07286623
4204.00   9.48109722   0.07303449
4206.00   9.40554523   0.07271583
4208.00   9.21804523   0.07217135
4210.00   9.22461700   0.07216654
4212.00   9.22621536   0.07200767
4214.00   9.00233936   0.07102568
4216.00   9.08383942   0.07121363
4218.00   9.17771339   0.07144635
4220.00   8.89329433   0.07022742
4222.00   8.90215111   0.07018069
4224.00   8.89419651   0.07004239
4226.00   8.77663803   0.06939496
4228.00   8.73894691   0.06925330
4230.00   8.64134789   0.06892239
4232.00   8.67157555   0.06901580
4234.00   8.51289558   0.06842650
4236.00   8.48185921   0.06831466
4238.00   8.41091728   0.06809038
4240.00   8.35944271   0.06759328
4242.00   8.27610111   0.06694000
4244.00   8.15193844   0.06683125
4246.00   8.15265465   0.06776014
4248.00   7.84220219   0.06673466
4250.00   8.04584122   0.06612477
4252.00   7.87360811   0.06510869
4254.00   7.90394449   0.06506094
4256.00   7.89747143   0.06502292
4258.00   7.76178169   0.06449588
4260.00   7.81632805   0.06445571
4262.00   7.63439131   0.06360260
4264.00   7.76207209   0.06398541
4266.00   7.59285498   0.06335463
4268.00   7.61324739   0.06329615
4270.00   7.48670053   0.06264393
4272.00   7.55896521   0.06288464
4274.00   7.48414373   0.06250460
4276.00   7.54882002   0.06273910
4278.00   7.33778954   0.06192587
4280.00   7.32433367   0.06186038
4282.00   7.24930096   0.06148579
4284.00   7.28918791   0.06153200
4286.00   7.32856560   0.06159803
4288.00   7.19899130   0.06097449
4290.00   7.10020828   0.06052108
4292.00   7.17588425   0.06086119
4294.00   7.07228184   0.06045485
4296.00   7.07659101   0.06031926
4298.00   6.93840742   0.05973257
4300.00   6.97242451   0.05975337
4302.00   6.98589182   0.05962897
4304.00   6.89802980   0.05931953
4306.00   6.82886410   0.05914073
4308.00   6.78304958   0.05901524
4310.00   6.69442844   0.05861104
4312.00   6.79011774   0.05951513
4314.00   6.64176607   0.05940970
4316.00   6.62909460   0.05896305
4318.00   6.64674377   0.05850219
4320.00   6.67907763   0.05892948
4322.00   6.59127760   0.05868161
4324.00   6.65701103   0.05866562
4326.00   6.59354734   0.05825507
4328.00   6.53665543   0.05762274
4330.00   6.33868599   0.05655296
4332.00   6.34038734   0.05644392
4334.00   6.40943480   0.05678231
4336.00   6.23198748   0.05624033
4338.00   6.18133163   0.05614557
4340.00   6.08137751   0.05583674
4342.00   6.23940372   0.05630219
4344.00   6.12239885   0.05591866
4346.00   6.21660805   0.05661425
4348.00   6.19680786   0.05676009
4350.00   6.34510851   0.05695988
4352.00   6.32036018   0.05667418
4354.00   6.40019894   0.05748348
4356.00   6.65314531   0.06716997
4358.00   6.78132582   0.07557673
4360.00   6.56525517   0.07222695
4362.00   6.55708981   0.06198443
4364.00   6.79474115   0.05925278
4366.00   6.88689423   0.05893233
4368.00   6.92561483   0.05878961
4370.00   6.82060242   0.05819461
4372.00   6.78964329   0.05819109
4374.00   6.87905455   0.05871392
4376.00   6.79507208   0.05833863
4378.00   7.02728891   0.05857859
4380.00   7.04689455   0.05837511
4382.00   6.97817326   0.05799380
4384.00   6.96341658   0.05774888
4386.00   7.34698772   0.05908024
4388.00   7.67855024   0.06266546
4390.00   7.76969767   0.06294430
4392.00   7.28736448   0.05932817
4394.00   7.20078182   0.05835914
4396.00   7.30864239   0.05861245
4398.00   7.32278872   0.05890802
4400.00   7.27440786   0.05898567
4402.00   7.44103861   0.05958404
4404.00   7.67089272   0.05995890
4406.00   7.56775141   0.06028617
4408.00   7.64838600   0.06005358
4410.00   7.63033199   0.05980358
4412.00   7.70624733   0.06007896
4414.00   7.73692131   0.06030503
4416.00   7.52240944   0.05962449
4418.00   7.44606876   0.05911694
4420.00   7.54856777   0.05929298
4422.00   7.39528608   0.05862850
4424.00   7.45289469   0.05872612
4426.00   7.32551670   0.05828014
4428.00   7.35533333   0.05835386
4430.00   7.20244551   0.05781759
4432.00   7.15431309   0.05754676
4434.00   7.16192341   0.05742908
4436.00   7.12812805   0.05724853
4438.00   7.03549051   0.05697079
4440.00   7.01766682   0.05697396
4442.00   6.93944883   0.05655963
4444.00   6.89006996   0.05639501
4446.00   6.87879276   0.05624253
4448.00   6.88397884   0.05619799
4450.00   6.83130932   0.05604324
4452.00   6.75898314   0.05568145
4454.00   6.71483040   0.05551448
4456.00   6.69768667   0.05541583
4458.00   6.79983568   0.05570851
4460.00   6.74286509   0.05559194
4462.00   6.76597118   0.05558596
4464.00   6.67834234   0.05517787
4466.00   6.75289392   0.05547361
4468.00   6.94814777   0.05609248
4470.00   6.95192862   0.05603648
4472.00   7.02783680   0.05630862
4474.00   6.96094322   0.05604897
4476.00   6.96669865   0.05601340
4478.00   7.05986595   0.05633752
4480.00   7.01004601   0.05615730
4482.00   7.11740351   0.05648289
4484.00   7.24351025   0.05689006
4486.00   7.23856974   0.05685340
4488.00   7.44696522   0.05764126
4490.00   7.54770470   0.05879050
4492.00   7.56807089   0.06204769
4494.00   7.51564550   0.05778825
4496.00   7.64459467   0.05827492
4498.00   7.67723370   0.05843738
4500.00   7.85351610   0.05892062
4502.00   7.84629488   0.05876484
4504.00   7.71566963   0.05828263
4506.00   7.82980108   0.05860167
4508.00   7.90936947   0.05876637
4510.00   7.87915134   0.05855427
4512.00   7.96668053   0.05887424
4514.00   7.94979906   0.05872198
4516.00   7.91028118   0.05852185
4518.00   7.95734644   0.05868328
4520.00   8.08028316   0.05907502
4522.00   7.93821621   0.05862498
4524.00   8.06052780   0.05890267
4526.00   8.15566063   0.05911043
4528.00   8.10648346   0.05895241
4530.00   8.04393196   0.05865332
4532.00   8.04802036   0.05868059
4534.00   8.21150970   0.05919749
4536.00   8.16803074   0.05903295
4538.00   8.17343807   0.05905369
4540.00   8.23212051   0.05916969
4542.00   8.19135952   0.05902049
4544.00   8.21929073   0.05922684
4546.00   8.30253029   0.05941859
4548.00   8.27039909   0.05918327
4550.00   8.30848408   0.05918880
4552.00   8.39379025   0.05942693
4554.00   8.39235020   0.05938946
4556.00   8.22032642   0.05898154
4558.00   8.33759403   0.05924793
4560.00   8.46839809   0.05950400
4562.00   8.31171703   0.05893347
4564.00   8.26081944   0.05873823
4566.00   8.32977104   0.05886089
4568.00   8.20823860   0.05847935
4570.00   8.19329071   0.05841355
4572.00   8.16548061   0.05837981
4574.00   8.06345844   0.05803394
4576.00   7.95488596   0.05764131
4578.00   7.89245892   0.05733207
4580.00   7.98493385   0.05756613
4582.00   8.03894615   0.05762115
4584.00   7.96177292   0.05728383
4586.00   7.92751408   0.05722677
4588.00   7.95188618   0.05733716
4590.00   7.95087671   0.05735176
4592.00   7.99747849   0.05744765
4594.00   8.03712749   0.05752310
4596.00   7.99986362   0.05746133
4598.00   7.98822880   0.05730323
4600.00   7.87984180   0.05686544
4602.00   7.88141441   0.05684258
4604.00   7.90363073   0.05696266
4606.00   7.89211321   0.05684695
4608.00   7.80746365   0.05658918
4610.00   7.90796137   0.05695723
4612.00   7.91927433   0.05688076
4614.00   7.96844816   0.05692646
4616.00   7.87560749   0.05659208
4618.00   8.00623417   0.05692540
4620.00   7.88960361   0.05650489
4622.00   7.84796667   0.05634687
4624.00   7.94172955   0.05670250
4626.00   7.92036629   0.05662095
4628.00   7.88323116   0.05646208
4630.00   7.89870691   0.05643279
4632.00   7.85087538   0.05626136
4634.00   7.89674807   0.05636364
4636.00   8.01487064   0.05664404
4638.00   8.01391411   0.05662137
4640.00   7.92708731   0.05809252
4642.00   7.87044001   0.05740510
4644.00   7.97875977   0.05641255
4646.00   8.02126503   0.05675474
4648.00   8.07301617   0.05668811
4650.00   7.90410376   0.05620499
4652.00   7.98358393   0.05644515
4654.00   8.02707767   0.05661170
4656.00   8.01292706   0.05653407
4658.00   8.07717323   0.05680006
4660.00   8.00158596   0.05661727
4662.00   7.91059303   0.05636526
4664.00   7.85104609   0.05626720
4666.00   8.00736904   0.05686235
4668.00   7.80208778   0.05627823
4670.00   7.70363379   0.05603736
4672.00   7.56230402   0.05552800
4674.00   7.47209358   0.05501205
4676.00   7.49054098   0.05490118
4678.00   7.28316593   0.05402761
4680.00   7.24422073   0.05375044
4682.00   7.07885313   0.05312625
4684.00   7.01888990   0.05282360
4686.00   7.00627851   0.05266343
4688.00   7.00330496   0.05255840
4690.00   6.90882540   0.05219202
4692.00   6.82844687   0.05189380
4694.00   6.78504515   0.05173771
4696.00   6.62513590   0.05108042
4698.00   6.80624151   0.05159617
4700.00   6.62170696   0.05086974
4702.00   6.60976553   0.05094621
4704.00   6.65354156   0.05103452
4706.00   6.76277208   0.05153601
4708.00   6.65377331   0.05116670
4710.00   6.75711155   0.05151399
4712.00   6.68854761   0.05120542
4714.00   6.72383070   0.05115490
4716.00   6.58003139   0.05059297
4718.00   6.64476395   0.05077545
4720.00   6.53033400   0.05036008
4722.00   6.52393389   0.05027497
4724.00   6.73461914   0.05091488
4726.00   6.69047070   0.05103928
4728.00   6.77959013   0.05169269
4730.00   6.85899448   0.05201916
4732.00   6.82185936   0.05179888
4734.00   6.85704756   0.05207280
4736.00   6.85267019   0.05217249
4738.00   7.01871681   0.05281199
4740.00   6.94658995   0.05275711
4742.00   6.94449282   0.05294795
4744.00   6.90500736   0.05259319
4746.00   6.95879936   0.05223783
4748.00   6.80701065   0.05120702
4750.00   6.86090422   0.05120206
4752.00   6.79442787   0.05127071
4754.00   6.80081367   0.05115118
4756.00   6.82261086   0.05094534
4758.00   6.75732470   0.05044220
4760.00   6.67585659   0.05009229
4762.00   6.70822477   0.05015459
4764.00   6.74101734   0.05017736
4766.00   6.65887785   0.04985465
4768.00   6.61481285   0.04968415
4770.00   6.52258062   0.04929727
4772.00   6.46106052   0.04902868
4774.00   6.34351873   0.04868365
4776.00   6.35511827   0.04879596
4778.00   6.31941748   0.04882380
4780.00   6.19468927   0.04838271
4782.00   6.12617016   0.04796705
4784.00   6.11102915   0.04770524
4786.00   6.07825375   0.04759192
4788.00   6.10404158   0.04764602
4790.00   6.05858469   0.04749259
4792.00   6.07835436   0.04758953
4794.00   6.03813648   0.04733014
4796.00   6.06373453   0.04731531
4798.00   6.06519842   0.04729393
4800.00   6.20859337   0.04777361
4802.00   6.20003939   0.04769125
4804.00   6.09934330   0.04736088
4806.00   6.22864866   0.04774455
4808.00   6.32799911   0.04818560
4810.00   6.27660990   0.04792762
4812.00   6.35760927   0.04815747
4814.00   6.35445118   0.04812387
4816.00   6.44685411   0.04837850
4818.00   6.43036509   0.04825444
4820.00   6.44102812   0.04839002
4822.00   6.42457247   0.04847067
4824.00   6.58948326   0.04896927
4826.00   6.63916636   0.04915818
4828.00   6.72938967   0.04940160
4830.00   6.73613453   0.04935811
4832.00   6.74230623   0.04936385
4834.00   6.77043533   0.04940033
4836.00   6.62326813   0.04893945
4838.00   6.58548069   0.04883523
4840.00   6.69474745   0.04931984
4842.00   6.58817863   0.04879650
4844.00   6.59320021   0.04858070
4846.00   6.74488354   0.04911061
4848.00   6.57018518   0.04854815
4850.00   6.57148361   0.04856094
4852.00   6.41603231   0.04804051
4854.00   6.37790632   0.04773685
4856.00   6.39788389   0.04776200
4858.00   6.27556658   0.04720633
4860.00   6.20717621   0.04706783
4862.00   6.18638992   0.04690336
4864.00   6.15164709   0.04691284
4866.00   6.12696171   0.04672845
4868.00   6.02562428   0.04631144
4870.00   5.94727278   0.04598032
4872.00   5.85625172   0.04570237
4874.00   5.80413055   0.04541417
4876.00   5.58101654   0.04461305
4878.00   5.58545065   0.04470072
4880.00   5.44375515   0.04424835
4882.00   5.35377359   0.04381227
4884.00   5.33089828   0.04362280
4886.00   5.23072147   0.04309779
4888.00   5.22404861   0.04349595
4890.00   5.16892099   0.04285589
4892.00   5.06385756   0.04246513
4894.00   4.99933338   0.04224218
4896.00   5.00990677   0.04212990
4898.00   4.94402218   0.04187020
4900.00   4.85064650   0.04139304
4902.00   4.74442577   0.04100261
4904.00   4.76766348   0.04113877
4906.00   4.74247980   0.04100828
4908.00   4.65316343   0.04066463
4910.00   4.79663515   0.04140540
4912.00   5.31244755   0.04451839
4914.00   5.48560429   0.05295287
4916.00   5.40997410   0.05373802
4918.00   5.17245770   0.04973768
4920.00   5.06899071   0.04346158
4922.00   4.86362505   0.04120534
4924.00   4.79461241   0.04091809
4926.00   4.76100922   0.04072748
4928.00   4.90636778   0.04119707
4930.00   4.79051447   0.04077801
4932.00   4.81167650   0.04088096
4934.00   4.84400129   0.04104091
4936.00   4.86426783   0.04109778
4938.00   4.85786438   0.04103177
4940.00   4.86271048   0.04106361
4942.00   4.86359644   0.04101066
4944.00   4.94282913   0.04127934
4946.00   4.94493294   0.04120073
4948.00   4.90268373   0.04105591
4950.00   5.02595758   0.04160115
4952.00   5.02669191   0.04175305
4954.00   4.93292952   0.04143588
4956.00   4.94204521   0.04133152
4958.00   5.02677679   0.04156347
4960.00   5.02293777   0.04156065
4962.00   5.07113552   0.04176917
4964.00   5.00506639   0.04161309
4966.00   5.05950737   0.04190867
4968.00   5.00502682   0.04185139
4970.00   5.13303852   0.04233334
4972.00   5.09281492   0.04244008
4974.00   5.03360271   0.04250222
4976.00   5.07328176   0.04291250
4978.00   5.09831095   0.04344678
4980.00   5.22126484   0.04432605
4982.00   5.13777208   0.04443194
4984.00   5.10258484   0.04434950
4986.00   5.07774448   0.04391110
4988.00   5.16535473   0.04377678
4990.00   5.09148121   0.04310425
4992.00   5.08756495   0.04292424
4994.00   5.06664085   0.04250646
4996.00   5.08869553   0.04229827
4998.00   5.12516260   0.04221630
5000.00   5.08461523   0.04196991
5002.00   5.06988621   0.04181806
5004.00   5.08208656   0.04181937
5006.00   5.09765339   0.04181887
5008.00   5.19372082   0.04206721
5010.00   5.05225658   0.04163419
5012.00   5.02232838   0.04172430
5014.00   5.13975382   0.04219848
5016.00   5.09076834   0.04196264
5018.00   5.12332630   0.04196923
5020.00   4.99294424   0.04158227
5022.00   5.03088188   0.04157197
5024.00   5.02639866   0.04138040
5026.00   4.98266411   0.04121720
5028.00   5.05306339   0.04158676
5030.00   5.10871601   0.04191339
5032.00   5.17620850   0.04217714
5034.00   5.10724449   0.04177249
5036.00   5.13276911   0.04177400
5038.00   5.12211800   0.04167138
5040.00   5.19472694   0.04190579
5042.00   5.19390965   0.04193198
5044.00   5.25267744   0.04221659
5046.00   5.20923328   0.04214999
5048.00   5.21409988   0.04209341
5050.00   5.19160557   0.04200372
5052.00   5.23016739   0.04214437
5054.00   5.27205420   0.04232602
5056.00   5.24668694   0.04227084
5058.00   5.43515587   0.04311988
5060.00   5.44984531   0.04396404
5062.00   5.49984550   0.04624224
5064.00   5.52214956   0.04609179
5066.00   5.50887918   0.04390030
5068.00   5.36663389   0.04353363
5070.00   5.35813141   0.04356824
5072.00   5.37938499   0.04332056
5074.00   5.42159224   0.04332216
5076.00   5.36629248   0.04313819
5078.00   5.44421959   0.04348337
5080.00   5.49809027   0.04430253
5082.00   5.47846746   0.04509627
5084.00   5.53779125   0.04588506
5086.00   5.64021730   0.04619567
5088.00   5.55084944   0.04544900
5090.00   5.53842974   0.04465654
5092.00   5.61698627   0.04438378
5094.00   5.58700848   0.04412662
5096.00   5.58697271   0.04426314
5098.00   5.57110882   0.04457493
5100.00   5.64449167   0.04500654
5102.00   5.72825623   0.04504611
5104.00   5.62755775   0.04431231
5106.00   5.68221664   0.04438591
5108.00   5.60384178   0.04416884
5110.00   5.79460049   0.04490824
5112.00   5.73034334   0.04467033
5114.00   5.79775381   0.04498489
5116.00   5.84950924   0.04525358
5118.00   5.83456707   0.04515429
5120.00   5.80463839   0.04493330
5122.00   5.78402662   0.04483161
5124.00   5.82325077   0.04500140
5126.00   5.83680582   0.04511717
5128.00   6.04264927   0.04583174
5130.00   5.99542618   0.04569472
5132.00   5.86196375   0.04538700
5134.00   5.98528671   0.04577580
5136.00   5.97964478   0.04582592
5138.00   6.05765629   0.04612508
5140.00   6.12778997   0.04644395
5142.00   6.16672707   0.04658519
5144.00   6.10304546   0.04652213
5146.00   6.14773989   0.04683534
5148.00   6.17923355   0.04720670
5150.00   6.15056133   0.04739616
5152.00   6.16267681   0.04761630
5154.00   6.13107538   0.04773596
5156.00   6.01212168   0.04723514
5158.00   6.07719088   0.04720543
5160.00   6.12783384   0.04727459
5162.00   6.05552769   0.04693047
5164.00   6.02560043   0.04674326
5166.00   5.97412968   0.04666319
5168.00   6.05139446   0.04686964
5170.00   5.94907045   0.04664747
5172.00   5.99230242   0.04679231
5174.00   5.96351862   0.04680255
5176.00   5.96064854   0.04688836
5178.00   5.94449472   0.04691152
5180.00   5.94174290   0.04690905
5182.00   5.86069775   0.04666901
5184.00   5.79936266   0.04643107
5186.00   5.80699444   0.04667414
5188.00   5.87713814   0.04703301
5190.00   5.89342642   0.04726794
5192.00   5.84231520   0.04705262
5194.00   5.78576136   0.04687937
5196.00   5.85730124   0.04729715
5198.00   5.76218128   0.04705443
5200.00   5.90491152   0.04770090
5202.00   5.86430550   0.04766312
5204.00   5.82041597   0.04778395
5206.00   5.87306356   0.04783621
5208.00   5.94023466   0.04813062
5210.00   5.90125513   0.04817085
5212.00   5.91968679   0.04823981
5214.00   5.98742294   0.04852178
5216.00   6.00714684   0.04866623
5218.00   6.05428267   0.04899754
5220.00   6.05296612   0.04915073
5222.00   6.05012369   0.04905131
5224.00   5.97789049   0.04875312
5226.00   5.97759295   0.04875978
5228.00   5.90287113   0.04860381
5230.00   5.93939877   0.04884186
5232.00   6.03701544   0.04932223
5234.00   6.13059092   0.04964747
5236.00   6.18261051   0.05001309
5238.00   6.10816002   0.04989587
5240.00   6.05277824   0.04978278
5242.00   6.15970707   0.05013021
5244.00   6.14956808   0.05018982
5246.00   6.19030523   0.05045502
5248.00   6.08033276   0.05005867
5250.00   6.14028978   0.05044939
5252.00   6.12198973   0.05054532
5254.00   6.09233236   0.05058759
5256.00   6.09901571   0.05093967
5258.00   6.25063515   0.05161455
5260.00   6.04304600   0.05089496
5262.00   6.03115511   0.05076954
5264.00   5.89665127   0.05025044
5266.00   5.87745523   0.05017210
5268.00   5.74458933   0.04972141
5270.00   5.76262093   0.04994326
5272.00   5.57513428   0.04942561
5274.00   5.55314541   0.04948050
5276.00   5.48323345   0.04939095
5278.00   5.46467781   0.04928793
5280.00   5.44066763   0.04932827
5282.00   5.40537310   0.04920266
5284.00   5.26976299   0.04894304
5286.00   5.22563648   0.04894596
5288.00   5.13633871   0.04856278
5290.00   5.15942764   0.04875065
5292.00   5.04503965   0.04830809
5294.00   5.04055071   0.04850251
5296.00   4.98696470   0.04836705
5298.00   4.96045160   0.04843052
5300.00   4.94160557   0.04850397
5302.00   4.88118172   0.04829276
5304.00   4.84356260   0.04825423
5306.00   4.74619436   0.04787291
5308.00   4.72878456   0.04786335
5310.00   4.74059486   0.04805154
5312.00   4.80978823   0.04861079
5314.00   4.72618628   0.04828158
5316.00   4.75198126   0.04844858
5318.00   4.77484179   0.04868971
5320.00   4.80686331   0.04888953
5322.00   4.69952250   0.04855920
5324.00   4.64051962   0.04839882
5326.00   4.62283373   0.04845333
5328.00   4.65098572   0.04875940
5330.00   4.68266964   0.04910666
5332.00   4.73036003   0.04945628
5334.00   4.80763817   0.05001379
5336.00   4.86639595   0.05038643
5338.00   4.77819443   0.05014751
5340.00   4.87393570   0.05075211
5342.00   4.87971687   0.05109165
5344.00   4.86439848   0.05105015
5346.00   4.87681055   0.05124789
5348.00   4.85943937   0.05163712
5350.00   4.87837362   0.05196781
5352.00   4.90846205   0.05214080
5354.00   4.84653950   0.05222777
5356.00   4.69366455   0.05163652
5358.00   4.72986460   0.05174935
5360.00   4.83545399   0.05210483
5362.00   4.83000755   0.05203969
5364.00   4.79291248   0.05192195
5366.00   4.79456615   0.05202325
5368.00   4.89529467   0.05269350
5370.00   4.98470163   0.05326657
5372.00   4.97667122   0.05342254
5374.00   4.93651867   0.05355388
5376.00   5.09074116   0.05451615
5378.00   5.19356251   0.05507313
5380.00   5.07263422   0.05454008
5382.00   5.10731840   0.05480716
5384.00   5.15203571   0.05505379
5386.00   5.05379725   0.05494079
5388.00   5.04514694   0.05512666
5390.00   5.15240717   0.05592331
5392.00   5.16243982   0.05636330
5394.00   5.17431211   0.05663420
5396.00   5.07058859   0.05606445
5398.00   5.02400398   0.05603166
5400.00   5.04227448   0.05629431
5402.00   5.04653025   0.05631165
5404.00   5.05551767   0.05666021
5406.00   5.16755247   0.05736223
5408.00   5.08574772   0.05728308
5410.00   4.97470284   0.05708317
5412.00   5.11031866   0.05814510
5414.00   5.04114866   0.05811040
5416.00   5.04859829   0.05856289
5418.00   5.15974236   0.05931883
5420.00   5.05869579   0.05899345
5422.00   5.05428743   0.05929430
5424.00   5.06833172   0.05936291
5426.00   5.11336803   0.05970887
5428.00   5.07135153   0.05951826
5430.00   5.07062340   0.05957838
5432.00   5.17214060   0.06026128
5434.00   5.12757969   0.06024698
5436.00   5.13845158   0.06057212
5438.00   5.09641695   0.06041818
5440.00   5.10599232   0.02436508
5442.00   5.07904148   0.02326803
5444.00   5.02049541   0.02157296
5446.00   4.98201275   0.02091945
5448.00   4.95207739   0.02125513
5450.00   4.91926241   0.02154627
5452.00   4.87977695   0.02149587
5454.00   4.84014034   0.02161782
5456.00   4.81002760   0.02263664
5458.00   4.78954506   0.02452061
5460.00   4.75648499   0.02529722
5462.00   4.70902824   0.02581378
5464.00   4.67387581   0.02560472
5466.00   4.65939093   0.02385203
5468.00   4.64145088   0.02229583
5470.00   4.59317684   0.02347062
5472.00   4.52180910   0.02648306
5474.00   4.49033451   0.02602751
5476.00   4.49998617   0.02146392
5478.00   4.47991657   0.01994682
5480.00   4.42668390   0.02146026
5482.00   4.38300657   0.02349417
5484.00   4.37892771   0.02566270
5486.00   4.39522982   0.02793787
5488.00   4.37037754   0.02697196
5490.00   4.29820395   0.02061119
5492.00   4.27235556   0.01865803
5494.00   4.27575922   0.02050219
5496.00   4.28494883   0.02227432
5498.00   4.29721212   0.02352946
5500.00   4.31276798   0.02453005
5502.00   4.31942368   0.02416014
5504.00   4.31882858   0.02188801
5506.00   4.32346201   0.02150705
5508.00   4.33444595   0.02287038
5510.00   4.33747816   0.02319550
5512.00   4.30838299   0.02143645
5514.00   4.29514170   0.01964072
5516.00   4.37633514   0.02122865
5518.00   4.54726553   0.02511549
5520.00   4.62310600   0.02666968
5522.00   4.64279699   0.02760579
5524.00   4.66887760   0.02792769
5526.00   4.70073938   0.02763936
5528.00   4.72130966   0.02678051
5530.00   4.71622562   0.02512484
5532.00   4.69060040   0.02248473
5534.00   4.68365955   0.02094660
5536.00   4.66313314   0.02006984
5538.00   4.69042063   0.01949768
5540.00   4.77249336   0.01892803
5542.00   4.85691690   0.01947151
5544.00   4.92997265   0.02205411
5546.00   4.99650431   0.02532910
5548.00   5.01230764   0.02635947
5550.00   4.94778681   0.02645403
5552.00   4.95844936   0.02566500
5554.00   5.01563168   0.02267112
5556.00   5.07152319   0.02056997
5558.00   5.12089920   0.02096690
5560.00   5.16665316   0.02221304
5562.00   5.19630718   0.02194069
5564.00   5.21150827   0.02036529
5566.00   5.22730160   0.02071057
5568.00   5.23264885   0.02267576
5570.00   5.24641418   0.02398672
5572.00   5.27660894   0.02488344
5574.00   5.30451393   0.02534064
5576.00   5.30912733   0.02495744
5578.00   5.29833746   0.02372486
5580.00   5.28275871   0.02292812
5582.00   5.24742222   0.02212456
5584.00   5.22830677   0.02139716
5586.00   5.22618914   0.02070384
5588.00   5.22561741   0.02013756
5590.00   5.21919060   0.01980645
5592.00   5.21083164   0.01967500
5594.00   5.18892431   0.01948738
5596.00   5.14291811   0.01919750
5598.00   5.12067223   0.01925245
5600.00   5.11980772   0.01962164
5602.00   5.11573935   0.02008431
5604.00   5.09447479   0.02077952
5606.00   5.06910133   0.02146945
5608.00   5.07069588   0.02111750
5610.00   5.10179996   0.01938004
5612.00   5.11058187   0.01877733
5614.00   5.11042786   0.01876704
5616.00   5.10738897   0.01890490
5618.00   5.09924078   0.01921987
5620.00   5.09036160   0.01962106
5622.00   5.08964682   0.01985546
5624.00   5.08970881   0.02011484
5626.00   5.11047173   0.01995042
5628.00   5.16387606   0.01892894
5630.00   5.19512844   0.01874139
5632.00   5.20609188   0.01933217
5634.00   5.20317125   0.02049289
5636.00   5.18200731   0.02246888
5638.00   5.13871241   0.02523102
5640.00   5.13767767   0.02550933
5642.00   5.17188692   0.02374874
5644.00   5.19581366   0.02227874
5646.00   5.22019148   0.02022747
5648.00   5.23956203   0.01849922
5650.00   5.25021267   0.01797060
5652.00   5.25409079   0.01832545
5654.00   5.24800491   0.01909399
5656.00   5.21937513   0.02129711
5658.00   5.21388721   0.02177333
5660.00   5.21813154   0.02097080
5662.00   5.23514557   0.02017401
5664.00   5.27397823   0.01973695
5666.00   5.32202530   0.01942052
5668.00   5.34219646   0.01926784
5670.00   5.33745909   0.01902694
5672.00   5.35265827   0.01966750
5674.00   5.39950705   0.02137527
5676.00   5.40485096   0.02251550
5678.00   5.34116316   0.02316437
5680.00   5.26256943   0.02339475
5682.00   5.24034977   0.02288714
5684.00   5.25296879   0.02143788
5686.00   5.24929714   0.02084354
5688.00   5.24251223   0.02046606
5690.00   5.24226093   0.02062215
5692.00   5.25608253   0.02180557
5694.00   5.26420593   0.02272795
5696.00   5.24526453   0.02231450
5698.00   5.20661497   0.02098041
5700.00   5.19873476   0.02018327
5702.00   5.20989561   0.01902838
5704.00   5.22297478   0.01884754
5706.00   5.25101566   0.01958804
5708.00   5.27021980   0.02068309
5710.00   5.26280260   0.02231032
5712.00   5.24211884   0.02408410
5714.00   5.24888182   0.02378978
5716.00   5.28261042   0.02090432
5718.00   5.29535770   0.01969887
5720.00   5.30287409   0.01925519
5722.00   5.30020285   0.01903039
5724.00   5.28198767   0.01905273
5726.00   5.25625610   0.01920816
5728.00   5.23962355   0.01894625
5730.00   5.22106266   0.01830672
5732.00   5.22092295   0.01802155
5734.00   5.24668550   0.01756032
5736.00   5.25787592   0.01784817
5738.00   5.25811768   0.01914036
5740.00   5.24359131   0.02064744
5742.00   5.19747925   0.02188077
5744.00   5.11557484   0.02338902
5746.00   5.08501625   0.02278033
5748.00   5.08803606   0.01897274
5750.00   5.09190750   0.01705401
5752.00   5.11076832   0.01760456
5754.00   5.12290525   0.01850756
5756.00   5.10947084   0.01856353
5758.00   5.07962942   0.01838971
5760.00   5.05109644   0.01829886
5762.00   5.01603365   0.01811159
5764.00   4.98015499   0.01806108
5766.00   4.93628979   0.01819036
5768.00   4.89957190   0.01824395
5770.00   4.88024330   0.01809781
5772.00   4.86889172   0.01785076
5774.00   4.84012413   0.01768043
5776.00   4.78395939   0.01722084
5778.00   4.77012491   0.01755709
5780.00   4.79336739   0.01854917
5782.00   4.80992460   0.01955757
5784.00   4.81963491   0.02085168
5786.00   4.81942272   0.02189406
5788.00   4.78728008   0.02149148
5790.00   4.71927452   0.01946276
5792.00   4.68013048   0.01894226
5794.00   4.65243149   0.01952589
5796.00   4.62764931   0.01968006
5798.00   4.60460138   0.01944603
5800.00   4.58727598   0.01900392
5802.00   4.58038759   0.01829884
5804.00   4.58338547   0.01720585
5806.00   4.58051443   0.01683122
5808.00   4.58200836   0.01701738
5810.00   4.57194662   0.01722906
5812.00   4.54145002   0.01776559
5814.00   4.51917171   0.01811176
5816.00   4.52151823   0.01782543
5818.00   4.53962135   0.01715345
5820.00   4.57170820   0.01720727
5822.00   4.64879227   0.01806664
5824.00   4.66994953   0.01816414
5826.00   4.63620663   0.01765641
5828.00   4.61569548   0.01723684
5830.00   4.63557196   0.01693645
5832.00   4.67002487   0.01686510
5834.00   4.68069506   0.01789381
5836.00   4.69006205   0.02045750
5838.00   4.66665173   0.02094086
5840.00   4.57337093   0.01944960
5842.00   4.54410172   0.01912634
5844.00   4.62438536   0.02117500
5846.00   4.72863770   0.02317455
5848.00   4.74315023   0.02251576
5850.00   4.69971609   0.01950370
5852.00   4.68878174   0.01819458
5854.00   4.68784332   0.01764068
5856.00   4.67783213   0.01726098
5858.00   4.64957380   0.01725450
5860.00   4.62848568   0.01737278
5862.00   4.63977337   0.01727596
5864.00   4.67419958   0.01707686
5866.00   4.69148207   0.01747432
5868.00   4.70273447   0.01843774
5870.00   4.71572256   0.01919682
5872.00   4.73064375   0.02031264
5874.00   4.74295950   0.02078390
5876.00   4.75417519   0.01965475
5878.00   4.76216316   0.01750461
5880.00   4.74519491   0.01789408
5882.00   4.69677019   0.01990275
5884.00   4.66499233   0.02204910
5886.00   4.61859131   0.02582181
5888.00   4.60561514   0.02767983
5890.00   4.66507006   0.02651495
5892.00   4.74235725   0.02409399
5894.00   4.71441841   0.02421526
5896.00   4.58254051   0.02606062
5898.00   4.54822540   0.02688920
5900.00   4.55201292   0.02861353
5902.00   4.58678293   0.02816896
5904.00   4.67533207   0.02380809
5906.00   4.77212667   0.01769029
5908.00   4.81318712   0.01581790
5910.00   4.82163525   0.01763851
5912.00   4.82845592   0.01756143
5914.00   4.81626511   0.01727705
5916.00   4.80790806   0.01714795
5918.00   4.79833031   0.01691704
5920.00   4.79172039   0.01707157
5922.00   4.79022789   0.01817758
5924.00   4.79225111   0.01987199
5926.00   4.81523609   0.02046163
5928.00   4.85710812   0.02072640
5930.00   4.90517235   0.02026707
5932.00   4.97758055   0.01842144
5934.00   5.03498173   0.01687090
5936.00   5.06018066   0.01675745
5938.00   5.06519556   0.01737553
5940.00   5.06077623   0.01746538
5942.00   5.03250504   0.01750736
5944.00   5.01739740   0.01744035
5946.00   5.00805235   0.01714421
5948.00   4.99439096   0.01700037
5950.00   4.97542334   0.01699184
5952.00   4.95192051   0.01719090
5954.00   4.91970062   0.01794576
5956.00   4.86775017   0.01948153
5958.00   4.85809612   0.01970770
5960.00   4.88410139   0.01901984
5962.00   4.90789223   0.01828903
5964.00   4.93079805   0.01717170
5966.00   4.95558071   0.01620727
5968.00   4.98308992   0.01636523
5970.00   5.01558161   0.01738747
5972.00   5.02884054   0.01779980
5974.00   5.02530098   0.01821086
5976.00   5.02235222   0.01827304
5978.00   5.01199484   0.01791385
5980.00   5.00634336   0.01745266
5982.00   5.01803398   0.01706130
5984.00   5.04012918   0.01664904
5986.00   5.03836298   0.01638666
5988.00   5.02141333   0.01558559
5990.00   5.00011349   0.01634687
5992.00   4.95469236   0.01907803
5994.00   4.93028545   0.02068340
5996.00   4.94970655   0.02035014
5998.00   4.99066067   0.01906399
6000.00   5.00933552   0.01839486
6002.00   5.02160645   0.01753510
6004.00   5.02957010   0.01735948
6006.00   5.03693295   0.01815751
6008.00   5.03130293   0.01839650
6010.00   5.00127411   0.01762542
6012.00   4.96782112   0.01662817
6014.00   4.96668243   0.01659621
6016.00   4.99398565   0.01718961
6018.00   4.98870564   0.01768446
6020.00   4.95663881   0.01879008
6022.00   4.93883038   0.01899893
6024.00   4.93798256   0.01802536
6026.00   4.93868494   0.01682923
6028.00   4.92818165   0.01636012
6030.00   4.91112947   0.01624250
6032.00   4.90465498   0.01630945
6034.00   4.91791296   0.01700363
6036.00   4.90330839   0.01707486
6038.00   4.85264730   0.01643028
6040.00   4.81011868   0.01591856
6042.00   4.80436087   0.01616116
6044.00   4.81685638   0.01675296
6046.00   4.79983664   0.01661734
6048.00   4.76108646   0.01540208
6050.00   4.73155212   0.01553752
6052.00   4.70111513   0.01691441
6054.00   4.67379189   0.01787469
6056.00   4.64797592   0.01817958
6058.00   4.62683201   0.01810862
6060.00   4.62196255   0.01754248
6062.00   4.63643932   0.01596718
6064.00   4.63844299   0.01547465
6066.00   4.63911009   0.01592895
6068.00   4.63435555   0.01604500
6070.00   4.62589741   0.01566681
6072.00   4.61051416   0.01516235
6074.00   4.58005095   0.01484232
6076.00   4.53116560   0.01452682
6078.00   4.50980091   0.01458425
6080.00   4.51503658   0.01491328
6082.00   4.50410271   0.01544612
6084.00   4.47477245   0.01660639
6086.00   4.44552994   0.01734388
6088.00   4.42996502   0.01675018
6090.00   4.42197990   0.01512224
6092.00   4.40745354   0.01449647
6094.00   4.38996363   0.01442946
6096.00   4.37350273   0.01433273
6098.00   4.35789824   0.01436430
6100.00   4.34127855   0.01447040
6102.00   4.32559586   0.01467957
6104.00   4.30833483   0.01494098
6106.00   4.27446699   0.01493083
6108.00   4.21751356   0.01458040
6110.00   4.17880964   0.01453618
6112.00   4.15264988   0.01460096
6114.00   4.12085342   0.01479449
6116.00   4.08532715   0.01526049
6118.00   4.04083252   0.01573576
6120.00   3.96562743   0.01565400
6122.00   3.84677243   0.01492213
6124.00   3.78610468   0.01503528
6126.00   3.76824617   0.01567170
6128.00   3.74498844   0.01636548
6130.00   3.72670960   0.01757013
6132.00   3.69771004   0.01834226
6134.00   3.62775755   0.01741855
6136.00   3.52108383   0.01474115
6138.00   3.45534515   0.01384508
6140.00   3.41929030   0.01431680
6142.00   3.36855102   0.01443533
6144.00   3.30426764   0.01447758
6146.00   3.24120378   0.01447167
6148.00   3.18698239   0.01435616
6150.00   3.13763475   0.01416044
6152.00   3.09502101   0.01401569
6154.00   3.06869793   0.01388205
6156.00   3.02504730   0.01374185
6158.00   2.96107316   0.01332640
6160.00   2.90686560   0.01335556
6162.00   2.87487578   0.01428341
6164.00   2.85463738   0.01554084
6166.00   2.83169365   0.01608394
6168.00   2.81708837   0.01661884
6170.00   2.78960633   0.01617219
6172.00   2.74131107   0.01415952
6174.00   2.71285582   0.01269890
6176.00   2.71756911   0.01257840
6178.00   2.73286366   0.01296610
6180.00   2.72819877   0.01291776
6182.00   2.71318960   0.01277529
6184.00   2.70314574   0.01276536
6186.00   2.69052124   0.01287457
6188.00   2.68352747   0.01292813
6190.00   2.68311405   0.01291921
6192.00   2.68549323   0.01290025
6194.00   2.68796301   0.01290982
6196.00   2.69202685   0.01293232
6198.00   2.69463062   0.01294177
6200.00   2.69590282   0.01294484
6202.00   2.69867134   0.01294785
6204.00   2.70045018   0.01294961
6206.00   2.70604873   0.01295008
6208.00   2.71821761   0.01294423
6210.00   2.73539209   0.01293609
6212.00   2.75665021   0.01295994
6214.00   2.78614450   0.01300998
6216.00   2.81108379   0.01306447
6218.00   2.83381176   0.01316822
6220.00   2.85744238   0.01321550
6222.00   2.88184142   0.01315040
6224.00   2.90773106   0.01303839
6226.00   2.93909621   0.01301057
6228.00   2.97647762   0.01299022
6230.00   3.01139784   0.01308855
6232.00   3.04470944   0.01318315
6234.00   3.08142805   0.01352171
6236.00   3.12149620   0.01425332
6238.00   3.16489148   0.01501108
6240.00   3.21432972   0.01540528
6242.00   3.27335286   0.01567806
6244.00   3.31194758   0.01550790
6246.00   3.32411194   0.01472298
6248.00   3.35782027   0.01410564
6250.00   3.42271614   0.01348110
6252.00   3.48282123   0.01305043
6254.00   3.50575280   0.01298259
6256.00   3.50441742   0.01318040
6258.00   3.53404403   0.01424571
6260.00   3.59086657   0.01698802
6262.00   3.62655663   0.01752661
6264.00   3.65798044   0.01599422
6266.00   3.66909409   0.01451903
6268.00   3.63942719   0.01446168
6270.00   3.58708143   0.01502772
6272.00   3.58683515   0.01505077
6274.00   3.61485648   0.01499254
6276.00   3.66023827   0.01472234
6278.00   3.74368930   0.01396444
6280.00   3.81683111   0.01353666
6282.00   3.87524128   0.01385033
6284.00   3.92016864   0.01437215
6286.00   3.93208671   0.01421616
6288.00   3.89780664   0.01327907
6290.00   3.91280675   0.01358165
6292.00   3.95038700   0.01474237
6294.00   4.00218916   0.01586035
6296.00   4.08615303   0.01731157
6298.00   4.16602612   0.01838893
6300.00   4.19372368   0.01815108
6302.00   4.18594265   0.01675606
6304.00   4.17694855   0.01629061
6306.00   4.13550520   0.01625428
6308.00   4.12431097   0.01619747
6310.00   4.14512062   0.01619561
6312.00   4.17042446   0.01624019
6314.00   4.18302536   0.01630655
6316.00   4.19159889   0.01640680
6318.00   4.20532036   0.01653980
6320.00   4.23550653   0.01556932
6322.00   4.23461628   0.01720469
6324.00   4.17691946   0.02191187
6326.00   4.16019869   0.02445458
6328.00   4.24063253   0.02350193
6330.00   4.36694288   0.02065228
6332.00   4.42181921   0.01939767
6334.00   4.44686413   0.01767264
6336.00   4.44869995   0.01872676
6338.00   4.41568279   0.02285155
6340.00   4.37511444   0.02533117
6342.00   4.30862427   0.02625722
6344.00   4.25099182   0.02625038
6346.00   4.27780247   0.02500410
6348.00   4.36874199   0.02173810
6350.00   4.47056293   0.01987713
6352.00   4.66001749   0.01856126
6354.00   4.75663280   0.01764479
6356.00   4.74632549   0.01717828
6358.00   4.69311953   0.01727836
6360.00   4.63537693   0.01818907
6362.00   4.54500532   0.01988635
6364.00   4.53550863   0.02026783
6366.00   4.61852694   0.01974239
6368.00   4.63788605   0.01941729
6370.00   4.59296083   0.01902937
6372.00   4.55630159   0.01872044
6374.00   4.57644701   0.01866895
6376.00   4.62474155   0.01877237
6378.00   4.61714840   0.01861463
6380.00   4.57617426   0.01712026
6382.00   4.52540874   0.01833339
6384.00   4.41490078   0.02267841
6386.00   4.36190844   0.02490412
6388.00   4.43524647   0.02347552
6390.00   4.55658770   0.02045315
6392.00   4.55171251   0.02109613
6394.00   4.41789484   0.02529123
6396.00   4.43064594   0.02509190
6398.00   4.55798960   0.02110606
6400.00   4.65099859   0.01803276
6402.00   4.72922516   0.01632928
6404.00   4.75606155   0.01649982
6406.00   4.61576271   0.02059887
6408.00   4.27404022   0.02785065
6410.00   4.23472118   0.02818734
6412.00   4.44973135   0.02234606
6414.00   4.57459593   0.01877489
6416.00   4.64307404   0.01853264
6418.00   4.67077017   0.01929827
6420.00   4.64452982   0.01950911
6422.00   4.56854582   0.01984080
6424.00   4.47791052   0.02125792
6426.00   4.27227402   0.02496603
6428.00   4.23677301   0.02539957
6430.00   4.39544582   0.02228255
6432.00   4.53448057   0.01926797
6434.00   4.53962326   0.01933966
6436.00   4.48684788   0.02085304
6438.00   4.50570774   0.02072114
6440.00   4.57642269   0.01942778
6442.00   4.60844994   0.01905310
6444.00   4.62350130   0.01927679
6446.00   4.63393450   0.01939758
6448.00   4.64238310   0.01918614
6450.00   4.64629269   0.01891585
6452.00   4.64514780   0.01899640
6454.00   4.64250422   0.01944473
6456.00   4.62346268   0.01946903
6458.00   4.59468317   0.01906476
6460.00   4.55008364   0.01896402
6462.00   4.46796894   0.01934856
6464.00   4.39311552   0.01978367
6466.00   4.38829565   0.01984386
6468.00   4.43784714   0.01971411
6470.00   4.45613909   0.01942902
6472.00   4.47077131   0.01879393
6474.00   4.48224163   0.01834009
6476.00   4.50850534   0.01777084
6478.00   4.50712395   0.01762214
6480.00   4.43683052   0.01837230
6482.00   4.31627989   0.01971670
6484.00   4.23716259   0.02105291
6486.00   4.13229084   0.02376974
6488.00   4.11838055   0.02383779
6490.00   4.21394730   0.02088592
6492.00   4.29877520   0.01808740
6494.00   4.33154869   0.01723977
6496.00   4.33824015   0.01760300
6498.00   4.30973434   0.01911972
6500.00   4.21138620   0.02223221
6502.00   4.17946529   0.02424736
6504.00   4.17680216   0.02713140
6506.00   4.19370127   0.02788661
6508.00   4.25782967   0.02492738
6510.00   4.31964636   0.02036800
6512.00   4.26552963   0.02041019
6514.00   4.08262253   0.02440134
6516.00   4.06407499   0.02424021
6518.00   4.17854548   0.02102059
6520.00   4.24549341   0.01877983
6522.00   4.26541471   0.01785575
6524.00   4.26675987   0.01763844
6526.00   4.26095343   0.01785122
6528.00   4.24237394   0.01862085
6530.00   4.21569872   0.01979448
6532.00   4.14076900   0.02262671
6534.00   4.13957644   0.02296638
6536.00   4.23774910   0.02034867
6538.00   4.32008648   0.01756542
6540.00   4.30591249   0.01724472
6542.00   4.24025726   0.01824763
6544.00   4.24167061   0.01825462
6546.00   4.29986191   0.01733632
6548.00   4.31124210   0.01795374
6550.00   4.30762005   0.02013028
6552.00   4.27627182   0.02169378
6554.00   4.18161631   0.02252537
6556.00   4.07088900   0.02272284
6558.00   4.09588099   0.02099874
6560.00   4.28017712   0.01480101
6562.00   4.30832720   0.01329186
6564.00   4.23791933   0.01662978
6566.00   4.17735386   0.01851284
6568.00   4.13132906   0.01876512
6570.00   4.09232187   0.01860674
6572.00   4.07166624   0.01885661
6574.00   4.06330538   0.01933732
6576.00   4.07522440   0.01908238
6578.00   4.10826015   0.01826137
6580.00   4.15214443   0.01719553
6582.00   4.23127508   0.01516887
6584.00   4.29347229   0.01340417
6586.00   4.28096628   0.01386832
6588.00   4.21390343   0.01585208
6590.00   4.19494152   0.01650684
6592.00   4.19976616   0.01687279
6594.00   4.19589138   0.01691241
6596.00   4.19902897   0.01616503
6598.00   4.18643713   0.01580008
6600.00   4.13214064   0.01676130
6602.00   4.05606604   0.01827940
6604.00   4.04800034   0.01843972
6606.00   4.09026623   0.01762491
6608.00   4.13432789   0.01699225
6610.00   4.20700216   0.01608681
6612.00   4.27261972   0.01516904
6614.00   4.32342196   0.01416212
6616.00   4.36611032   0.01322778
6618.00   4.39814377   0.01306141
6620.00   4.39703941   0.01351478
6622.00   4.46400118   0.01424790
6624.00   4.54847813   0.01535365
6626.00   4.70747948   0.01661975
6628.00   4.98812866   0.01830914
6630.00   5.29209900   0.01978329
6632.00   5.50920391   0.02032591
6634.00   5.71581078   0.02024822
6636.00   5.70673943   0.02025449
6638.00   5.46930218   0.02027672
6640.00   5.24778366   0.01982260
6642.00   4.96673918   0.01852529
6644.00   4.72191620   0.01724384
6646.00   4.60311031   0.01680109
6648.00   4.56749392   0.01688314
6650.00   4.56358624   0.01714220
6652.00   4.66349411   0.01812387
6654.00   4.68968105   0.01837617
6656.00   4.68608904   0.01811006
6658.00   4.64495420   0.01769416
6660.00   4.54541588   0.01725931
6662.00   4.40895987   0.01671072
6664.00   4.32280922   0.01601374
6666.00   4.26975250   0.01465659
6668.00   4.19827890   0.01437877
6670.00   4.11114836   0.01527220
6672.00   4.04338646   0.01574932
6674.00   4.00461054   0.01542609
6676.00   3.98167467   0.01487313
6678.00   3.95814037   0.01483521
6680.00   3.93663096   0.01498721
6682.00   3.93611121   0.01549661
6684.00   3.96064019   0.01703642
6686.00   3.98054004   0.01731350
6688.00   4.00475264   0.01587844
6690.00   4.01854610   0.01389632
6692.00   3.99623179   0.01291200
6694.00   3.94136596   0.01243952
6696.00   3.92485762   0.01203451
6698.00   3.94297194   0.01164659
6700.00   3.93425512   0.01200593
6702.00   3.89574003   0.01343353
6704.00   3.85982704   0.01460032
6706.00   3.84652853   0.01481168
6708.00   3.84523702   0.01453610
6710.00   3.84094024   0.01478421
6712.00   3.83879161   0.01554651
6714.00   3.83904338   0.01564964
6716.00   3.84474182   0.01517013
6718.00   3.84763980   0.01471231
6720.00   3.84950566   0.01430177
6722.00   3.84630990   0.01404101
6724.00   3.81599760   0.01482919
6726.00   3.74041557   0.01715243
6728.00   3.72025633   0.01737480
6730.00   3.73179555   0.01612793
6732.00   3.75618887   0.01488076
6734.00   3.80331206   0.01362802
6736.00   3.85420609   0.01244591
6738.00   3.87114501   0.01205626
6740.00   3.86749959   0.01230958
6742.00   3.85496330   0.01292047
6744.00   3.81658864   0.01460429
6746.00   3.79252911   0.01519970
6748.00   3.78087330   0.01470623
6750.00   3.77689075   0.01381878
6752.00   3.78135872   0.01299439
6754.00   3.79554510   0.01191031
6756.00   3.79855037   0.01148074
6758.00   3.80140257   0.01158554
6760.00   3.79116297   0.01183781
6762.00   3.75851059   0.01242988
6764.00   3.73304725   0.01301442
6766.00   3.73635626   0.01336767
6768.00   3.75429893   0.01365298
6770.00   3.74292541   0.01429194
6772.00   3.70314288   0.01574669
6774.00   3.68428779   0.01583885
6776.00   3.66247392   0.01472623
6778.00   3.66536713   0.01362657
6780.00   3.70912385   0.01265236
6782.00   3.77365541   0.01193126
6784.00   3.81847239   0.01271333
6786.00   3.86243391   0.01505299
6788.00   3.89161849   0.01593512
6790.00   3.90585709   0.01626444
6792.00   3.91801834   0.01648306
6794.00   3.93505073   0.01654798
6796.00   3.94265318   0.01653832
6798.00   3.91827512   0.01663925
6800.00   3.86084700   0.01678551
6802.00   3.84111762   0.01688316
6804.00   3.85382676   0.01713201
6806.00   3.84511161   0.01701085
6808.00   3.82334542   0.01649915
6810.00   3.78567791   0.01576217
6812.00   3.71827459   0.01481542
6814.00   3.62461543   0.01355307
6816.00   3.58138394   0.01279971
6818.00   3.57558775   0.01245252
6820.00   3.56480074   0.01216635
6822.00   3.56289053   0.01203217
6824.00   3.55865002   0.01205715
6826.00   3.54498053   0.01234026
6828.00   3.52718139   0.01275772
6830.00   3.51623297   0.01273997
6832.00   3.50857258   0.01218702
6834.00   3.50273395   0.01215741
6836.00   3.49835753   0.01256760
6838.00   3.49764705   0.01278161
6840.00   3.49922657   0.01266463
6842.00   3.50566816   0.01238734
6844.00   3.52562737   0.01209128
6846.00   3.56849170   0.01161572
6848.00   3.57423329   0.01141537
6850.00   3.55441809   0.01139526
6852.00   3.52995420   0.01145189
6854.00   3.49151468   0.01162326
6856.00   3.45607972   0.01183665
6858.00   3.44873857   0.01197297
6860.00   3.46219587   0.01204677
6862.00   3.46508789   0.01238429
6864.00   3.46442699   0.01301669
6866.00   3.47034287   0.01345259
6868.00   3.48386002   0.01386113
6870.00   3.49859047   0.01406369
6872.00   3.51355839   0.01387719
6874.00   3.52938938   0.01338686
6876.00   3.52450371   0.01302769
6878.00   3.49792361   0.01254705
6880.00   3.47748327   0.01227227
6882.00   3.44746780   0.01216180
6884.00   3.43105221   0.01214390
6886.00   3.44102454   0.01221297
6888.00   3.46552086   0.01236144
6890.00   3.47984648   0.01251111
6892.00   3.49987245   0.01280622
6894.00   3.50067139   0.01281208
6896.00   3.48600364   0.01259076
6898.00   3.46642089   0.01233537
6900.00   3.43409967   0.01184446
6902.00   3.40384603   0.01148288
6904.00   3.40823126   0.01210904
6906.00   3.44578338   0.01362000
6908.00   3.45342278   0.01416330
6910.00   3.44614410   0.01432767
6912.00   3.43865108   0.01430816
6914.00   3.43181777   0.01398339
6916.00   3.42076707   0.01356834
6918.00   3.40186834   0.01328236
6920.00   3.37668085   0.01300104
6922.00   3.34644985   0.01304312
6924.00   3.28909922   0.01348081
6926.00   3.27355838   0.01373826
6928.00   3.30521274   0.01409416
6930.00   3.33829165   0.01414328
6932.00   3.34875250   0.01350154
6934.00   3.35017204   0.01233778
6936.00   3.35029960   0.01172036
6938.00   3.34682250   0.01114208
6940.00   3.33831477   0.01119813
6942.00   3.31828666   0.01220597
6944.00   3.30529976   0.01281685
6946.00   3.30760789   0.01259110
6948.00   3.31622052   0.01205379
6950.00   3.31518126   0.01213574
6952.00   3.30795622   0.01275990
6954.00   3.30522346   0.01278094
6956.00   3.30215049   0.01242315
6958.00   3.30331516   0.01204824
6960.00   3.31296444   0.01158770
6962.00   3.32272100   0.01115813
6964.00   3.32030010   0.01106697
6966.00   3.30915856   0.01127260
6968.00   3.30006814   0.01130433
6970.00   3.28109145   0.01127086
6972.00   3.27828193   0.01130179
6974.00   3.29951119   0.01139760
6976.00   3.31940651   0.01151842
6978.00   3.31624722   0.01167218
6980.00   3.29931760   0.01186885
6982.00   3.29120111   0.01181511
6984.00   3.28482103   0.01143126
6986.00   3.27835512   0.01128543
6988.00   3.27166200   0.01132301
6990.00   3.26610804   0.01138344
6992.00   3.26054335   0.01142087
6994.00   3.25640178   0.01145620
6996.00   3.26375771   0.01139907
6998.00   3.28791022   0.01119914
7000.00   3.29858637   0.01113291
7002.00   3.30276251   0.01115030
7004.00   3.30572581   0.01116920
7006.00   3.30970240   0.01117936
7008.00   3.31171012   0.01118709
7010.00   3.30660510   0.01117145
7012.00   3.29447627   0.01112423
7014.00   3.28406692   0.01111957
7016.00   3.26541257   0.01111395
7018.00   3.25993347   0.01116828
7020.00   3.27533579   0.01128417
7022.00   3.29360676   0.01144888
7024.00   3.29421043   0.01166309
7026.00   3.28418708   0.01193675
7028.00   3.27843857   0.01216067
7030.00   3.27059150   0.01253995
7032.00   3.26540852   0.01254962
7034.00   3.26225567   0.01197615
7036.00   3.26089048   0.01149519
7038.00   3.25997734   0.01166105
7040.00   3.26002431   0.01219877
7042.00   3.27198672   0.01268896
7044.00   3.31293106   0.01370600
7046.00   3.31451344   0.01378876
7048.00   3.28015542   0.01281824
7050.00   3.24417090   0.01201830
7052.00   3.21411824   0.01205636
7054.00   3.18725133   0.01246189
7056.00   3.18393493   0.01255266
7058.00   3.21081400   0.01269331
7060.00   3.21625948   0.01248231
7062.00   3.20986176   0.01178247
7064.00   3.20810485   0.01125380
7066.00   3.21552110   0.01104967
7068.00   3.22513080   0.01101116
7070.00   3.22830033   0.01103237
7072.00   3.22812390   0.01122126
7074.00   3.22659278   0.01124017
7076.00   3.21934414   0.01109187
7078.00   3.21760273   0.01108749
7080.00   3.22433376   0.01123122
7082.00   3.23110151   0.01145469
7084.00   3.22954154   0.01177137
7086.00   3.22266769   0.01222201
7088.00   3.21864176   0.01222412
7090.00   3.21601892   0.01179954
7092.00   3.21082139   0.01149203
7094.00   3.20000267   0.01115770
7096.00   3.19281459   0.01090846
7098.00   3.19577742   0.01086776
7100.00   3.20512676   0.01096962
7102.00   3.21116734   0.01096864
7104.00   3.22222996   0.01087384
7106.00   3.22194052   0.01094221
7108.00   3.20518517   0.01111715
7110.00   3.19734287   0.01135892
7112.00   3.21036887   0.01174876
7114.00   3.23173261   0.01214923
7116.00   3.23824573   0.01214767
7118.00   3.23985720   0.01178162
7120.00   3.23190665   0.01153744
7122.00   3.20833397   0.01118119
7124.00   3.19065499   0.01095303
7126.00   3.18197966   0.01092740
7128.00   3.17630720   0.01097975
7130.00   3.16839552   0.01094676
7132.00   3.15959978   0.01085028
7134.00   3.15490508   0.01096652
7136.00   3.15164828   0.01136440
7138.00   3.15311193   0.01154562
7140.00   3.16311979   0.01151029
7142.00   3.17217135   0.01140758
7144.00   3.17181301   0.01132765
7146.00   3.16578650   0.01122355
7148.00   3.15857959   0.01115290
7150.00   3.14282846   0.01103794
7152.00   3.13736510   0.01106790
7154.00   3.13885522   0.01127691
7156.00   3.14572668   0.01147251
7158.00   3.16065907   0.01158814
7160.00   3.18090200   0.01166031
7162.00   3.18772840   0.01160636
7164.00   3.18754125   0.01113173
7166.00   3.18142295   0.01132369
7168.00   3.16084480   0.01220614
7170.00   3.14836359   0.01276810
7172.00   3.15317273   0.01284069
7174.00   3.16375613   0.01264866
7176.00   3.16120410   0.01227334
7178.00   3.15048218   0.01136619
7180.00   3.14209199   0.01119628
7182.00   3.13346529   0.01169171
7184.00   3.12265515   0.01198081
7186.00   3.10772347   0.01201531
7188.00   3.09276199   0.01199183
7190.00   3.08261371   0.01201921
7192.00   3.07479429   0.01201078
7194.00   3.07220840   0.01225570
7196.00   3.08609104   0.01241749
7198.00   3.07862902   0.01320366
7200.00   3.03574967   0.01504233
7202.00   3.00351715   0.01634134
7204.00   3.02216291   0.01603370
7206.00   3.07340550   0.01463554
7208.00   3.08374763   0.01473984
7210.00   3.07290292   0.01606000
7212.00   3.05881429   0.01658620
7214.00   3.01688886   0.01710731
7216.00   3.00002623   0.01691089
7218.00   3.04213643   0.01520826
7220.00   3.11359191   0.01231482
7222.00   3.13939667   0.01103870
7224.00   3.15021563   0.01071623
7226.00   3.13488173   0.01136453
7228.00   3.07382917   0.01366704
7230.00   3.03128362   0.01507525
7232.00   3.01606989   0.01557243
7234.00   3.01823854   0.01553905
7236.00   3.04182625   0.01482909
7238.00   3.10354376   0.01281107
7240.00   3.11224055   0.01227613
7242.00   3.07962751   0.01298409
7244.00   3.05580568   0.01339095
7246.00   3.03403759   0.01364282
7248.00   3.02082491   0.01371764
7250.00   3.03474355   0.01326960
7252.00   3.07521057   0.01218899
7254.00   3.06817889   0.01257224
7256.00   3.01006579   0.01437489
7258.00   2.98911548   0.01527257
7260.00   2.99872422   0.01601851
7262.00   3.01726079   0.01604102
7264.00   3.04061460   0.01426734
7266.00   3.07044029   0.01067513
7268.00   3.06311297   0.01102132
7270.00   3.00619078   0.01498341
7272.00   2.99146795   0.01655993
7274.00   3.00930238   0.01801605
7276.00   3.02193379   0.01829596
7278.00   3.01958847   0.01627375
7280.00   3.00882673   0.01272875
7282.00   2.98547769   0.01248924
7284.00   2.94457293   0.01484858
7286.00   2.91148210   0.01637342
7288.00   2.86805296   0.01888513
7290.00   2.84432268   0.01990339
7292.00   2.84618568   0.01911034
7294.00   2.86306763   0.01739277
7296.00   2.88689494   0.01577138
7298.00   2.92952561   0.01333188
7300.00   2.94183087   0.01197829
7302.00   2.93205881   0.01166076
7304.00   2.92252898   0.01155501
7306.00   2.90751243   0.01194227
7308.00   2.89446902   0.01240701
7310.00   2.89252019   0.01253794
7312.00   2.89787483   0.01253445
7314.00   2.90364933   0.01246525
7316.00   2.91597486   0.01225720
7318.00   2.92259455   0.01206321
7320.00   2.92159820   0.01177530
7322.00   2.92401195   0.01158184
7324.00   2.93916273   0.01161989
7326.00   2.96032715   0.01180227
7328.00   2.96122313   0.01191624
7330.00   2.94097352   0.01211964
7332.00   2.93406868   0.01213626
7334.00   2.92827344   0.01190700
7336.00   2.93042660   0.01180610
7338.00   2.94727993   0.01201397
7340.00   2.96938276   0.01230603
7342.00   2.97546935   0.01229500
7344.00   2.97624516   0.01205599
7346.00   2.96100402   0.01191200
7348.00   2.91340995   0.01166903
7350.00   2.89074469   0.01160352
7352.00   2.90222764   0.01182823
7354.00   2.92611670   0.01210015
7356.00   2.94383717   0.01214572
7358.00   2.96745110   0.01207650
7360.00   2.96835518   0.01195352
7362.00   2.94946384   0.01147927
7364.00   2.93027973   0.01150113
7366.00   2.90549898   0.01211425
7368.00   2.88117027   0.01278086
7370.00   2.86017704   0.01325635
7372.00   2.84026313   0.01369387
7374.00   2.84479880   0.01359133
7376.00   2.88392615   0.01268673
7378.00   2.89870644   0.01234987
7380.00   2.89662981   0.01250839
7382.00   2.89316130   0.01260910
7384.00   2.89448404   0.01239788
7386.00   2.89633608   0.01205535
7388.00   2.89458346   0.01189206
7390.00   2.89003086   0.01176732
7392.00   2.88513756   0.01179368
7394.00   2.87483668   0.01190975
7396.00   2.87122869   0.01218950
7398.00   2.87854481   0.01284370
7400.00   2.89077067   0.01347162
7402.00   2.90028882   0.01331551
7404.00   2.91556883   0.01239086
7406.00   2.91043615   0.01202317
7408.00   2.88124180   0.01192723
7410.00   2.86306000   0.01178799
7412.00   2.85741353   0.01158193
7414.00   2.85630989   0.01139885
7416.00   2.85648203   0.01132887
7418.00   2.86189866   0.01136499
7420.00   2.85033369   0.01124045
7422.00   2.81349516   0.01090104
7424.00   2.80033231   0.01077920
7426.00   2.81274414   0.01083824
7428.00   2.82633734   0.01100397
7430.00   2.82763481   0.01126134
7432.00   2.82369876   0.01160926
7434.00   2.81356430   0.01190788
7436.00   2.79139686   0.01243594
7438.00   2.77756619   0.01243509
7440.00   2.76494288   0.01185931
7442.00   2.75874758   0.01131861
7444.00   2.76301551   0.01106832
7446.00   2.77344799   0.01093159
7448.00   2.77868128   0.01072415
7450.00   2.77829552   0.01020780
7452.00   2.78997111   0.01054335
7454.00   2.81323409   0.01145450
7456.00   2.83427978   0.01253176
7458.00   2.85756803   0.01420906
7460.00   2.87434101   0.01552550
7462.00   2.86243272   0.01496115
7464.00   2.81815195   0.01224201
7466.00   2.81195307   0.01165400
7468.00   2.84087682   0.01296748
7470.00   2.84649801   0.01327547
7472.00   2.82275152   0.01244086
7474.00   2.79575562   0.01143799
7476.00   2.78645277   0.01121904
7478.00   2.78588080   0.01145539
7480.00   2.78477716   0.01144192
7482.00   2.78747010   0.01142113
7484.00   2.79000425   0.01136925
7486.00   2.79222631   0.01127727
7488.00   2.79644442   0.01117756
7490.00   2.80702519   0.01107328
7492.00   2.82063484   0.01096605
7494.00   2.81599617   0.01094498
7496.00   2.79034185   0.01090000
7498.00   2.77823520   0.01109544
7500.00   2.76607823   0.01153815
7502.00   2.76486421   0.01197213
7504.00   2.78722310   0.01237994
7506.00   2.81586766   0.01275489
7508.00   2.80713606   0.01295575
7510.00   2.76657462   0.01299984
7512.00   2.74073458   0.01308079
7514.00   2.71481037   0.01330072
7516.00   2.69052410   0.01319343
7518.00   2.66809964   0.01249653
7520.00   2.64703155   0.01167502
7522.00   2.62763405   0.01149367
7524.00   2.61157608   0.01176465
7526.00   2.58703089   0.01183791
7528.00   2.54337573   0.01165198
7530.00   2.52500129   0.01203717
7532.00   2.53586364   0.01320763
7534.00   2.55353642   0.01423309
7536.00   2.56613636   0.01464298
7538.00   2.58083415   0.01475613
7540.00   2.56706190   0.01416340
7542.00   2.51647282   0.01204526
7544.00   2.48974490   0.01106232
7546.00   2.47875166   0.01095202
7548.00   2.46979976   0.01137444
7550.00   2.45263267   0.01230582
7552.00   2.43601060   0.01356764
7554.00   2.45042920   0.01443124
7556.00   2.50404906   0.01570601
7558.00   2.53105307   0.01566081
7560.00   2.55519819   0.01422544
7562.00   2.56454444   0.01291791
7564.00   2.55061412   0.01216109
7566.00   2.52620053   0.01165996
7568.00   2.51587129   0.01134355
7570.00   2.51178122   0.01136078
7572.00   2.50543523   0.01129128
7574.00   2.49688029   0.01128319
7576.00   2.49376988   0.01128802
7578.00   2.49982476   0.01133955
7580.00   2.50641537   0.01137278
7582.00   2.50252652   0.01128143
7584.00   2.49033546   0.01107292
7586.00   2.49167132   0.01105185
7588.00   2.50215077   0.01053903
7590.00   2.51320100   0.01134798
7592.00   2.53638601   0.01254650
7594.00   2.54738760   0.01498337
7596.00   2.52142286   0.01931209
7598.00   2.47072625   0.02412780
7600.00   2.46063042   0.02591132
7602.00   2.48753500   0.02602186
7604.00   2.48893428   0.02617531
7606.00   2.46461129   0.02628004
7608.00   2.45568943   0.02550583
7610.00   2.48399734   0.02294566
7612.00   2.52947354   0.01896324
7614.00   2.54881573   0.01654102
7616.00   2.55165815   0.01506461
7618.00   2.56184673   0.01426294
7620.00   2.57115436   0.01408618
7622.00   2.58263779   0.01545421
7624.00   2.60493016   0.01928402
7626.00   2.62252831   0.02265684
7628.00   2.60453367   0.02246938
7630.00   2.55014443   0.01912073
7632.00   2.53010964   0.01829977
7634.00   2.52453446   0.01919521
7636.00   2.52629042   0.01930660
7638.00   2.54063916   0.01864095
7640.00   2.55748129   0.01765108
7642.00   2.56593466   0.01649470
7644.00   2.57084036   0.01491683
7646.00   2.57378292   0.01412094
7648.00   2.57535768   0.01418778
7650.00   2.57200050   0.01393750
7652.00   2.55882740   0.01348255
7654.00   2.54954028   0.01307800
7656.00   2.55293489   0.01280964
7658.00   2.56386733   0.01264912
7660.00   2.57267427   0.01286026
7662.00   2.58271766   0.01360796
7664.00   2.59416199   0.01396888
7666.00   2.61592197   0.01434292
7668.00   2.62385559   0.01436547
7670.00   2.60253716   0.01353910
7672.00   2.57037997   0.01244542
7674.00   2.56882977   0.01311798
7676.00   2.58940983   0.01561285
7678.00   2.60256004   0.01597873
7680.00   2.62705827   0.01512023
7682.00   2.63461542   0.01418492
7684.00   2.61405134   0.01304567
7686.00   2.58753037   0.01185613
7688.00   2.58360791   0.01129172
7690.00   2.59170938   0.01119668
7692.00   2.60314560   0.01138630
7694.00   2.63371110   0.01238883
7696.00   2.64350986   0.01268993
7698.00   2.63222957   0.01207014
7700.00   2.61167145   0.01150957
7702.00   2.58121228   0.01191488
7704.00   2.53705478   0.01285713
7706.00   2.55383873   0.01356165
7708.00   2.65016747   0.01466163
7710.00   2.68460631   0.01494364
7712.00   2.67368412   0.01443059
7714.00   2.65274763   0.01381298
7716.00   2.63397050   0.01341697
7718.00   2.61064243   0.01305367
7720.00   2.59062243   0.01266968
7722.00   2.56570268   0.01220434
7724.00   2.55406690   0.01192799
7726.00   2.55459595   0.01185047
7728.00   2.55572629   0.01176083
7730.00   2.55484056   0.01160281
7732.00   2.55468178   0.01143721
7734.00   2.55684781   0.01130369
7736.00   2.55982852   0.01105051
7738.00   2.56761599   0.01129478
7740.00   2.58464479   0.01200772
7742.00   2.59422421   0.01262347
7744.00   2.60004258   0.01321449
7746.00   2.59608388   0.01371095
7748.00   2.56750822   0.01398859
7750.00   2.51183057   0.01415090
7752.00   2.49767876   0.01395243
7754.00   2.51102471   0.01318450
7756.00   2.52611351   0.01267988
7758.00   2.55195618   0.01237671
7760.00   2.57653499   0.01217553
7762.00   2.59169483   0.01206963
7764.00   2.60176420   0.01207158
7766.00   2.59627867   0.01195946
7768.00   2.56334066   0.01172521
7770.00   2.55372357   0.01163988
7772.00   2.56171131   0.01167462
7774.00   2.57037163   0.01174092
7776.00   2.57260489   0.01175196
7778.00   2.57396555   0.01179833
7780.00   2.58227777   0.01218066
7782.00   2.59239435   0.01301227
7784.00   2.61250806   0.01337694
7786.00   2.65910816   0.01359026
7788.00   2.67884612   0.01360193
7790.00   2.65398765   0.01319763
7792.00   2.61219335   0.01273771
7794.00   2.59000301   0.01303462
7796.00   2.56734252   0.01401305
7798.00   2.57167578   0.01425067
7800.00   2.61605382   0.01405316
7802.00   2.63552952   0.01391085
7804.00   2.62326336   0.01379715
7806.00   2.60530710   0.01368606
7808.00   2.60073376   0.01361774
7810.00   2.59885812   0.01359460
7812.00   2.62058330   0.01341292
7814.00   2.67942214   0.01279022
7816.00   2.71074176   0.01281435
7818.00   2.72383690   0.01366987
7820.00   2.72462463   0.01437068
7822.00   2.71242142   0.01445440
7824.00   2.68791270   0.01420896
7826.00   2.66683364   0.01378794
7828.00   2.64265871   0.01273717
7830.00   2.61871314   0.01226630
7832.00   2.57539320   0.01200599
7834.00   2.56283522   0.01220774
7836.00   2.60895276   0.01317544
7838.00   2.68334794   0.01438403
7840.00   2.72191119   0.01475989
7842.00   2.75139213   0.01470737
7844.00   2.76181149   0.01448322
7846.00   2.74294400   0.01356480
7848.00   2.73287916   0.01316728
7850.00   2.74244595   0.01362746
7852.00   2.75110340   0.01435889
7854.00   2.73067451   0.01479980
7856.00   2.68203330   0.01524639
7858.00   2.66965437   0.01538533
7860.00   2.67769074   0.01530095
7862.00   2.69188428   0.01506843
7864.00   2.72259378   0.01457596
7866.00   2.75012136   0.01402222
7868.00   2.75674033   0.01351449
7870.00   2.75117397   0.01293903
7872.00   2.72838974   0.01327878
7874.00   2.66344380   0.01456769
7876.00   2.64195323   0.01544334
7878.00   2.65533376   0.01666470
7880.00   2.68027115   0.01709482
7882.00   2.71497297   0.01579696
7884.00   2.75767732   0.01318514
7886.00   2.76163149   0.01233906
7888.00   2.73019814   0.01302765
7890.00   2.70854449   0.01310227
7892.00   2.67785954   0.01324632
7894.00   2.65424633   0.01328007
7896.00   2.64014339   0.01308899
7898.00   2.63405848   0.01282408
7900.00   2.64059949   0.01277796
7902.00   2.66532898   0.01264691
7904.00   2.67610598   0.01326599
7906.00   2.68507409   0.01502780
7908.00   2.68560123   0.01574161
7910.00   2.67808771   0.01499198
7912.00   2.66220403   0.01399493
7914.00   2.63398361   0.01436416
7916.00   2.59003520   0.01557788
7918.00   2.56719184   0.01618130
7920.00   2.55839133   0.01710858
7922.00   2.54858589   0.01699628
7924.00   2.54010653   0.01533397
7926.00   2.53258872   0.01352100
7928.00   2.52418089   0.01312359
7930.00   2.51560163   0.01358116
7932.00   2.51412797   0.01329704
7934.00   2.51416421   0.01244036
7936.00   2.52583504   0.01217454
7938.00   2.55570149   0.01253332
7940.00   2.58061934   0.01278600
7942.00   2.59453702   0.01257931
7944.00   2.59993291   0.01219440
7946.00   2.58255529   0.01222567
7948.00   2.52855325   0.01231531
7950.00   2.50558352   0.01295253
7952.00   2.49270296   0.01458565
7954.00   2.49219728   0.01530544
7956.00   2.51395655   0.01460504
7958.00   2.54095197   0.01335252
7960.00   2.53838611   0.01306068
7962.00   2.51643968   0.01324064
7964.00   2.49337244   0.01357892
7966.00   2.44350147   0.01469133
7968.00   2.42647600   0.01494564
7970.00   2.45764828   0.01405234
7972.00   2.49522090   0.01286382
7974.00   2.49937606   0.01238471
7976.00   2.48754764   0.01227689
7978.00   2.46330905   0.01210676
7980.00   2.40066051   0.01202102
7982.00   2.37785220   0.01202470
7984.00   2.40012169   0.01201476
7986.00   2.42181349   0.01223840
7988.00   2.41467452   0.01301308
7990.00   2.39392853   0.01407835
7992.00   2.38265586   0.01417790
7994.00   2.38008380   0.01345893
7996.00   2.36208534   0.01297376
7998.00   2.32598448   0.01237602
8000.00   2.29544282   0.01184203
8002.00   2.27365685   0.01138364
8004.00   2.26076770   0.01105074
8006.00   2.27569127   0.01117917
8008.00   2.33506703   0.01193035
8010.00   2.34733582   0.01215430
8012.00   2.33018398   0.01214281
8014.00   2.31204867   0.01209730
8016.00   2.29214716   0.01193453
8018.00   2.27259350   0.01181289
8020.00   2.26477838   0.01206394
8022.00   2.26820827   0.01257907
8024.00   2.25898361   0.01310081
8026.00   2.24631786   0.01417446
8028.00   2.22523189   0.01434377
8030.00   2.18697715   0.01335122
8032.00   2.15221786   0.01205837
8034.00   2.14005113   0.01133480
8036.00   2.14191198   0.01082701
8038.00   2.15279841   0.01075364
8040.00   2.18508863   0.01146745
8042.00   2.20451498   0.01164636
8044.00   2.22018600   0.01140884
8046.00   2.22656488   0.01115640
8048.00   2.21679163   0.01106413
8050.00   2.19585371   0.01103929
8052.00   2.18549275   0.01113929
8054.00   2.17453218   0.01145467
8056.00   2.17447829   0.01159906
8058.00   2.19526315   0.01154820
8060.00   2.20103717   0.01167309
8062.00   2.17658687   0.01226993
8064.00   2.13979363   0.01289378
8066.00   2.12113261   0.01263661
8068.00   2.11287427   0.01138630
8070.00   2.09799457   0.01095471
8072.00   2.07373476   0.01089087
8074.00   2.06333947   0.01103254
8076.00   2.07118320   0.01154404
8078.00   2.08733392   0.01206589
8080.00   2.10258698   0.01210886
8082.00   2.12245464   0.01182091
8084.00   2.13607597   0.01170834
8086.00   2.15198755   0.01157004
8088.00   2.15462613   0.01152537
8090.00   2.13460469   0.01145293
8092.00   2.11861634   0.01159914
8094.00   2.12992215   0.01231339
8096.00   2.15829039   0.01339913
8098.00   2.17189479   0.01347884
8100.00   2.18903995   0.01271336
8102.00   2.18548799   0.01217761
8104.00   2.15492034   0.01150577
8106.00   2.12776470   0.01099600
8108.00   2.11586714   0.01090185
8110.00   2.11187553   0.01105416
8112.00   2.11621499   0.01099164
8114.00   2.13588166   0.01076536
8116.00   2.14602757   0.01077756
8118.00   2.15445542   0.01099188
8120.00   2.15994430   0.01117422
8122.00   2.16194153   0.01130495
8124.00   2.16125917   0.01139814
8126.00   2.15931511   0.01139650
8128.00   2.15609336   0.01128624
8130.00   2.14899611   0.01124292
8132.00   2.12563920   0.01103702
8134.00   2.12520862   0.01118898
8136.00   2.15765405   0.01190474
8138.00   2.19692564   0.01260873
8140.00   2.21868467   0.01279528
8142.00   2.23530602   0.01270460
8144.00   2.23291349   0.01246856
8146.00   2.20026231   0.01176759
8148.00   2.18690777   0.01141080
8150.00   2.19375277   0.01140822
8152.00   2.19884944   0.01147310
8154.00   2.18742442   0.01139289
8156.00   2.16717339   0.01127720
8158.00   2.15766883   0.01156767
8160.00   2.14660025   0.01246472
8162.00   2.15214276   0.01271453
8164.00   2.18069792   0.01257220
8166.00   2.20327425   0.01226460
8168.00   2.20509553   0.01160390
8170.00   2.20003891   0.01082789
8172.00   2.21663713   0.01127627
8174.00   2.25821829   0.01300531
8176.00   2.27216363   0.01358705
8178.00   2.27455902   0.01381653
8180.00   2.26464248   0.01374040
8182.00   2.23531246   0.01313894
8184.00   2.19961190   0.01236494
8186.00   2.17940950   0.01220011
8188.00   2.16215920   0.01243503
8190.00   2.16764522   0.01262088
8192.00   2.21097755   0.01290147
8194.00   2.22759414   0.01325095
8196.00   2.21085978   0.01385895
8198.00   2.18907189   0.01428937
8200.00   2.18246889   0.01411020
8202.00   2.18027997   0.01346890
8204.00   2.19968081   0.01292828
8206.00   2.25823593   0.01206744
8208.00   2.28170633   0.01156921
8210.00   2.27274966   0.01140142
8212.00   2.26050949   0.01141904
8214.00   2.26009989   0.01155921
8216.00   2.26267099   0.01185056
8218.00   2.25788951   0.01225805
8220.00   2.24577284   0.01307393
8222.00   2.23851752   0.01330095
8224.00   2.23299503   0.01306801
8226.00   2.22860837   0.01282847
8228.00   2.22360468   0.01268698
8230.00   2.22054315   0.01256874
8232.00   2.22765136   0.01252659
8234.00   2.25416589   0.01269251
8236.00   2.24889040   0.01244039
8238.00   2.21644688   0.01167117
8240.00   2.18872857   0.01114942
8242.00   2.16422868   0.01100264
8244.00   2.14490676   0.01104144
8246.00   2.14076018   0.01112728
8248.00   2.15092087   0.01133195
8250.00   2.15369010   0.01154998
8252.00   2.15592933   0.01198907
8254.00   2.15793347   0.01210181
8256.00   2.15963221   0.01180657
8258.00   2.16110015   0.01145970
8260.00   2.16360497   0.01133618
8262.00   2.16705012   0.01130919
8264.00   2.16058660   0.01138865
8266.00   2.14495015   0.01158882
8268.00   2.12966728   0.01184194
8270.00   2.11412525   0.01222135
8272.00   2.09452772   0.01255961
8274.00   2.06277180   0.01273024
8276.00   2.02679229   0.01284766
8278.00   2.02477455   0.01327065
8280.00   2.06024432   0.01391556
8282.00   2.07408190   0.01454063
8284.00   2.09292674   0.01556076
8286.00   2.09134579   0.01599322
8288.00   2.05584240   0.01544051
8290.00   2.00578260   0.01447735
8292.00   1.97546220   0.01426858
8294.00   1.95098019   0.01464686
8296.00   1.93430007   0.01440269
8298.00   1.92641771   0.01370411
8300.00   1.92259300   0.01309193
8302.00   1.92018235   0.01243177
8304.00   1.92519045   0.01196503
8306.00   1.94697273   0.01210904
8308.00   1.98588777   0.01269312
8310.00   2.00601244   0.01357869
8312.00   2.02632165   0.01574549
8314.00   2.02410388   0.01598685
8316.00   1.99003196   0.01386340
8318.00   1.95487666   0.01140713
8320.00   1.93565238   0.01093927
8322.00   1.92339861   0.01164063
8324.00   1.93899333   0.01151122
8326.00   2.00269938   0.01100595
8328.00   2.02424955   0.01087496
8330.00   2.01341295   0.01090090
8332.00   2.00261354   0.01119338
8334.00   2.00181770   0.01178742
8336.00   2.00452423   0.01259812
8338.00   2.01267934   0.01353786
8340.00   2.03042912   0.01493233
8342.00   2.03984976   0.01554084
8344.00   2.05516505   0.01561293
8346.00   2.05132103   0.01570710
8348.00   2.00922942   0.01596228
8350.00   1.96186399   0.01615638
8352.00   1.96609831   0.01604713
8354.00   2.00923347   0.01577839
8356.00   2.03707266   0.01507952
8358.00   2.07754493   0.01348151
8360.00   2.09786367   0.01236412
8362.00   2.09405470   0.01194136
8364.00   2.08100104   0.01179638
8366.00   2.07071638   0.01158116
8368.00   2.05770445   0.01144758
8370.00   2.04210377   0.01154124
8372.00   2.00975800   0.01194336
8374.00   2.00546932   0.01222238
8376.00   2.03382039   0.01246987
8378.00   2.06295013   0.01266791
8380.00   2.07631135   0.01282810
8382.00   2.08300209   0.01294110
8384.00   2.08391953   0.01280324
8386.00   2.06653881   0.01178513
8388.00   2.07155061   0.01219251
8390.00   2.10168171   0.01402618
8392.00   2.12020302   0.01526517
8394.00   2.11500216   0.01555181
8396.00   2.09719849   0.01540014
8398.00   2.07833767   0.01520135
8400.00   2.05210423   0.01477474
8402.00   2.02627444   0.01420016
8404.00   1.98529553   0.01303786
8406.00   1.96723771   0.01236945
8408.00   1.98490214   0.01254212
8410.00   2.01312232   0.01303021
8412.00   2.02069879   0.01325855
8414.00   2.02016687   0.01342101
8416.00   2.01465797   0.01381715
8418.00   2.00197721   0.01457627
8420.00   1.98578429   0.01495518
8422.00   1.95685339   0.01489920
8424.00   1.93514717   0.01479448
8426.00   1.94232142   0.01494263
8428.00   1.97049499   0.01520809
8430.00   1.97641146   0.01537799
8432.00   1.96923959   0.01590294
8434.00   1.96648097   0.01556533
8436.00   1.95983171   0.01409950
8438.00   1.96087515   0.01256600
8440.00   1.97649932   0.01143964
8442.00   2.00204968   0.01061395
8444.00   2.02918863   0.01129788
8446.00   2.07108021   0.01413183
8448.00   2.09337187   0.01478031
8450.00   2.09951401   0.01411892
8452.00   2.10749793   0.01371737
8454.00   2.12174273   0.01405985
8456.00   2.13752389   0.01460842
8458.00   2.15185475   0.01481993
8460.00   2.17160678   0.01487936
8462.00   2.17127061   0.01495183
8464.00   2.15418601   0.01508263
8466.00   2.13366508   0.01499157
8468.00   2.10499072   0.01466163
8470.00   2.07664633   0.01412981
8472.00   2.05998087   0.01331699
8474.00   2.04755592   0.01202419
8476.00   2.05840993   0.01150148
8478.00   2.10411835   0.01170475
8480.00   2.12943172   0.01175792
8482.00   2.13874292   0.01169627
8484.00   2.14129853   0.01175168
8486.00   2.13737535   0.01208367
8488.00   2.12618661   0.01259966
8490.00   2.13855147   0.01298163
8492.00   2.17449808   0.01321630
8494.00   2.19926214   0.01371540
8496.00   2.22421861   0.01461097
8498.00   2.24134183   0.01522871
8500.00   2.24599028   0.01537544
8502.00   2.24201775   0.01522185
8504.00   2.23693681   0.01480451
8506.00   2.22633910   0.01377918
8508.00   2.21614146   0.01319872
8510.00   2.20012355   0.01282120
8512.00   2.19081950   0.01252348
8514.00   2.18978572   0.01227369
8516.00   2.19524074   0.01213110
8518.00   2.20911169   0.01220009
8520.00   2.23818254   0.01259634
8522.00   2.24421096   0.01251207
8524.00   2.23165441   0.01194187
8526.00   2.22301579   0.01163311
8528.00   2.21333671   0.01164819
8530.00   2.20950055   0.01176753
8532.00   2.22440314   0.01183589
8534.00   2.25610375   0.01192319
8536.00   2.26603007   0.01202634
8538.00   2.26474404   0.01216430
8540.00   2.25909710   0.01227817
8542.00   2.24256253   0.01239074
8544.00   2.22806811   0.01247339
8546.00   2.22462225   0.01245726
8548.00   2.22721887   0.01238605
8550.00   2.22671318   0.01262253
8552.00   2.22625661   0.01303510
8554.00   2.22603130   0.01358803
8556.00   2.22600555   0.01467641
8558.00   2.22613645   0.01519058
8560.00   2.22585750   0.01464231
8562.00   2.22596216   0.01354308
8564.00   2.22908235   0.01311870
8566.00   2.23527789   0.01287542
8568.00   2.24041510   0.01308736
8570.00   2.24842882   0.01428982
8572.00   2.25161290   0.01462307
8574.00   2.24449968   0.01348818
8576.00   2.23741221   0.01194749
8578.00   2.24841690   0.01193388
8580.00   2.27966070   0.01295331
8582.00   2.27446413   0.01355822
8584.00   2.24749422   0.01413778
8586.00   2.20896745   0.01487927
8588.00   2.13585281   0.01609967
8590.00   2.07735252   0.01695887
8592.00   2.08451247   0.01678639
8594.00   2.13764954   0.01586992
8596.00   2.17052507   0.01489505
8598.00   2.22002459   0.01294787
8600.00   2.23914003   0.01186831
8602.00   2.22268581   0.01175139
8604.00   2.20812368   0.01187774
8606.00   2.21445775   0.01191976
8608.00   2.22994351   0.01206534
8610.00   2.24199319   0.01230493
8612.00   2.25883269   0.01269272
8614.00   2.26793385   0.01302879
8616.00   2.27621150   0.01324462
8618.00   2.27450991   0.01368230
8620.00   2.25858712   0.01441447
8622.00   2.23377132   0.01530592
8624.00   2.20817995   0.01630120
8626.00   2.16835880   0.01789307
8628.00   2.15905762   0.01791699
8630.00   2.18435049   0.01630578
8632.00   2.19208932   0.01518667
8634.00   2.17767024   0.01481996
8636.00   2.15388012   0.01479913
8638.00   2.12470698   0.01497501
8640.00   2.07806611   0.01554939
8642.00   2.08778167   0.01547921
8644.00   2.15730286   0.01477717
8646.00   2.20204139   0.01442553
8648.00   2.23257422   0.01443945
8650.00   2.25234056   0.01450108
8652.00   2.25822043   0.01439807
8654.00   2.25137329   0.01422756
8656.00   2.24450397   0.01421566
8658.00   2.22240782   0.01435562
8660.00   2.22047734   0.01441883
8662.00   2.24313235   0.01444731
8664.00   2.25768805   0.01447067
8666.00   2.24747372   0.01454693
8668.00   2.22547603   0.01461290
8670.00   2.21617842   0.01439963
8672.00   2.21227670   0.01382153
8674.00   2.20793056   0.01348341
8676.00   2.20545316   0.01319227
8678.00   2.20322919   0.01300538
8680.00   2.20219517   0.01300044
8682.00   2.20057559   0.01305740
8684.00   2.19337177   0.01291003
8686.00   2.17849636   0.01248391
8688.00   2.17586637   0.01263798
8690.00   2.18230748   0.01352603
8692.00   2.18877292   0.01383727
8694.00   2.19920278   0.01344406
8696.00   2.20655251   0.01285989
8698.00   2.20007920   0.01256422
8700.00   2.18205237   0.01235404
8702.00   2.17556953   0.01223278
8704.00   2.17097759   0.01226984
8706.00   2.17478037   0.01225674
8708.00   2.19473147   0.01204804
8710.00   2.20937467   0.01208206
8712.00   2.20094514   0.01281265
8714.00   2.17907834   0.01390663
8716.00   2.17937613   0.01399951
8718.00   2.19969320   0.01317123
8720.00   2.20606089   0.01281573
8722.00   2.20662665   0.01262564
8724.00   2.20286107   0.01250666
8726.00   2.19139171   0.01247208
8728.00   2.17700171   0.01249223
8730.00   2.17772675   0.01238474
8732.00   2.19817472   0.01188450
8734.00   2.19478154   0.01225833
8736.00   2.16750169   0.01372128
8738.00   2.15397072   0.01437253
8740.00   2.16876483   0.01341245
8742.00   2.18571973   0.01241156
8744.00   2.16711545   0.01421594
8746.00   2.12073612   0.01782586
8748.00   2.09000325   0.01916582
8750.00   2.04446197   0.01990538
8752.00   2.03480053   0.01987607
8754.00   2.07433343   0.01848158
8756.00   2.12191033   0.01695204
8758.00   2.14256978   0.01682880
8760.00   2.15210056   0.01755357
8762.00   2.15723228   0.01807000
8764.00   2.14826369   0.01914290
8766.00   2.14902544   0.01939736
8768.00   2.15203404   0.01865486
8770.00   2.16411114   0.01808893
8772.00   2.19495749   0.01849748
8774.00   2.23734665   0.01936133
8776.00   2.25427556   0.01959133
8778.00   2.26212454   0.01997704
8780.00   2.25012660   0.01921969
8782.00   2.20579958   0.01656501
8784.00   2.17126131   0.01443477
8786.00   2.15756035   0.01425747
8788.00   2.15453959   0.01500628
8790.00   2.15630722   0.01518212
8792.00   2.16622758   0.01554149
8794.00   2.17966175   0.01532273
8796.00   2.20671487   0.01439346
8798.00   2.22209096   0.01373286
8800.00   2.22302556   0.01353190
8802.00   2.21618629   0.01346350
8804.00   2.20443153   0.01319160
8806.00   2.18143129   0.01277886
8808.00   2.18161893   0.01272641
8810.00   2.20579815   0.01299227
8812.00   2.21732020   0.01322039
8814.00   2.21716595   0.01334385
8816.00   2.21445084   0.01362735
8818.00   2.21424866   0.01418113
8820.00   2.21407199   0.01490034
8822.00   2.21393013   0.01620613
8824.00   2.22202635   0.01851068
8826.00   2.21171856   0.01955650
8828.00   2.17536974   0.01989373
8830.00   2.14801812   0.01983578
8832.00   2.14723372   0.01939578
8834.00   2.16036391   0.01857278
8836.00   2.16701508   0.01776101
8838.00   2.17765784   0.01660523
8840.00   2.18174124   0.01572909
8842.00   2.17694592   0.01489112
8844.00   2.17841220   0.01432512
8846.00   2.19362426   0.01420283
8848.00   2.21157932   0.01432983
8850.00   2.21246862   0.01433620
8852.00   2.19707799   0.01439041
8854.00   2.19865608   0.01438630
8856.00   2.20211911   0.01423163
8858.00   2.22159028   0.01429771
8860.00   2.27381349   0.01462957
8862.00   2.32191873   0.01506886
8864.00   2.32146335   0.01552069
8866.00   2.28747725   0.01606930
8868.00   2.25887418   0.01630518
8870.00   2.20656824   0.01652576
8872.00   2.18185639   0.01625818
8874.00   2.18028307   0.01497069
8876.00   2.19235182   0.01398531
8878.00   2.22022414   0.01453942
8880.00   2.26294279   0.01595962
8882.00   2.27167964   0.01684637
8884.00   2.26077867   0.01803517
8886.00   2.23878860   0.01841657
8888.00   2.18818164   0.01809433
8890.00   2.14955401   0.01764333
8892.00   2.13971400   0.01722302
8894.00   2.14478707   0.01673135
8896.00   2.14677501   0.01627200
8898.00   2.15390730   0.01551006
8900.00   2.16046023   0.01555511
8902.00   2.17483425   0.01662353
8904.00   2.17805123   0.01712331
8906.00   2.16430855   0.01670540
8908.00   2.14335632   0.01600930
8910.00   2.12770605   0.01581965
8912.00   2.11223125   0.01564237
8914.00   2.09710217   0.01648370
8916.00   2.08821917   0.01877527
8918.00   2.06760168   0.01981327
8920.00   2.03161502   0.01978576
8922.00   1.99195051   0.01922509
8924.00   1.95438921   0.01830979
8926.00   1.91251349   0.01677637
8928.00   1.91046441   0.01565615
8930.00   1.95329022   0.01427704
8932.00   1.97814715   0.01378021
8934.00   1.99576092   0.01447887
8936.00   2.00946832   0.01523168
8938.00   2.02120137   0.01552019
8940.00   2.02949333   0.01566256
8942.00   2.02337170   0.01574812
8944.00   2.00715446   0.01571365
8946.00   1.97939074   0.01567300
8948.00   1.92678142   0.01522000
8950.00   1.88634193   0.01536727
8952.00   1.87185907   0.01669358
8954.00   1.86916173   0.01831579
8956.00   1.85841060   0.01885077
8958.00   1.85050666   0.01894880
8960.00   1.83178449   0.01848435
8962.00   1.79276860   0.01700509
8964.00   1.77297556   0.01570105
8966.00   1.78178787   0.01459969
8968.00   1.79982352   0.01374775
8970.00   1.80519080   0.01359010
8972.00   1.80550373   0.01420451
8974.00   1.81099188   0.01420514
8976.00   1.81847322   0.01372387
8978.00   1.82765830   0.01371882
8980.00   1.84200668   0.01423363
8982.00   1.85368192   0.01486568
8984.00   1.85921013   0.01540528
8986.00   1.86162889   0.01596708
8988.00   1.83395338   0.01629510
8990.00   1.73812532   0.01641522
8992.00   1.72675931   0.01657118
8994.00   1.79914153   0.01665360
8996.00   1.87206197   0.01680848
8998.00   1.91346955   0.01717925
9000.00   1.94198239   0.01763287
9002.00   1.94792283   0.01771428
9004.00   1.91108859   0.01761164
9006.00   1.91182566   0.01726415
9008.00   1.92845428   0.01644129
9010.00   1.95540082   0.01575701
9012.00   2.00171781   0.01538460
9014.00   2.05171847   0.01517840
9016.00   2.06664705   0.01504981
9018.00   2.06090903   0.01515518
9020.00   2.03812599   0.01496031
9022.00   1.97624040   0.01431469
9024.00   1.93706679   0.01412261
9026.00   1.92575359   0.01440134
9028.00   1.92524576   0.01503568
9030.00   1.92398274   0.01616057
9032.00   1.92895901   0.01787531
9034.00   1.92475617   0.01808779
9036.00   1.91113317   0.01709243
9038.00   1.90451276   0.01626363
9040.00   1.90472913   0.01511520
9042.00   1.90607905   0.01424456
9044.00   1.90708065   0.01436319
9046.00   1.90867519   0.01515249
9048.00   1.89730167   0.01561575
9050.00   1.86638129   0.01637786
9052.00   1.85286283   0.01651097
9054.00   1.84863532   0.01613081
9056.00   1.85138643   0.01554965
9058.00   1.86555076   0.01470478
9060.00   1.88522601   0.01367611
9062.00   1.88490868   0.01334645
9064.00   1.86737454   0.01373767
9066.00   1.85700321   0.01375831
9068.00   1.84062445   0.01353531
9070.00   1.83483875   0.01363420
9072.00   1.84649348   0.01425289
9074.00   1.86435795   0.01501842
9076.00   1.87176037   0.01552919
9078.00   1.87458742   0.01615210
9080.00   1.87723815   0.01590576
9082.00   1.87513781   0.01433751
9084.00   1.87788546   0.01357740
9086.00   1.89028895   0.01393256
9088.00   1.90014279   0.01457364
9090.00   1.89444387   0.01493600
9092.00   1.87761641   0.01530628
9094.00   1.86553979   0.01542189
9096.00   1.84905469   0.01521744
9098.00   1.84053528   0.01519653
9100.00   1.83989918   0.01536899
9102.00   1.84173453   0.01548198
9104.00   1.84271312   0.01536683
9106.00   1.84476030   0.01512119
9108.00   1.85223615   0.01505408
9110.00   1.87404144   0.01515866
9112.00   1.87543070   0.01510103
9114.00   1.86302352   0.01503312
9116.00   1.84395027   0.01478245
9118.00   1.81509900   0.01411879
9120.00   1.78221655   0.01328873
9122.00   1.76750791   0.01313014
9124.00   1.76434779   0.01343452
9126.00   1.76556587   0.01387190
9128.00   1.78204286   0.01495153
9130.00   1.78869009   0.01539664
9132.00   1.77548611   0.01489356
9134.00   1.76186466   0.01412385
9136.00   1.77528536   0.01404951
9138.00   1.81112909   0.01440676
9140.00   1.82779574   0.01446201
9142.00   1.83937693   0.01415973
9144.00   1.84335029   0.01438876
9146.00   1.83341670   0.01509627
9148.00   1.82451761   0.01607080
9150.00   1.83141434   0.01735453
9152.00   1.84830129   0.01892911
9154.00   1.85457039   0.01942624
9156.00   1.84981012   0.01911394
9158.00   1.85771394   0.01888227
9160.00   1.87897778   0.01845941
9162.00   1.89915371   0.01804018
9164.00   1.91246760   0.01772486
9166.00   1.92215490   0.01746446
9168.00   1.92561042   0.01733900
9170.00   1.92433167   0.01737085
9172.00   1.91642404   0.01740075
9174.00   1.89981019   0.01777738
9176.00   1.88170576   0.01766786
9178.00   1.85962749   0.01660041
9180.00   1.83859897   0.01507631
9182.00   1.83471489   0.01437266
9184.00   1.84599769   0.01419872
9186.00   1.85343373   0.01403477
9188.00   1.86668718   0.01396952
9190.00   1.87457120   0.01424208
9192.00   1.87743318   0.01518985
9194.00   1.87548804   0.01601503
9196.00   1.86476898   0.01577339
9198.00   1.84198773   0.01465029
9200.00   1.84434223   0.01424419
9202.00   1.87289035   0.01399049
9204.00   1.88686657   0.01412024
9206.00   1.88860714   0.01490214
9208.00   1.88684750   0.01556462
9210.00   1.88407600   0.01553521
9212.00   1.87867582   0.01509955
9214.00   1.88611710   0.01520753
9216.00   1.90060878   0.01577978
9218.00   1.92371798   0.01598892
9220.00   1.96192217   0.01586886
9222.00   1.99740624   0.01586374
9224.00   2.02115011   0.01622279
9226.00   2.04040575   0.01671705
9228.00   2.06890631   0.01685783
9230.00   2.12137651   0.01677976
9232.00   2.12697339   0.01667385
9234.00   2.09413934   0.01642954
9236.00   2.05846882   0.01618946
9238.00   2.02172637   0.01596017
9240.00   1.98373127   0.01574329
9242.00   1.95447361   0.01558996
9244.00   1.92647541   0.01548331
9246.00   1.91716170   0.01541614
9248.00   1.92840505   0.01544781
9250.00   1.93830419   0.01541015
9252.00   1.95177019   0.01529078
9254.00   1.96183038   0.01514141
9256.00   1.95756221   0.01492821
9258.00   1.94248807   0.01457232
9260.00   1.93013787   0.01495636
9262.00   1.91525686   0.01636985
9264.00   1.90035737   0.01682678
9266.00   1.88152897   0.01647068
9268.00   1.86720610   0.01594089
9270.00   1.86346316   0.01551533
9272.00   1.86693978   0.01504798
9274.00   1.87028611   0.01497695
9276.00   1.87185669   0.01533932
9278.00   1.88564396   0.01552542
9280.00   1.91225779   0.01545560
9282.00   1.94033504   0.01576998
9284.00   1.97498870   0.01688158
9286.00   2.00690579   0.01819897
9288.00   1.99607992   0.01859440
9290.00   1.93737519   0.01844865
9292.00   1.90960526   0.01817642
9294.00   1.88017070   0.01693642
9296.00   1.87422144   0.01671958
9298.00   1.90270901   0.01777613
9300.00   1.94526160   0.01956876
9302.00   1.97664380   0.02185510
9304.00   2.01524734   0.02474068
9306.00   2.01477313   0.02689208
9308.00   1.98717308   0.02866403
9310.00   1.94082201   0.03059041
9312.00   1.86135185   0.03302773
9314.00   1.77891278   0.03497696
9316.00   1.71742880   0.03579810
9318.00   1.66303086   0.03593957
9320.00   1.65344965   0.03499279
9322.00   1.70206785   0.03169775
9324.00   1.72536755   0.03009068
9326.00   1.73821104   0.03020723
9328.00   1.74618375   0.03034866
9330.00   1.74404883   0.02971712
9332.00   1.73698318   0.02876226
9334.00   1.76462579   0.02774586
9336.00   1.84007025   0.02586330
9338.00   1.87159550   0.02541316
9340.00   1.87718093   0.02663954
9342.00   1.87870753   0.02723414
9344.00   1.87844217   0.02656843
9346.00   1.87612152   0.02531186
9348.00   1.88261592   0.02424870
9350.00   1.90426540   0.02274160
9352.00   1.89567077   0.02214632
9354.00   1.85991609   0.02233228
9356.00   1.82869816   0.02264532
9358.00   1.79285514   0.02332529
9360.00   1.76884294   0.02390522
9362.00   1.78892732   0.02341560
9364.00   1.84980881   0.02157757
9366.00   1.87780702   0.02294226
9368.00   1.90629172   0.02575212
9370.00   1.90557063   0.02969672
9372.00   1.88005733   0.03571116
9374.00   1.82917655   0.04031477
9376.00   1.73675001   0.04196307
9378.00   1.60669994   0.04200649
9380.00   1.56130815   0.04129882
9382.00   1.56311572   0.03952919
9384.00   1.59807491   0.03644481
9386.00   1.70333886   0.02981451
9388.00   1.79130900   0.02329182
9390.00   1.82235467   0.02074746
9392.00   1.82427216   0.02121939
9394.00   1.82602930   0.02152136
9396.00   1.79355693   0.02365914
9398.00   1.80925655   0.02449687
9400.00   1.87859488   0.02500038
9402.00   1.91796577   0.02522957
9404.00   1.89732635   0.02526678
9406.00   1.86016059   0.02498693
9408.00   1.87162530   0.02400587
9410.00   1.91734695   0.02172419
9412.00   1.94156730   0.02130436
9414.00   1.96869326   0.02237045
9416.00   1.97775400   0.02332202
9418.00   1.96985424   0.02436154
9420.00   1.94560897   0.02528366
9422.00   1.89597940   0.02577061
9424.00   1.81482160   0.02604047
9426.00   1.79331243   0.02568107
9428.00   1.79437864   0.02356868
9430.00   1.84053409   0.02355184
9432.00   1.95653284   0.02503818
9434.00   2.07341814   0.02770903
9436.00   2.17308807   0.03210822
9438.00   2.26432085   0.03723696
9440.00   2.16949320   0.03826270
9442.00   1.78818166   0.03632956
9444.00   1.65656912   0.03454937
9446.00   1.68708718   0.03121293
9448.00   1.75012648   0.02819245
9450.00   1.82376063   0.02637451
9452.00   1.91378617   0.02548475
9454.00   1.94812787   0.02584686
9456.00   1.95583475   0.02811842
9458.00   1.92895591   0.02917227
9460.00   1.83204365   0.03055662
9462.00   1.77301610   0.03066625
9464.00   1.77309096   0.02859480
9466.00   1.79637754   0.02572157
9468.00   1.80561841   0.02470352
9470.00   1.80995679   0.02437402
9472.00   1.84351492   0.02618256
9474.00   1.94474602   0.03060485
9476.00   1.96443927   0.03346983
9478.00   1.88146973   0.03615135
9480.00   1.77581728   0.03729146
9482.00   1.70435619   0.03482727
9484.00   1.63534665   0.02853895
9486.00   1.63653719   0.02481405
9488.00   1.73974097   0.02187726
9490.00   1.77108562   0.01989785
9492.00   1.74653113   0.01899580
9494.00   1.71183968   0.01984683
9496.00   1.68133223   0.02284039
9498.00   1.64840579   0.02691826
9500.00   1.64707816   0.02995583
9502.00   1.66414380   0.03462317
9504.00   1.70333970   0.03495672
9506.00   1.79484475   0.03116134
9508.00   1.85389805   0.02722894
9510.00   1.84668744   0.02425673
9512.00   1.81082034   0.02181927
9514.00   1.80723774   0.02154919
9516.00   1.82667089   0.02394537
9518.00   1.81001353   0.02495174
9520.00   1.74470448   0.02592175
9522.00   1.71980286   0.02659937
9524.00   1.75683928   0.02718978
9526.00   1.80954850   0.02735211
9528.00   1.82499111   0.02640355
9530.00   1.81938982   0.02417389
9532.00   1.83400822   0.02294798
9534.00   1.86203158   0.02203459
9536.00   1.88360524   0.02153098
9538.00   1.90724349   0.02164565
9540.00   1.91935742   0.02194901
9542.00   1.89482760   0.02193130
9544.00   1.84077358   0.02177328
9546.00   1.87628388   0.02303407
9548.00   2.03776646   0.02599637
9550.00   2.07586694   0.02740334
9552.00   2.02955055   0.02808318
9554.00   1.94183266   0.02821676
9556.00   1.79211724   0.02747938
9558.00   1.60983789   0.02619123
9560.00   1.59488690   0.02642997
9562.00   1.76041281   0.02804304
9564.00   1.81156516   0.02888751
9566.00   1.84239948   0.03006474
9568.00   1.83391440   0.03032211
9570.00   1.75507951   0.02909179
9572.00   1.65597534   0.02710217
9574.00   1.64556873   0.02581027
9576.00   1.70882070   0.02456404
9578.00   1.71496236   0.02391254
9580.00   1.69442868   0.02407277
9582.00   1.67721403   0.02406220
9584.00   1.65685856   0.02386940
9586.00   1.64327729   0.02363386
9588.00   1.65385842   0.02338086
9590.00   1.68390906   0.02306847
9592.00   1.70876777   0.02294321
9594.00   1.74366415   0.02310478
9596.00   1.76612866   0.02299771
9598.00   1.77709079   0.02249651
9600.00   1.78303623   0.02210130
9602.00   1.78850663   0.02210911
9604.00   1.79120672   0.02237076
9606.00   1.78221202   0.02309234
9608.00   1.76071239   0.02469526
9610.00   1.73954952   0.02538740
9612.00   1.70708799   0.02563001
9614.00   1.68557131   0.02551998
9616.00   1.68956685   0.02487242
9618.00   1.70467937   0.02390040
9620.00   1.69431782   0.02364014
9622.00   1.65300262   0.02413221
9624.00   1.65174925   0.02386838
9626.00   1.66975236   0.02273253
9628.00   1.70559335   0.02228227
9630.00   1.76990247   0.02278975
9632.00   1.84322834   0.02387517
9634.00   1.88978052   0.02541607
9636.00   1.92364097   0.02778661
9638.00   1.94727206   0.02864815
9640.00   1.93960941   0.02691171
9642.00   1.96184587   0.02842198
9644.00   2.03895307   0.03452962
9646.00   2.10397744   0.03934231
9648.00   2.09300852   0.03947620
9650.00   2.03241277   0.03676011
9652.00   1.95618534   0.03360425
9654.00   1.79631662   0.02560782
9656.00   1.73323524   0.02165267
9658.00   1.77877760   0.02399731
9660.00   1.81891632   0.02656669
9662.00   1.78640735   0.02680060
9664.00   1.72074461   0.02631863
9666.00   1.69113934   0.02608440
9668.00   1.66589522   0.02565001
9670.00   1.66916585   0.02536002
9672.00   1.70501184   0.02498969
9674.00   1.74478686   0.02490005
9676.00   1.79019535   0.02533528
9678.00   1.83367968   0.02598561
9680.00   1.83534551   0.02620973
9682.00   1.79989231   0.02626753
9684.00   1.77013540   0.02613144
9686.00   1.71133542   0.02558338
9688.00   1.68629980   0.02526340
9690.00   1.71462178   0.02523372
9692.00   1.75683391   0.02537843
9694.00   1.76497877   0.02566769
9696.00   1.75692928   0.02616769
9698.00   1.74696934   0.02649666
9700.00   1.71761441   0.02671927
9702.00   1.70848525   0.02702060
9704.00   1.72831202   0.02744300
9706.00   1.74596095   0.02783037
9708.00   1.73312771   0.02808641
9710.00   1.70095551   0.02826880
9712.00   1.69654334   0.02824271
9714.00   1.71920371   0.02776119
9716.00   1.71969748   0.02776746
9718.00   1.70437932   0.02807476
9720.00   1.68423331   0.02863162
9722.00   1.65781498   0.02979863
9724.00   1.62836480   0.03114142
9726.00   1.62829304   0.03055276
9728.00   1.66481698   0.02709904
9730.00   1.67386687   0.02616856
9732.00   1.66509652   0.02713800
9734.00   1.66375554   0.02774398
9736.00   1.68321395   0.02750487
9738.00   1.70476604   0.02697054
9740.00   1.69324076   0.02656582
9742.00   1.65277696   0.02614766
9744.00   1.62703681   0.02559894
9746.00   1.59074175   0.02477661
9748.00   1.57865775   0.02417767
9750.00   1.61014295   0.02396883
9752.00   1.64189517   0.02380108
9754.00   1.61615956   0.02320887
9756.00   1.54289854   0.02221915
9758.00   1.54042864   0.02201628
9760.00   1.60051501   0.02255042
9762.00   1.62886035   0.02283102
9764.00   1.63024330   0.02307926
9766.00   1.62780273   0.02314461
9768.00   1.63395202   0.02274401
9770.00   1.64243877   0.02198431
9772.00   1.64922750   0.02201388
9774.00   1.65034735   0.02263175
9776.00   1.66337633   0.02319645
9778.00   1.69488645   0.02341953
9780.00   1.71658421   0.02443561
9782.00   1.71476364   0.02679639
9784.00   1.70081997   0.02965849
9786.00   1.69528258   0.03165866
9788.00   1.69633925   0.03362294
9790.00   1.68298697   0.03477388
9792.00   1.65953875   0.03570083
9794.00   1.63153458   0.03565183
9796.00   1.58794856   0.03402134
9798.00   1.54887199   0.03168107
9800.00   1.55815005   0.03049313
9802.00   1.61488807   0.02996404
9804.00   1.63270760   0.02923059
9806.00   1.63179696   0.02850357
9808.00   1.63287640   0.02799042
9810.00   1.63828826   0.02750900
9812.00   1.63926411   0.02744849
9814.00   1.62426865   0.02853744
9816.00   1.59362972   0.03067200
9818.00   1.59826362   0.03046754
9820.00   1.63365066   0.02774967
9822.00   1.66076100   0.02649204
9824.00   1.69762504   0.02665891
9826.00   1.71755457   0.02688343
9828.00   1.69657087   0.02642083
9830.00   1.64889884   0.02567166
9832.00   1.62856352   0.02522713
9834.00   1.62197602   0.02478912
9836.00   1.61116803   0.02468800
9838.00   1.58995521   0.02480326
9840.00   1.58770072   0.02523321
9842.00   1.62495470   0.02597868
9844.00   1.67760623   0.02700914
9846.00   1.68786144   0.02838754
9848.00   1.67160285   0.03062104
9850.00   1.65262425   0.03135322
9852.00   1.60536432   0.03119398
9854.00   1.58263206   0.03069362
9856.00   1.59697533   0.02961344
9858.00   1.62431085   0.02833433
9860.00   1.63830066   0.02750632
9862.00   1.65161860   0.02633100
9864.00   1.65395176   0.02812339
9866.00   1.63588500   0.03302073
9868.00   1.63620651   0.03596464
9870.00   1.66113055   0.03789458
9872.00   1.68651032   0.03892059
9874.00   1.69086003   0.03870508
9876.00   1.68244755   0.03735866
9878.00   1.69244075   0.03594462
9880.00   1.73316455   0.03349111
9882.00   1.73121560   0.03168215
9884.00   1.67477024   0.02989781
9886.00   1.63257229   0.02900223
9888.00   1.64559960   0.02970519
9890.00   1.68589079   0.03148768
9892.00   1.69035733   0.03308893
9894.00   1.68242431   0.03571702
9896.00   1.65946209   0.03664133
9898.00   1.60142040   0.03663519
9900.00   1.56540132   0.03602084
9902.00   1.56502151   0.03421863
9904.00   1.58668876   0.03203414
9906.00   1.62415707   0.03218241
9908.00   1.69577646   0.03397608
9910.00   1.73147202   0.03586028
9912.00   1.76499760   0.03926438
9914.00   1.76057935   0.04101342
9916.00   1.67892492   0.04032537
9918.00   1.60261214   0.03945762
9920.00   1.64798892   0.04148005
9922.00   1.79210711   0.04577526
9924.00   1.83581507   0.04543411
9926.00   1.85778940   0.04098295
9928.00   1.81392825   0.03740376
9930.00   1.65018463   0.03320545
9932.00   1.50854445   0.03024460
9934.00   1.50669885   0.03106656
9936.00   1.58945513   0.03453743
9938.00   1.61252546   0.03800034
9940.00   1.63575196   0.04285027
9942.00   1.62528038   0.04645349
9944.00   1.55511487   0.05015361
9946.00   1.51342118   0.05255722
9948.00   1.54453349   0.05301727
9950.00   1.61340857   0.05229462
9952.00   1.65737438   0.05195973
9954.00   1.71853328   0.05112309
9956.00   1.72883415   0.05087961
9958.00   1.70909190   0.05153863
9960.00   1.65775323   0.05133388
9962.00   1.55067337   0.04948176
9964.00   1.42998862   0.04706769
9966.00   1.38016808   0.04610184
9968.00   1.36664009   0.04618005
9970.00   1.39341295   0.04570362
9972.00   1.49756789   0.04567939
9974.00   1.56457198   0.04458382
9976.00   1.59030712   0.04151220
9978.00   1.60153401   0.03823808
9980.00   1.61311114   0.03722191
9982.00   1.61575174   0.03777440
9984.00   1.63440573   0.03800825
9986.00   1.67676449   0.03931948
9988.00   1.69264829   0.03923772
9990.00   1.69778633   0.03719367
9992.00   1.67534792   0.03550892
9994.00   1.59935796   0.03598576
9996.00   1.48489225   0.03766340
9998.00   1.43565750   0.03864352
10000.00   1.40332389   0.03890141
10002.00   1.42788851   0.04072629
10004.00   1.54355562   0.04315864
10006.00   1.63160670   0.04667412
10008.00   1.65374553   0.05207734
10010.00   1.64026630   0.05767972
10012.00   1.60718131   0.06001481
10014.00   1.51711392   0.06077795
10016.00   1.49163401   0.06006053
10018.00   1.50044572   0.05650659
10020.00   1.52516484   0.05360639
10022.00   1.58366787   0.05172616
10024.00   1.64196062   0.05056714
10026.00   1.63686419   0.05075749
10028.00   1.58570433   0.05303744
10030.00   1.53867710   0.05168542
10032.00   1.45466506   0.04629111
10034.00   1.41026664   0.04275820
10036.00   1.40631461   0.04118182
10038.00   1.42267466   0.04090523
10040.00   1.44863617   0.04213655
10042.00   1.49056065   0.04496452
10044.00   1.52976501   0.04521926
10046.00   1.60052204   0.04357646
10048.00   1.61307180   0.04247279
10050.00   1.55412471   0.04107504
10052.00   1.50257325   0.04023841
10054.00   1.49736285   0.04053781
10056.00   1.51548636   0.04163282
10058.00   1.54394364   0.04312904
10060.00   1.61607945   0.04618190
10062.00   1.63541281   0.04711330
10064.00   1.61188924   0.04662722
10066.00   1.59254217   0.04588648
10068.00   1.58228147   0.04432864
10070.00   1.58075941   0.04296494
10072.00   1.61241174   0.04539699
10074.00   1.68894053   0.05086843
10076.00   1.72002447   0.05482299
10078.00   1.73946035   0.06066672
10080.00   1.72939193   0.06261809
10082.00   1.66571534   0.05925019
10084.00   1.59767962   0.05405309
10086.00   1.60008776   0.05199246
10088.00   1.66331458   0.05147127
10090.00   1.63324749   0.05062575
10092.00   1.52149010   0.04974044
10094.00   1.44573963   0.04986661
10096.00   1.38971949   0.05142826
10098.00   1.35345435   0.05303365
10100.00   1.34446275   0.05369612
10102.00   1.35946667   0.05391503
10104.00   1.38644528   0.05439638
10106.00   1.43500733   0.05585178
10108.00   1.48723865   0.05517964
10110.00   1.56351650   0.05131907
10112.00   1.62186611   0.04847413
10114.00   1.63397682   0.04890054
10116.00   1.62344277   0.05123011
10118.00   1.65399253   0.05430509
10120.00   1.71992087   0.05987047
10122.00   1.76000321   0.06238709
10124.00   1.83481956   0.06404722
10126.00   1.82606041   0.06403985
10128.00   1.65643573   0.06146803
10130.00   1.44612086   0.05755129
10132.00   1.41727901   0.05509456
10134.00   1.51994646   0.05260881
10136.00   1.57112527   0.05235725
10138.00   1.67192507   0.05548666
10140.00   1.69096386   0.05657551
10142.00   1.57106280   0.05455391
10144.00   1.45062542   0.05253536
10146.00   1.48540425   0.05398679
10148.00   1.62469006   0.05756202
10150.00   1.70684803   0.06046682
10152.00   1.84214926   0.06512330
10154.00   1.85057032   0.06663990
10156.00   1.69043398   0.06422547
10158.00   1.53478491   0.06213935
10160.00   1.49193740   0.06362037
10162.00   1.50509477   0.06689367
10164.00   1.53096282   0.06839085
10166.00   1.59443581   0.06806402
10168.00   1.66304362   0.07035372
10170.00   1.80378318   0.07616485
10172.00   1.86110413   0.07951161
10174.00   1.74936664   0.07828217
10176.00   1.55208313   0.07458967
10178.00   1.44623065   0.07201698
10180.00   1.32560432   0.06712077
10182.00   1.34206963   0.06776108
10184.00   1.54482889   0.07314222
10186.00   1.66364980   0.07832212
10188.00   1.66679287   0.08520968
10190.00   1.60278046   0.09011916
10192.00   1.47180820   0.08558332
10194.00   1.21062624   0.06935513
10196.00   1.16743052   0.06359862
10198.00   1.27867854   0.06491578
10200.00   1.40379667   0.06684830
10202.00   1.58369040   0.07003979
10204.00   1.75843918   0.07412559
10206.00   1.86727488   0.07887953
10208.00   1.94522202   0.08465720
10210.00   1.90713120   0.08618852
10212.00   1.71138883   0.08421294
10214.00   1.58137846   0.08272874
10216.00   1.45938039   0.08029947
10218.00   1.38026977   0.07847976
10220.00   1.37808084   0.07866403
10222.00   1.43076217   0.07999746
10224.00   1.46640718   0.07987428
10226.00   1.52447462   0.07883547
10228.00   1.55829096   0.07815732
10230.00   1.57325315   0.07781821
10232.00   1.58963454   0.07692339
10234.00   1.62507224   0.07505140
10236.00   1.65617120   0.07259925
10238.00   1.62606525   0.07025872
10240.00   1.53986406   0.06674112
10242.00   1.46688259   0.06622717
10244.00   1.33441234   0.07009654
10246.00   1.29217362   0.07078145
10248.00   1.38847339   0.06632789
10250.00   1.52275646   0.06051873
10252.00   1.57713091   0.05891472
10254.00   1.60251904   0.05985311
10256.00   1.59187269   0.06102514
10258.00   1.52876270   0.06327987
10260.00   1.47071898   0.06602358
10262.00   1.36781955   0.07079526
10264.00   1.31771541   0.07394373
10266.00   1.44169402   0.07206680
10268.00   1.69736791   0.06628218
10270.00   1.72133136   0.06544351
10272.00   1.55729258   0.06706057
10274.00   1.46332479   0.06986737
10276.00   1.31149709   0.07299557
10278.00   1.28270996   0.07874423
10280.00   1.53575981   0.08872562
10282.00   1.93671286   0.10005364
10284.00   2.03109121   0.10648022
10286.00   1.93064058   0.11209054
10288.00   1.81686616   0.11333866
10290.00   1.55589569   0.11013244
10292.00   1.37021816   0.10608063
10294.00   1.29787683   0.10125063
10296.00   1.30168676   0.09574720
10298.00   1.39534819   0.09174772
10300.00   1.65230393   0.08854418
10302.00   1.70655799   0.08616751
10304.00   1.63151395   0.08553645
10306.00   1.54551196   0.08424034
10308.00   1.39976692   0.08195040
10310.00   1.28237307   0.07952397
10312.00   1.33538651   0.07777175
10314.00   1.53066850   0.07639346
10316.00   1.58832884   0.07525395
10318.00   1.58295083   0.07282945
10320.00   1.56686866   0.07409131
10322.00   1.51795697   0.08037984
10324.00   1.46902037   0.08580802
10326.00   1.42700982   0.08749036
10328.00   1.38720357   0.08725861
10330.00   1.48036587   0.08527593
10332.00   1.80597150   0.07808263
10334.00   1.88822067   0.07616691
10336.00   1.71972442   0.07746739
10338.00   1.62812281   0.08122092
10340.00   1.78564858   0.08901866
10342.00   2.03517509   0.09766291
10344.00   2.03944707   0.09803993
10346.00   1.81004298   0.08970523
10348.00   1.76716220   0.08784037
10350.00   1.83714259   0.08990007
10352.00   1.87192237   0.09070102
10354.00   1.84084928   0.08920151
10356.00   1.79122281   0.08701306
10358.00   1.77184284   0.08580188
10360.00   1.77151656   0.08474840
10362.00   1.74473703   0.08474512
10364.00   1.68114543   0.08431395
10366.00   1.65507078   0.08705996
10368.00   1.67042553   0.09447813
10370.00   1.70419848   0.10150287
10372.00   1.75424170   0.10482851
10374.00   1.83559930   0.10670031
10376.00   1.79164863   0.10346518
10378.00   1.57047606   0.09036291
10380.00   1.50223386   0.08417615
10382.00   1.56631684   0.08448846
10384.00   1.66027033   0.08711711
10386.00   1.75620830   0.09132048
10388.00   1.86547077   0.09694773
10390.00   1.85496080   0.09642527
10392.00   1.68977809   0.08852112
10394.00   1.64303029   0.08609336
10396.00   1.67335200   0.08763848
10398.00   1.69365656   0.08847924
10400.00   1.66940224   0.08707798
10402.00   1.63632131   0.08487680
10404.00   1.65197670   0.08362903
10406.00   1.70055068   0.08165241
10408.00   1.75744224   0.08314849
10410.00   1.86294210   0.08622225
10412.00   1.92224622   0.09212767
10414.00   1.92701948   0.10271634
10416.00   1.89490151   0.11266796
10418.00   1.82255161   0.11663199
10420.00   1.67960727   0.11811692
10422.00   1.66387475   0.11389269
10424.00   1.75706196   0.09837969
10426.00   1.82152534   0.08854968
10428.00   1.86688554   0.08656488
10430.00   1.90935552   0.08668189
10432.00   1.98297286   0.08417723
10434.00   2.08662033   0.08087152
10436.00   1.94523180   0.08355055
10438.00   1.46483552   0.09137469
10440.00   1.24848759   0.09813230
10442.00   1.17060494   0.10938542
10444.00   1.22096753   0.11405165
10446.00   1.48034513   0.10463858
10448.00   1.86887908   0.08473829
10450.00   1.93642557   0.07836206
10452.00   1.66784823   0.08439742
10454.00   1.66336298   0.08428408
10456.00   1.80524516   0.08216678
10458.00   1.93501878   0.08159102
10460.00   2.05904961   0.08377140
10462.00   2.14580369   0.08712273
10464.00   2.04160070   0.08979191
10466.00   1.72114325   0.09331758
10468.00   1.56835139   0.09404451
10470.00   1.44710732   0.09284884
10472.00   1.40937340   0.09064937
10474.00   1.50354135   0.08636994
10476.00   1.62544656   0.08178328
10478.00   1.64142668   0.07972712
10480.00   1.59201479   0.07915138
10482.00   1.61142099   0.08017599
10484.00   1.69379473   0.08412782
10486.00   1.72157621   0.08647536
10488.00   1.67141438   0.08849352
10490.00   1.64078343   0.08902285
10492.00   1.70804048   0.08623738
10494.00   1.83585787   0.08067423
10496.00   1.89745033   0.07939962
10498.00   1.92184651   0.08092872
10500.00   1.95688963   0.08265863
10502.00   1.99183464   0.08571701
10504.00   2.02475500   0.08857393
10506.00   2.05998969   0.09107422
10508.00   2.09202290   0.09317213
10510.00   2.09758568   0.09315693
10512.00   2.11115384   0.08922553
10514.00   2.03899479   0.09023164
10516.00   1.86450732   0.09570185
10518.00   1.71327507   0.09914109
10520.00   1.58039367   0.10000207
10522.00   1.48386300   0.09927440
10524.00   1.50647044   0.09662516
10526.00   1.66255069   0.09055134
10528.00   1.70921648   0.08835541
10530.00   1.70689690   0.08914606
10532.00   1.70255935   0.08929361
10534.00   1.68108356   0.08858690
10536.00   1.66696644   0.08811231
10538.00   1.69975781   0.08885030
10540.00   1.77199101   0.09055038
10542.00   1.77801800   0.09106819
10544.00   1.72546732   0.09051590
10546.00   1.70063925   0.09082259
10548.00   1.68784702   0.09186884
10550.00   1.68727338   0.09306708
10552.00   1.71078885   0.09432027
10554.00   1.75069976   0.09565100
10556.00   1.74163783   0.09584714
10558.00   1.67871118   0.09440614
10560.00   1.65442109   0.09444177
10562.00   1.65800786   0.09552378
10564.00   1.65297782   0.09659465
10566.00   1.61488724   0.09733555
10568.00   1.57192528   0.09802346
10570.00   1.59503841   0.09883649
10572.00   1.70941281   0.09912463
10574.00   1.70981288   0.10117103
10576.00   1.60289359   0.10556636
10578.00   1.54820466   0.10832982
10580.00   1.57580376   0.10916618
10582.00   1.62904608   0.10890914
10584.00   1.65646434   0.10782448
10586.00   1.69433236   0.10519096
10588.00   1.65406036   0.10442985
10590.00   1.51351333   0.10545278
10592.00   1.42620754   0.10529091
10594.00   1.38553560   0.10354338
10596.00   1.36725843   0.10182832
10598.00   1.36593330   0.10159875
10600.00   1.38736689   0.10229702
10602.00   1.38167489   0.10224041
10604.00   1.33354223   0.10148513
10606.00   1.34608281   0.10166714
10608.00   1.44154811   0.10311406
10610.00   1.50982249   0.10412004
10612.00   1.48025036   0.10365646
10614.00   1.40158141   0.10242949
10616.00   1.40086937   0.10221653
10618.00   1.47350121   0.10284106
10620.00   1.48154175   0.10276633
10622.00   1.45177889   0.10242758
10624.00   1.41895473   0.10183384
10626.00   1.38374913   0.10077847
10628.00   1.35013974   0.09957429
10630.00   1.34684682   0.09911103
10632.00   1.38567197   0.09948996
10634.00   1.36644650   0.09880641
10636.00   1.28698862   0.09719636
10638.00   1.24390197   0.09592636
10640.00   1.25034714   0.09510963
10642.00   1.27277601   0.09446068
10644.00   1.28268623   0.09382607
10646.00   1.29461265   0.09334667
10648.00   1.29213023   0.09249840
10650.00   1.26752043   0.09119114
10652.00   1.26119506   0.09020168
10654.00   1.27198946   0.08955947
10656.00   1.28898966   0.08895648
10658.00   1.30142152   0.08809987
10660.00   1.31351233   0.08710621
10662.00   1.36520243   0.08682905
10664.00   1.51175094   0.08783311
10666.00   1.52827775   0.08734556
10668.00   1.39511454   0.08534453
10670.00   1.29927850   0.08348281
10672.00   1.33858669   0.08259147
10674.00   1.43470597   0.08208104
10676.00   1.42924631   0.08097800
10678.00   1.35020447   0.07955460
10680.00   1.30404305   0.07805210
10682.00   1.24433768   0.07607453
10684.00   1.21242201   0.07448575
10686.00   1.22616971   0.07362126
10688.00   1.25822806   0.07304823
10690.00   1.26485169   0.07211630
10692.00   1.25752687   0.07103886
10694.00   1.26559794   0.07001007
10696.00   1.28146148   0.06888371
10698.00   1.30048537   0.06791250
10700.00   1.32367194   0.06719345
10702.00   1.34958649   0.06650132
10704.00   1.38090682   0.06561724
10706.00   1.42264879   0.06464953
10708.00   1.41694617   0.06344081
10710.00   1.35065305   0.06158234
10712.00   1.32516241   0.06046812
10714.00   1.32353401   0.05999250
10716.00   1.34421659   0.05991863
10718.00   1.40446103   0.06021753
10720.00   1.49411905   0.06089469
10722.00   1.50422931   0.06140074
10724.00   1.46987832   0.06338885
10726.00   1.40085256   0.06201617
10728.00   1.23489058   0.05566895
10730.00   1.13085008   0.05102514
10732.00   1.16366172   0.05252976
10734.00   1.26130736   0.05635594
10736.00   1.29241800   0.05566335
10738.00   1.30166638   0.05127230
10740.00   1.30686307   0.04964836
10742.00   1.30808806   0.04944971
10744.00   1.28974867   0.04929117
10746.00   1.21582305   0.04906528
10748.00   1.15343940   0.04894048
10750.00   1.22473431   0.04886257
10752.00   1.42357242   0.04883739
10754.00   1.49911320   0.04896175
10756.00   1.51449847   0.05003335
10758.00   1.51935196   0.04953211
10760.00   1.50359118   0.04659970
10762.00   1.47812462   0.04341821
10764.00   1.45150101   0.04246998
10766.00   1.41568768   0.04293984
10768.00   1.42522132   0.04253395
10770.00   1.49666941   0.04185109
10772.00   1.51860178   0.04141475
10774.00   1.50705171   0.04162572
10776.00   1.47789657   0.04123648
10778.00   1.42602289   0.03891259
10780.00   1.35767698   0.03535542
10782.00   1.34115982   0.03534115
10784.00   1.39551306   0.03938550
10786.00   1.37506759   0.04017462
10788.00   1.26966727   0.03884636
10790.00   1.21815085   0.03814794
10792.00   1.28338528   0.03897338
10794.00   1.39009261   0.04039751
10796.00   1.40215433   0.04155564
10798.00   1.34448051   0.04350289
10800.00   1.33374012   0.04315200
10802.00   1.33019602   0.04053763
10804.00   1.34556603   0.03810393
10806.00   1.39788342   0.03579698
10808.00   1.45060134   0.03367241
10810.00   1.44920826   0.03238457
10812.00   1.40409911   0.03179726
10814.00   1.40255213   0.03176446
10816.00   1.43118548   0.03295739
10818.00   1.44454932   0.03345883
10820.00   1.44252813   0.03350064
10822.00   1.43972468   0.03320212
10824.00   1.44834745   0.03234584
10826.00   1.46355009   0.03092218
10828.00   1.45535100   0.03074690
10830.00   1.41004491   0.03224609
10832.00   1.40535569   0.03208942
10834.00   1.45040274   0.02994397
10836.00   1.47637641   0.02846933
10838.00   1.43622994   0.02933797
10840.00   1.36935961   0.03130319
10842.00   1.38963234   0.03220468
10844.00   1.51690602   0.03374299
10846.00   1.53826582   0.03288362
10848.00   1.49571681   0.02857326
10850.00   1.44797885   0.02544807
10852.00   1.38591433   0.02590976
10854.00   1.33139753   0.02749454
10856.00   1.36047292   0.02681804
10858.00   1.48700309   0.02451012
10860.00   1.50192285   0.02356055
