# File created by shivutils (I.Shivvers)
# wl(A)   flm    er(optional)
3442.00   -0.53388333   0.14009595
3444.00   0.19025032   0.14784895
3446.00   1.10953641   0.16548887
3448.00   0.16362005   0.16386361
3450.00   0.49561030   0.18082507
3452.00   0.43923819   0.19193654
3454.00   -0.10547350   0.19515721
3456.00   -0.08610149   0.18624301
3458.00   0.11503355   0.18297029
3460.00   0.43637663   0.18475592
3462.00   0.35717639   0.17887588
3464.00   0.56340271   0.17556356
3466.00   0.44807711   0.17688820
3468.00   0.63301384   0.17944078
3470.00   0.61207712   0.17990032
3472.00   0.34057048   0.17449868
3474.00   0.70763397   0.17276229
3476.00   0.04052988   0.17421323
3478.00   0.81097800   0.18570493
3480.00   0.20626485   0.19510791
3482.00   0.01068217   0.20142649
3484.00   0.20770997   0.20315506
3486.00   0.39696082   0.19733837
3488.00   0.18439502   0.19346638
3490.00   0.75490320   0.19461031
3492.00   -0.07878945   0.18831563
3494.00   0.80676889   0.18758044
3496.00   0.29225844   0.18419792
3498.00   0.51922339   0.18524848
3500.00   0.50856179   0.18398535
3502.00   0.27780175   0.18246439
3504.00   0.38858530   0.18142022
3506.00   0.19434363   0.17793806
3508.00   0.19082685   0.17797796
3510.00   0.54628885   0.18435749
3512.00   0.28162864   0.18287517
3514.00   0.45274672   0.17799865
3516.00   0.79139161   0.17747204
3518.00   0.59140283   0.17425372
3520.00   0.09838798   0.17104799
3522.00   0.28449315   0.17063172
3524.00   0.54761940   0.17118502
3526.00   0.68179339   0.17156468
3528.00   0.79518181   0.17092156
3530.00   0.17855813   0.17095864
3532.00   0.86522633   0.17139515
3534.00   0.31155303   0.16836752
3536.00   0.10565839   0.17290899
3538.00   0.47241488   0.17527492
3540.00   0.21968590   0.18147747
3542.00   -0.00168419   0.19260123
3544.00   0.33983469   0.19692716
3546.00   0.35628086   0.19501334
3548.00   0.53456146   0.19190520
3550.00   0.16886237   0.18642063
3552.00   0.38145345   0.18789190
3554.00   0.44751176   0.19039108
3556.00   0.03940023   0.18838403
3558.00   -0.20829503   0.18886569
3560.00   0.03017013   0.18457650
3562.00   0.36091396   0.17366169
3564.00   0.50927746   0.17296632
3566.00   0.36469558   0.17405981
3568.00   0.17900248   0.16826312
3570.00   0.27365449   0.16473748
3572.00   0.54353565   0.16940767
3574.00   0.78671253   0.16964751
3576.00   0.37414894   0.16185029
3578.00   0.55754375   0.15868528
3580.00   1.07732737   0.15773700
3582.00   0.74027687   0.15266897
3584.00   0.12561804   0.14861551
3586.00   0.70705289   0.14261472
3588.00   0.67120880   0.14113526
3590.00   0.49524266   0.14658490
3592.00   0.82807910   0.15005693
3594.00   0.73686939   0.14393605
3596.00   0.22378573   0.14109391
3598.00   0.08120210   0.13813117
3600.00   0.69498163   0.13963610
3602.00   0.52091569   0.13657579
3604.00   0.71439093   0.13780950
3606.00   0.60747349   0.13246860
3608.00   0.51480228   0.13292733
3610.00   0.38927278   0.13274397
3612.00   0.71228617   0.13952616
3614.00   0.38044438   0.14484441
3616.00   0.18336187   0.14738531
3618.00   0.26523158   0.14256954
3620.00   0.65304464   0.13686478
3622.00   0.40549821   0.13582894
3624.00   0.66693974   0.13335237
3626.00   0.64436984   0.13295378
3628.00   0.64611614   0.13386747
3630.00   0.01452549   0.13849320
3632.00   0.02313221   0.14223024
3634.00   0.56099629   0.14036894
3636.00   0.68692005   0.13861781
3638.00   0.13119642   0.13520186
3640.00   0.45550966   0.13992177
3642.00   0.80855298   0.14383024
3644.00   0.49773642   0.14518838
3646.00   0.72848159   0.14668532
3648.00   0.25428492   0.18031073
3650.00   0.22234948   0.21945432
3652.00   0.67792523   0.21071817
3654.00   0.60476458   0.18372899
3656.00   0.31036457   0.16920294
3658.00   0.10864314   0.14235292
3660.00   0.56298202   0.13850202
3662.00   0.07809666   0.15515076
3664.00   0.13324295   0.15982269
3666.00   0.46273708   0.13396482
3668.00   0.52361465   0.11979645
3670.00   0.51963979   0.11580710
3672.00   0.44033724   0.11264613
3674.00   0.64506549   0.11241812
3676.00   0.53239477   0.11085430
3678.00   0.31824070   0.10713181
3680.00   0.25164589   0.10685569
3682.00   0.54423028   0.10653261
3684.00   0.15067309   0.10260304
3686.00   0.36374742   0.10270485
3688.00   0.40992802   0.10424131
3690.00   0.19549415   0.10133262
3692.00   0.33284807   0.10684454
3694.00   0.30920216   0.10477966
3696.00   0.28376278   0.10342716
3698.00   0.49847808   0.10775245
3700.00   0.92477453   0.11316559
3702.00   0.25385258   0.10975691
3704.00   0.18377040   0.10412134
3706.00   0.25459960   0.10469620
3708.00   0.51155812   0.10435706
3710.00   0.11840556   0.10254668
3712.00   0.20619157   0.10144282
3714.00   0.54912257   0.10150715
3716.00   0.61255795   0.10103853
3718.00   0.57826209   0.09886622
3720.00   0.65814531   0.09806031
3722.00   0.74715501   0.09768787
3724.00   0.63188636   0.09956247
3726.00   0.54736674   0.10427190
3728.00   0.47707045   0.10765576
3730.00   0.40016523   0.10461076
3732.00   0.63327199   0.10200714
3734.00   0.50735921   0.09909525
3736.00   0.19227974   0.10055689
3738.00   0.60025901   0.10344405
3740.00   0.52094406   0.10627040
3742.00   0.38034025   0.10293635
3744.00   0.63896042   0.09877854
3746.00   0.63399744   0.09705368
3748.00   0.57836109   0.09617492
3750.00   0.41204652   0.09276772
3752.00   0.57426518   0.09356990
3754.00   0.63483405   0.09402189
3756.00   0.54165655   0.09225856
3758.00   0.64702410   0.09181884
3760.00   0.54837728   0.09049085
3762.00   0.40190715   0.08751197
3764.00   0.60555291   0.08990062
3766.00   0.50245965   0.08712844
3768.00   0.56097472   0.08511531
3770.00   0.60896891   0.08581420
3772.00   0.56318641   0.08745876
3774.00   0.56445611   0.08711422
3776.00   0.35332444   0.08386807
3778.00   0.31465343   0.08333837
3780.00   0.40687332   0.08273610
3782.00   0.54186368   0.08337001
3784.00   0.36936563   0.08137042
3786.00   0.49936607   0.08046751
3788.00   0.45830363   0.07986413
3790.00   0.41001660   0.08320925
3792.00   0.43766916   0.08316391
3794.00   0.44998565   0.08219603
3796.00   0.58170342   0.08024900
3798.00   0.35288841   0.07574176
3800.00   0.50661385   0.07964897
3802.00   0.49764273   0.08146437
3804.00   0.67497557   0.08360550
3806.00   0.64028394   0.07897422
3808.00   0.22403589   0.07472498
3810.00   0.12548175   0.07544654
3812.00   0.49563298   0.07833323
3814.00   0.34413454   0.07895082
3816.00   0.49030024   0.07986730
3818.00   0.41425690   0.07966992
3820.00   0.29293689   0.07742222
3822.00   0.24119996   0.07751802
3824.00   0.28341743   0.07628989
3826.00   0.34045619   0.07650005
3828.00   0.42586431   0.08157431
3830.00   0.48204041   0.08680765
3832.00   0.32971808   0.08509981
3834.00   0.61337012   0.08219669
3836.00   0.44615713   0.08015658
3838.00   0.39805815   0.07914823
3840.00   0.39711672   0.07919963
3842.00   0.27082500   0.07759319
3844.00   0.60674471   0.07843402
3846.00   0.34735456   0.07544724
3848.00   0.54259312   0.07628550
3850.00   0.54181778   0.07497212
3852.00   0.44480607   0.07362909
3854.00   0.70771915   0.07444319
3856.00   0.45801327   0.07534287
3858.00   0.34221640   0.07097717
3860.00   0.43416673   0.07289562
3862.00   0.53357351   0.07464109
3864.00   0.35650301   0.07255002
3866.00   0.46525845   0.07198279
3868.00   0.49012271   0.07067883
3870.00   0.10355064   0.06798048
3872.00   0.59620249   0.07177193
3874.00   0.50113380   0.07525746
3876.00   0.32833767   0.07276274
3878.00   0.32636717   0.06980437
3880.00   0.47991934   0.06902722
3882.00   0.45310673   0.06745136
3884.00   0.35980982   0.06688221
3886.00   0.39640719   0.06730378
3888.00   0.52477098   0.06959143
3890.00   0.43612659   0.06648583
3892.00   0.38809201   0.06612754
3894.00   0.41086605   0.06658349
3896.00   0.59844023   0.06891959
3898.00   0.56072754   0.06833158
3900.00   0.46855909   0.06893624
3902.00   0.42306912   0.06956349
3904.00   0.46879318   0.07358689
3906.00   0.64058191   0.08403537
3908.00   0.45639902   0.08946287
3910.00   0.54579657   0.09024868
3912.00   0.47353163   0.08997273
3914.00   0.50057709   0.08534175
3916.00   0.40455374   0.07637133
3918.00   0.45066130   0.07285932
3920.00   0.54519391   0.06962200
3922.00   0.35933930   0.06522165
3924.00   0.39721167   0.06533796
3926.00   0.28693154   0.06453224
3928.00   0.55181611   0.06430066
3930.00   0.68003476   0.06927752
3932.00   0.57882673   0.07194635
3934.00   0.39567891   0.06706387
3936.00   0.59716493   0.06587199
3938.00   0.51196146   0.06264044
3940.00   0.47596890   0.06453893
3942.00   0.44177312   0.06905538
3944.00   0.53445560   0.07110986
3946.00   0.67671889   0.06993178
3948.00   0.79570782   0.06750090
3950.00   0.61427701   0.06529955
3952.00   0.63714373   0.06413679
3954.00   0.72137445   0.06413121
3956.00   0.58796197   0.06182953
3958.00   0.72031653   0.06303156
3960.00   0.62809807   0.06583191
3962.00   0.56925625   0.06708157
3964.00   0.77600586   0.06424481
3966.00   0.55779850   0.05820947
3968.00   0.53040719   0.05786956
3970.00   0.67956471   0.05871605
3972.00   0.64489919   0.06056110
3974.00   0.66888452   0.06064688
3976.00   0.66102582   0.06028138
3978.00   0.73981071   0.06206120
3980.00   0.71713114   0.06178777
3982.00   0.67791349   0.05921620
3984.00   0.75795853   0.06042356
3986.00   0.86862338   0.06178295
3988.00   0.71407515   0.06131866
3990.00   0.85927844   0.06229952
3992.00   0.77959001   0.06120074
3994.00   0.75763971   0.06335206
3996.00   0.94292158   0.06859057
3998.00   0.68724149   0.06667949
4000.00   0.83402884   0.06336058
4002.00   0.85503787   0.06215536
4004.00   0.80437416   0.06090536
4006.00   0.68481082   0.06045408
4008.00   0.81604666   0.06363132
4010.00   0.70819050   0.06389818
4012.00   0.61184227   0.06377668
4014.00   0.61851001   0.06258127
4016.00   0.78012204   0.06375144
4018.00   0.64147365   0.06860677
4020.00   0.54298592   0.07768809
4022.00   0.87512529   0.08302772
4024.00   0.92915958   0.08113282
4026.00   0.78864634   0.07489260
4028.00   0.86390257   0.06983385
4030.00   0.94299912   0.06852452
4032.00   0.82650018   0.06726167
4034.00   0.86124265   0.06614910
4036.00   0.75022548   0.06386578
4038.00   0.68514031   0.06326937
4040.00   0.77980649   0.06379084
4042.00   0.76237959   0.06590499
4044.00   0.53624392   0.10156175
4046.00   0.68173581   0.13658120
4048.00   1.17709243   0.13222849
4050.00   0.72995949   0.09023295
4052.00   0.62567425   0.06958146
4054.00   0.60573322   0.06902176
4056.00   0.77787924   0.06849200
4058.00   0.62024498   0.06358978
4060.00   0.78447491   0.06199585
4062.00   0.63232780   0.06079562
4064.00   0.64874321   0.06044194
4066.00   0.69127232   0.06101900
4068.00   0.66134095   0.06024915
4070.00   0.59593016   0.05838830
4072.00   0.60305899   0.05761040
4074.00   0.57280242   0.05939120
4076.00   0.76415151   0.06924763
4078.00   0.69024557   0.07349155
4080.00   0.90643811   0.07069366
4082.00   0.54382557   0.06663794
4084.00   0.76435536   0.06532247
4086.00   0.52865928   0.06317466
4088.00   0.75357604   0.06105518
4090.00   0.68589085   0.05615199
4092.00   0.60003114   0.05376413
4094.00   0.58561796   0.05403386
4096.00   0.68803096   0.05412322
4098.00   0.80319035   0.05512546
4100.00   0.59238726   0.05396787
4102.00   0.57502681   0.05295107
4104.00   0.70141107   0.05269922
4106.00   0.56820852   0.05164465
4108.00   0.62221813   0.05264274
4110.00   0.65419495   0.05274991
4112.00   0.62217921   0.05190976
4114.00   0.55196226   0.05152762
4116.00   0.64996642   0.05271980
4118.00   0.61442202   0.05129943
4120.00   0.70403719   0.05125352
4122.00   0.88470668   0.05280749
4124.00   0.79009509   0.05233190
4126.00   0.75127655   0.05274925
4128.00   0.70519531   0.05332583
4130.00   0.68179595   0.05375677
4132.00   0.83282232   0.05762749
4134.00   0.72128385   0.05714441
4136.00   0.81249487   0.05586991
4138.00   0.64895105   0.05546839
4140.00   0.64054030   0.05666164
4142.00   0.70549911   0.05534767
4144.00   0.76014686   0.05265845
4146.00   0.63727587   0.05093751
4148.00   0.71292394   0.05210854
4150.00   0.73464859   0.05467301
4152.00   0.79052985   0.05776992
4154.00   0.61310303   0.05642805
4156.00   0.69577855   0.05397606
4158.00   0.71621054   0.05308051
4160.00   0.74426949   0.05328674
4162.00   0.63474303   0.05569333
4164.00   0.79659635   0.05962444
4166.00   0.73764783   0.06060964
4168.00   0.67128950   0.05631668
4170.00   0.67431402   0.05358210
4172.00   0.69458568   0.05256549
4174.00   0.69154823   0.05091306
4176.00   0.77290213   0.05136814
4178.00   0.73481733   0.05188883
4180.00   0.72718710   0.05121272
4182.00   0.66938466   0.04984343
4184.00   0.47901908   0.04865385
4186.00   0.64108747   0.04959880
4188.00   0.66749650   0.04865913
4190.00   0.64432245   0.04910874
4192.00   0.76549202   0.04980979
4194.00   0.64399499   0.04954477
4196.00   0.62185121   0.04843656
4198.00   0.68386912   0.04797950
4200.00   0.74593252   0.04837901
4202.00   0.68119055   0.04766983
4204.00   0.84217858   0.04933923
4206.00   0.79837304   0.04968999
4208.00   0.80613738   0.05067597
4210.00   0.68979424   0.05129930
4212.00   0.72486043   0.05104000
4214.00   0.56081033   0.04951333
4216.00   0.65476876   0.04906228
4218.00   0.69182885   0.04975364
4220.00   0.85174429   0.04971972
4222.00   0.61026478   0.04855943
4224.00   0.92482299   0.04968189
4226.00   0.61745918   0.04866428
4228.00   0.67894512   0.04848867
4230.00   0.66287631   0.04956669
4232.00   0.69983399   0.05009511
4234.00   0.71492112   0.05030477
4236.00   0.68345702   0.05122951
4238.00   0.84187812   0.05212967
4240.00   0.66881901   0.05029340
4242.00   0.77687597   0.04839379
4244.00   0.86556047   0.05351963
4246.00   0.76168352   0.06051701
4248.00   0.79607618   0.06024329
4250.00   0.86971927   0.05364471
4252.00   0.83327216   0.05025503
4254.00   0.66391754   0.04898639
4256.00   0.81690806   0.05056640
4258.00   0.75757456   0.04966717
4260.00   0.71164185   0.04880903
4262.00   0.76282310   0.04824361
4264.00   0.82732654   0.04780253
4266.00   0.83500874   0.04811250
4268.00   0.64124894   0.04770776
4270.00   0.88084024   0.04846711
4272.00   0.78474283   0.04846454
4274.00   0.74840307   0.04821756
4276.00   0.87584513   0.04917996
4278.00   0.82682574   0.04941719
4280.00   0.82123142   0.04930208
4282.00   0.64509153   0.04904748
4284.00   0.77108037   0.04906071
4286.00   0.81632805   0.04932800
4288.00   0.74229938   0.04816072
4290.00   0.69080597   0.04787407
4292.00   0.86219275   0.04895058
4294.00   0.76505190   0.04924809
4296.00   0.79333317   0.04899466
4298.00   0.75282741   0.04898576
4300.00   0.78250462   0.04824404
4302.00   0.66096210   0.04776448
4304.00   0.74568695   0.04822275
4306.00   0.82849920   0.04899595
4308.00   0.83348310   0.04948692
4310.00   0.73150307   0.04990610
4312.00   0.76700169   0.05400744
4314.00   0.75876975   0.05700211
4316.00   0.66989577   0.05454747
4318.00   0.73792946   0.05391486
4320.00   0.73175138   0.05450310
4322.00   0.85142946   0.05528491
4324.00   0.82879573   0.05397668
4326.00   0.68104893   0.05236608
4328.00   0.69116062   0.05032796
4330.00   0.67454499   0.04851908
4332.00   0.55090392   0.04791204
4334.00   0.66867954   0.04874788
4336.00   0.80272371   0.04988661
4338.00   0.79720211   0.05169825
4340.00   0.74318469   0.05289743
4342.00   0.69759798   0.05274125
4344.00   0.67266327   0.05331572
4346.00   0.69878083   0.05572708
4348.00   0.75421536   0.05716803
4350.00   0.69063532   0.05515781
4352.00   0.56930488   0.05348014
4354.00   0.51080483   0.06148252
4356.00   0.69449329   0.10905885
4358.00   0.81585914   0.13765554
4360.00   0.67848849   0.12624437
4362.00   0.50614792   0.08949044
4364.00   0.65856975   0.06521679
4366.00   0.68015283   0.05730574
4368.00   0.60380602   0.05479180
4370.00   0.62651086   0.05387412
4372.00   0.58699381   0.05529151
4374.00   0.88766652   0.05786781
4376.00   0.71501768   0.05626162
4378.00   0.65869892   0.05316744
4380.00   0.76570207   0.05164997
4382.00   0.71772200   0.05111764
4384.00   0.66043621   0.04998488
4386.00   0.54506928   0.04906843
4388.00   0.48928449   0.04876624
4390.00   0.51441687   0.04971382
4392.00   0.63577747   0.04939236
4394.00   0.55426353   0.04899960
4396.00   0.60003954   0.04880666
4398.00   0.56015062   0.05030468
4400.00   0.54306442   0.05174638
4402.00   0.65180236   0.05194070
4404.00   0.63714081   0.04990393
4406.00   0.67723900   0.05022768
4408.00   0.70399958   0.04988749
4410.00   0.62298876   0.04987738
4412.00   0.45411414   0.04932292
4414.00   0.59748721   0.05127482
4416.00   0.58683908   0.05163566
4418.00   0.57352757   0.05063255
4420.00   0.49763247   0.04945226
4422.00   0.63596952   0.04938048
4424.00   0.49404049   0.04845825
4426.00   0.64914596   0.04900074
4428.00   0.52112132   0.04825005
4430.00   0.61039388   0.04873194
4432.00   0.48453477   0.04769456
4434.00   0.60580164   0.04769883
4436.00   0.59454256   0.04807708
4438.00   0.64823651   0.04860824
4440.00   0.57696569   0.04809586
4442.00   0.41698036   0.04741406
4444.00   0.61077327   0.04780007
4446.00   0.49436784   0.04745130
4448.00   0.60290277   0.04756240
4450.00   0.46540749   0.04674634
4452.00   0.66794419   0.04715101
4454.00   0.49126977   0.04642751
4456.00   0.50645018   0.04672404
4458.00   0.63694841   0.04694805
4460.00   0.52692294   0.04670766
4462.00   0.59176445   0.04696374
4464.00   0.63640028   0.04688138
4466.00   0.65242457   0.04642765
4468.00   0.57920295   0.04635815
4470.00   0.51373774   0.04564190
4472.00   0.50958717   0.04554726
4474.00   0.50346851   0.04597299
4476.00   0.63242930   0.04802458
4478.00   0.61275977   0.04649673
4480.00   0.66423893   0.04647928
4482.00   0.58752400   0.04670674
4484.00   0.70383728   0.04699847
4486.00   0.59711874   0.04665401
4488.00   0.59707600   0.04679455
4490.00   0.56368816   0.04653127
4492.00   0.58869690   0.04699269
4494.00   0.44599903   0.04681301
4496.00   0.49380469   0.04718862
4498.00   0.48816609   0.04732804
4500.00   0.63365793   0.04730057
4502.00   0.59103990   0.04637396
4504.00   0.56615263   0.04638198
4506.00   0.55483043   0.04603514
4508.00   0.63437235   0.04604235
4510.00   0.60710585   0.04576525
4512.00   0.59291565   0.04574335
4514.00   0.48852247   0.04500683
4516.00   0.50348330   0.04479487
4518.00   0.60694075   0.04487663
4520.00   0.56351918   0.04480702
4522.00   0.57596844   0.04480423
4524.00   0.60871869   0.04454308
4526.00   0.68544906   0.04475725
4528.00   0.68822342   0.04490055
4530.00   0.65457189   0.04438899
4532.00   0.64169306   0.04485493
4534.00   0.51809108   0.04385106
4536.00   0.63576877   0.04446724
4538.00   0.60264432   0.04382000
4540.00   0.57732958   0.04377335
4542.00   0.61003846   0.04447620
4544.00   0.64234889   0.04514512
4546.00   0.66286552   0.04484677
4548.00   0.66669810   0.04403210
4550.00   0.69840723   0.04327406
4552.00   0.68669349   0.04301963
4554.00   0.72595036   0.04325202
4556.00   0.65537024   0.04324238
4558.00   0.73380041   0.04357078
4560.00   0.73725754   0.04318847
4562.00   0.78715688   0.04271561
4564.00   0.78602296   0.04224213
4566.00   0.76569492   0.04217674
4568.00   0.79208142   0.04214201
4570.00   0.74297398   0.04215711
4572.00   0.66483086   0.04202550
4574.00   0.70405602   0.04224009
4576.00   0.79986393   0.04251013
4578.00   0.64655977   0.04146070
4580.00   0.81689328   0.04204206
4582.00   0.69414937   0.04060595
4584.00   0.80476946   0.04055629
4586.00   0.75990134   0.04040353
4588.00   0.75027609   0.04071235
4590.00   0.81561452   0.04080210
4592.00   0.79539424   0.04092027
4594.00   0.76708943   0.04107466
4596.00   0.93476617   0.04152136
4598.00   0.84498948   0.04108887
4600.00   0.96622872   0.04110437
4602.00   0.87378740   0.04046325
4604.00   0.83263421   0.04040985
4606.00   0.78958178   0.04055982
4608.00   0.85104787   0.04123175
4610.00   0.93545997   0.04107606
4612.00   0.84336174   0.04047588
4614.00   0.78304666   0.03980696
4616.00   0.84495443   0.03999579
4618.00   0.78788114   0.03929209
4620.00   0.79942828   0.03930588
4622.00   0.87827575   0.03957111
4624.00   0.84940946   0.03944207
4626.00   0.90188253   0.03988621
4628.00   0.92823970   0.03981129
4630.00   0.96538574   0.04006974
4632.00   0.88010031   0.03982600
4634.00   0.96736479   0.04014400
4636.00   0.82117957   0.03972378
4638.00   0.96081597   0.04040144
4640.00   0.91603315   0.04022092
4642.00   0.87987131   0.04080581
4644.00   0.89085722   0.03993774
4646.00   0.82690573   0.03942554
4648.00   0.80323917   0.03987382
4650.00   0.92380577   0.04028833
4652.00   1.04032612   0.04089770
4654.00   1.03296697   0.04120424
4656.00   0.86537546   0.04069442
4658.00   0.90794671   0.04186237
4660.00   0.90466392   0.04226043
4662.00   0.85875040   0.04271403
4664.00   0.94893038   0.04404228
4666.00   1.00442863   0.04487916
4668.00   0.97794676   0.04606842
4670.00   0.90394306   0.04590825
4672.00   0.96526021   0.04595196
4674.00   1.00444782   0.04512989
4676.00   0.94471538   0.04383435
4678.00   0.83702129   0.04291919
4680.00   0.91187423   0.04266798
4682.00   1.02651751   0.04222560
4684.00   0.92991745   0.04131634
4686.00   0.94095379   0.04117952
4688.00   1.01618052   0.04121671
4690.00   0.94093108   0.04031028
4692.00   0.86461747   0.04009647
4694.00   0.97658139   0.04002017
4696.00   0.91523719   0.03964309
4698.00   1.05042052   0.03960862
4700.00   0.99178886   0.03934448
4702.00   0.81737334   0.03893948
4704.00   0.96140826   0.03972086
4706.00   1.03671801   0.04070430
4708.00   1.04672444   0.04119314
4710.00   0.93023175   0.04062417
4712.00   0.93509436   0.04035145
4714.00   0.97358578   0.03998217
4716.00   0.75212514   0.03896213
4718.00   0.93804187   0.03917639
4720.00   0.95382714   0.03935298
4722.00   0.92025185   0.03902261
4724.00   0.91992521   0.03869487
4726.00   0.93140715   0.04008728
4728.00   0.94089854   0.04270623
4730.00   0.96693552   0.04337002
4732.00   0.83770579   0.04291710
4734.00   0.76456076   0.04353023
4736.00   0.91615224   0.04429599
4738.00   0.96477014   0.04592511
4740.00   1.02689636   0.04720435
4742.00   0.80010921   0.04830972
4744.00   0.83127970   0.04705051
4746.00   0.82467484   0.04361155
4748.00   0.77836299   0.04037298
4750.00   0.76073891   0.03928393
4752.00   0.82464182   0.04023651
4754.00   0.78981119   0.03990883
4756.00   0.76888329   0.03839703
4758.00   0.79504734   0.03673737
4760.00   0.72608960   0.03588479
4762.00   0.80002177   0.03556865
4764.00   0.76034600   0.03512029
4766.00   0.78757077   0.03525256
4768.00   0.82735121   0.03496390
4770.00   0.82924372   0.03494254
4772.00   0.82556951   0.03466321
4774.00   0.77357364   0.03449900
4776.00   0.78259367   0.03574995
4778.00   0.67011023   0.03654519
4780.00   0.73134756   0.03718956
4782.00   0.67947572   0.03545562
4784.00   0.78945565   0.03491781
4786.00   0.83141834   0.03439501
4788.00   0.72747284   0.03433862
4790.00   0.83221972   0.03560509
4792.00   0.73370415   0.03497368
4794.00   0.70394695   0.03392505
4796.00   0.70762926   0.03402219
4798.00   0.73386139   0.03394465
4800.00   0.70504326   0.03375918
4802.00   0.70090473   0.03350824
4804.00   0.66264445   0.03360801
4806.00   0.76250726   0.03425781
4808.00   0.77550232   0.03455774
4810.00   0.76417112   0.03456752
4812.00   0.71432662   0.03431176
4814.00   0.67902231   0.03439156
4816.00   0.66258353   0.03398096
4818.00   0.64086688   0.03391239
4820.00   0.76653141   0.03487731
4822.00   0.67273444   0.03494611
4824.00   0.61075187   0.03487897
4826.00   0.61762291   0.03505237
4828.00   0.53430849   0.03486462
4830.00   0.61513036   0.03530874
4832.00   0.53443307   0.03517190
4834.00   0.57754177   0.03499731
4836.00   0.63934362   0.03529585
4838.00   0.57213563   0.03586650
4840.00   0.44178948   0.03581591
4842.00   0.45094830   0.03530378
4844.00   0.53236371   0.03492697
4846.00   0.64421314   0.03512222
4848.00   0.61263824   0.03496135
4850.00   0.62541795   0.03518099
4852.00   0.55922818   0.03515866
4854.00   0.64491713   0.03507176
4856.00   0.58222389   0.03397207
4858.00   0.61683607   0.03503584
4860.00   0.63502157   0.03686914
4862.00   0.49473178   0.03700732
4864.00   0.58343422   0.03644125
4866.00   0.63700056   0.03596853
4868.00   0.58950114   0.03511754
4870.00   0.60230213   0.03444332
4872.00   0.68306780   0.03508455
4874.00   0.67724675   0.03491608
4876.00   0.56478029   0.03502987
4878.00   0.60353428   0.03564823
4880.00   0.57945913   0.03553827
4882.00   0.60870904   0.03544395
4884.00   0.63097763   0.03517990
4886.00   0.60256207   0.03486790
4888.00   0.70999157   0.03507549
4890.00   0.56201452   0.03474033
4892.00   0.74979836   0.03543327
4894.00   0.75849116   0.03578765
4896.00   0.72825229   0.03542212
4898.00   0.70835757   0.03514558
4900.00   0.72570717   0.03480795
4902.00   0.73080498   0.03482084
4904.00   0.69247270   0.03482553
4906.00   0.78742146   0.03544192
4908.00   0.74319148   0.03571157
4910.00   0.67999196   0.03560387
4912.00   0.77380985   0.03555344
4914.00   0.74637419   0.03590358
4916.00   0.64107692   0.03557389
4918.00   0.72534078   0.03513353
4920.00   0.66837978   0.03508443
4922.00   0.73906487   0.03541158
4924.00   0.65392321   0.03505572
4926.00   0.64226764   0.03417718
4928.00   0.60196543   0.03337198
4930.00   0.75888866   0.03397220
4932.00   0.61704695   0.03369975
4934.00   0.58272254   0.03357010
4936.00   0.68423486   0.03385044
4938.00   0.56876272   0.03386717
4940.00   0.57539612   0.03373592
4942.00   0.62550950   0.03427357
4944.00   0.55515170   0.03329960
4946.00   0.49069852   0.03275610
4948.00   0.59118938   0.03269820
4950.00   0.62179065   0.03405474
4952.00   0.50500864   0.03381034
4954.00   0.54125696   0.03422972
4956.00   0.61856133   0.03418998
4958.00   0.66894209   0.03453578
4960.00   0.65970623   0.03444711
4962.00   0.59901148   0.03416993
4964.00   0.56675684   0.03416526
4966.00   0.45343673   0.03391686
4968.00   0.49254125   0.03435945
4970.00   0.50179452   0.03515939
4972.00   0.53461897   0.03694265
4974.00   0.47993648   0.03855700
4976.00   0.55222982   0.04031025
4978.00   0.58860338   0.04309458
4980.00   0.67318100   0.04575915
4982.00   0.62287968   0.04716733
4984.00   0.71512038   0.04738270
4986.00   0.59007508   0.04593769
4988.00   0.60726279   0.04413486
4990.00   0.51676655   0.04176135
4992.00   0.62200600   0.04054703
4994.00   0.68140221   0.03902514
4996.00   0.64755625   0.03736768
4998.00   0.66137773   0.03611625
5000.00   0.70315021   0.03535170
5002.00   0.65357429   0.03460423
5004.00   0.69514483   0.03450556
5006.00   0.76097131   0.03473405
5008.00   0.64480817   0.03342552
5010.00   0.75011134   0.03367325
5012.00   0.69530743   0.03296293
5014.00   0.75763655   0.03349014
5016.00   0.73007566   0.03393876
5018.00   0.71117872   0.03406440
5020.00   0.75091165   0.03437135
5022.00   0.78121567   0.03436513
5024.00   0.69014758   0.03324711
5026.00   0.78612393   0.03329153
5028.00   0.76069719   0.03374244
5030.00   0.76402658   0.03454840
5032.00   0.74028987   0.03434022
5034.00   0.77725065   0.03368029
5036.00   0.67052430   0.03294998
5038.00   0.81744486   0.03311040
5040.00   0.77254689   0.03289564
5042.00   0.72806764   0.03264385
5044.00   0.83485222   0.03323872
5046.00   0.74234366   0.03312593
5048.00   0.67725563   0.03285764
5050.00   0.74847287   0.03310881
5052.00   0.79057115   0.03335793
5054.00   0.80571944   0.03332256
5056.00   0.82902437   0.03325954
5058.00   0.69001281   0.03281235
5060.00   0.62033170   0.03302121
5062.00   0.76995951   0.03424056
5064.00   0.64011544   0.03491347
5066.00   0.71825987   0.03573734
5068.00   0.68072653   0.03699828
5070.00   0.71404165   0.03813669
5072.00   0.72945195   0.03692353
5074.00   0.64086670   0.03588375
5076.00   0.68765342   0.03544575
5078.00   0.68479031   0.03641945
5080.00   0.63249636   0.03959472
5082.00   0.63358372   0.04421846
5084.00   0.69785595   0.04725676
5086.00   0.52223009   0.04715345
5088.00   0.71566194   0.04536374
5090.00   0.72014725   0.04165707
5092.00   0.58638281   0.03782728
5094.00   0.60148567   0.03614876
5096.00   0.60865551   0.03629959
5098.00   0.67038351   0.03817556
5100.00   0.55006909   0.03787802
5102.00   0.69956785   0.03708198
5104.00   0.61122704   0.03495280
5106.00   0.65840584   0.03445980
5108.00   0.62556285   0.03387564
5110.00   0.65426767   0.03364373
5112.00   0.64726287   0.03373615
5114.00   0.62278152   0.03391628
5116.00   0.61438829   0.03400520
5118.00   0.58878398   0.03377621
5120.00   0.69301450   0.03336943
5122.00   0.62965214   0.03286639
5124.00   0.71533322   0.03278095
5126.00   0.68928260   0.03290282
5128.00   0.62080252   0.03225106
5130.00   0.60486215   0.03236948
5132.00   0.66555411   0.03307068
5134.00   0.59155440   0.03316427
5136.00   0.63043165   0.03271460
5138.00   0.61963654   0.03233669
5140.00   0.66547894   0.03305693
5142.00   0.66257113   0.03295802
5144.00   0.62296504   0.03282826
5146.00   0.67414862   0.03415569
5148.00   0.69145238   0.03534138
5150.00   0.69302171   0.03667523
5152.00   0.58326995   0.03743704
5154.00   0.67637122   0.03818579
5156.00   0.69402075   0.03786756
5158.00   0.63419276   0.03658933
5160.00   0.68164337   0.03573282
5162.00   0.67531961   0.03457454
5164.00   0.65063339   0.03379167
5166.00   0.68522364   0.03320636
5168.00   0.62172174   0.03254971
5170.00   0.64914107   0.03248669
5172.00   0.63077891   0.03245205
5174.00   0.63541120   0.03310226
5176.00   0.73394704   0.03353460
5178.00   0.68682307   0.03355007
5180.00   0.75766635   0.03353270
5182.00   0.72913903   0.03324590
5184.00   0.75210100   0.03335891
5186.00   0.78238225   0.03394439
5188.00   0.79780012   0.03420718
5190.00   0.76581442   0.03415115
5192.00   0.81326288   0.03420642
5194.00   0.76902413   0.03410492
5196.00   0.67842168   0.03409809
5198.00   0.75961864   0.03491031
5200.00   0.67417252   0.03447990
5202.00   0.75458640   0.03489614
5204.00   0.77214199   0.03474010
5206.00   0.79173964   0.03484807
5208.00   0.64401168   0.03512998
5210.00   0.75135529   0.03608077
5212.00   0.71417743   0.03582555
5214.00   0.66918367   0.03484290
5216.00   0.88821483   0.03613003
5218.00   0.83232486   0.03653276
5220.00   0.68851584   0.03603707
5222.00   0.76495063   0.03601583
5224.00   0.78576046   0.03577825
5226.00   0.89467686   0.03572532
5228.00   0.85181832   0.03539525
5230.00   0.85649747   0.03586440
5232.00   0.80121076   0.03583518
5234.00   0.91408110   0.03620105
5236.00   0.88352531   0.03597706
5238.00   0.91783077   0.03679197
5240.00   0.80238998   0.03631638
5242.00   0.79347551   0.03588025
5244.00   0.89498442   0.03609166
5246.00   0.75758111   0.03544155
5248.00   0.79094011   0.03554443
5250.00   0.73545146   0.03532162
5252.00   0.83921242   0.03619320
5254.00   0.84779990   0.03670423
5256.00   0.75227296   0.03709245
5258.00   0.88851482   0.03824876
5260.00   0.87319773   0.03789514
5262.00   0.84610093   0.03720772
5264.00   0.80168831   0.03651363
5266.00   0.91379410   0.03698903
5268.00   0.83179551   0.03642792
5270.00   0.85220820   0.03653094
5272.00   0.90131998   0.03663639
5274.00   0.80333960   0.03681958
5276.00   0.90254658   0.03727749
5278.00   0.86753047   0.03742081
5280.00   0.84321082   0.03732667
5282.00   1.02133262   0.03805583
5284.00   0.90322548   0.03843316
5286.00   0.87252802   0.03859951
5288.00   0.89027554   0.03794398
5290.00   0.99952185   0.03824644
5292.00   0.91417003   0.03814986
5294.00   0.96056598   0.03859943
5296.00   0.98715448   0.03877818
5298.00   0.88833654   0.03850636
5300.00   0.87636471   0.03863457
5302.00   0.88609880   0.03901980
5304.00   0.97276330   0.03943273
5306.00   0.95614976   0.03895730
5308.00   0.98470592   0.03943675
5310.00   0.96703637   0.03960996
5312.00   1.00057268   0.03956298
5314.00   0.96804595   0.03962855
5316.00   0.97565281   0.03944752
5318.00   0.96478659   0.03983946
5320.00   1.04204464   0.04028717
5322.00   1.00377023   0.04022061
5324.00   1.01018858   0.04060340
5326.00   0.92855990   0.03976722
5328.00   1.02121520   0.04065981
5330.00   0.97710574   0.04074426
5332.00   0.91196936   0.04076896
5334.00   0.97536886   0.04103128
5336.00   0.97698855   0.04119746
5338.00   0.85407025   0.04102331
5340.00   1.06695521   0.04257314
5342.00   0.97954249   0.04289448
5344.00   1.05203462   0.04316943
5346.00   1.03299296   0.04367087
5348.00   0.97963780   0.04416191
5350.00   0.84741557   0.04418246
5352.00   0.99526632   0.04495899
5354.00   0.99488419   0.04551696
5356.00   0.87977374   0.04538455
5358.00   0.94616932   0.04450557
5360.00   0.85513574   0.04312434
5362.00   0.87971681   0.04239300
5364.00   0.87655485   0.04212384
5366.00   0.86177790   0.04146199
5368.00   0.92621410   0.04132010
5370.00   0.81029975   0.04085419
5372.00   0.88682282   0.04231497
5374.00   0.81584293   0.04276918
5376.00   0.79353011   0.04278280
5378.00   0.72902942   0.04287676
5380.00   0.73994130   0.04216033
5382.00   0.77625650   0.04212815
5384.00   0.75092041   0.04228662
5386.00   0.93378657   0.04333249
5388.00   0.78866458   0.04295829
5390.00   0.67828810   0.04346678
5392.00   0.84972084   0.04477389
5394.00   0.74904150   0.04464449
5396.00   0.81520820   0.04460730
5398.00   0.71301222   0.04365228
5400.00   0.69537598   0.04388900
5402.00   0.81014979   0.04434967
5404.00   0.79147249   0.04487647
5406.00   0.83339643   0.04498417
5408.00   0.91063011   0.04587399
5410.00   0.84379804   0.04651982
5412.00   0.78863424   0.04689541
5414.00   0.85557956   0.04897707
5416.00   0.77285361   0.04976571
5418.00   0.72191626   0.04989782
5420.00   0.77682996   0.05085230
5422.00   0.95685446   0.05158381
5424.00   0.69215870   0.04978939
5426.00   0.80596036   0.05041640
5428.00   0.79637170   0.05000104
5430.00   0.74982083   0.02127331
5432.00   0.74374372   0.02155366
5434.00   0.79942685   0.02246624
5436.00   0.81809002   0.02274357
5438.00   0.79426283   0.02206041
5440.00   0.76655382   0.02151040
5442.00   0.76062447   0.02214872
5444.00   0.76339597   0.02350640
5446.00   0.78795326   0.02436624
5448.00   0.85275537   0.02379149
5450.00   0.88463533   0.02612156
5452.00   0.89322829   0.03155893
5454.00   0.89165390   0.03557653
5456.00   0.87543190   0.03647929
5458.00   0.84972334   0.03598526
5460.00   0.87641585   0.03803756
5462.00   0.99133044   0.04426774
5464.00   1.00113916   0.04371929
5466.00   0.92414939   0.03621641
5468.00   0.85457414   0.02862624
5470.00   0.81686425   0.02501335
5472.00   0.79071081   0.02365934
5474.00   0.76963562   0.02227220
5476.00   0.75450665   0.02250139
5478.00   0.75173044   0.02224351
5480.00   0.75865740   0.02230611
5482.00   0.77730590   0.02223779
5484.00   0.81589657   0.02190107
5486.00   0.85881698   0.02154969
5488.00   0.88133454   0.02159186
5490.00   0.89362568   0.02211246
5492.00   0.89619827   0.02164467
5494.00   0.88384539   0.01978773
5496.00   0.87187362   0.01897860
5498.00   0.86187410   0.01968012
5500.00   0.84674680   0.02050531
5502.00   0.81764776   0.02038142
5504.00   0.77576482   0.01974992
5506.00   0.75696850   0.01942133
5508.00   0.75248170   0.01904561
5510.00   0.75214201   0.01888488
5512.00   0.76140732   0.01898732
5514.00   0.77165413   0.01912209
5516.00   0.77647537   0.01911799
5518.00   0.77968633   0.01907998
5520.00   0.79153198   0.01937689
5522.00   0.81780177   0.02037892
5524.00   0.82723856   0.02037809
5526.00   0.83256948   0.01949368
5528.00   0.82202572   0.01859336
5530.00   0.78216600   0.01788409
5532.00   0.72960395   0.01727395
5534.00   0.71177810   0.01711692
5536.00   0.72192556   0.01760285
5538.00   0.71709508   0.01755147
5540.00   0.69703674   0.01716594
5542.00   0.69948941   0.01687483
5544.00   0.74341255   0.01668417
5546.00   0.79473555   0.01660716
5548.00   0.80102921   0.01679042
5550.00   0.77463067   0.01723631
5552.00   0.76515877   0.01756521
5554.00   0.75868571   0.01795162
5556.00   0.74995768   0.01822997
5558.00   0.73371702   0.01839566
5560.00   0.72246826   0.01850464
5562.00   0.73622382   0.01839816
5564.00   0.77431703   0.01792812
5566.00   0.74742001   0.01934602
5568.00   0.63786352   0.02147719
5570.00   0.59514034   0.02466757
5572.00   0.61248165   0.02957261
5574.00   0.64013213   0.03324405
5576.00   0.65209562   0.03494016
5578.00   0.66245258   0.03554580
5580.00   0.68010592   0.03409280
5582.00   0.71401376   0.02887240
5584.00   0.72427398   0.02521598
5586.00   0.71375382   0.02175886
5588.00   0.70201761   0.01885263
5590.00   0.69432920   0.01720056
5592.00   0.68731266   0.01670073
5594.00   0.68364364   0.01607378
5596.00   0.68163168   0.01597966
5598.00   0.68385506   0.01598167
5600.00   0.68952602   0.01650096
5602.00   0.69868118   0.01671575
5604.00   0.71523005   0.01637001
5606.00   0.73215038   0.01588827
5608.00   0.73403305   0.01593855
5610.00   0.71719843   0.01644811
5612.00   0.73246545   0.01641230
5614.00   0.78220856   0.01592778
5616.00   0.81159151   0.01563966
5618.00   0.81783831   0.01557025
5620.00   0.81614786   0.01558453
5622.00   0.81707227   0.01561683
5624.00   0.81557882   0.01571497
5626.00   0.81431639   0.01570692
5628.00   0.80226457   0.01558852
5630.00   0.81131583   0.01555049
5632.00   0.85035062   0.01558828
5634.00   0.88493812   0.01563536
5636.00   0.89206827   0.01563898
5638.00   0.88371837   0.01562629
5640.00   0.87807530   0.01573119
5642.00   0.86246181   0.01589731
5644.00   0.85777760   0.01614966
5646.00   0.86095190   0.01661371
5648.00   0.86646599   0.01692773
5650.00   0.87350124   0.01694618
5652.00   0.88208693   0.01679680
5654.00   0.88765997   0.01666335
5656.00   0.89554882   0.01632052
5658.00   0.89261550   0.01632940
5660.00   0.87527132   0.01654633
5662.00   0.86460191   0.01690081
5664.00   0.86242265   0.01732733
5666.00   0.86723602   0.01791267
5668.00   0.88341576   0.01885416
5670.00   0.91295302   0.02027649
5672.00   0.93766630   0.02093018
5674.00   0.97506189   0.02088710
5676.00   0.98998201   0.02125821
5678.00   0.97763211   0.02181131
5680.00   0.95288545   0.02282169
5682.00   0.92830586   0.02494346
5684.00   0.89744878   0.02804909
5686.00   0.86764604   0.02878402
5688.00   0.82449019   0.02776192
5690.00   0.80548644   0.02703214
5692.00   0.81302881   0.02636623
5694.00   0.82727271   0.02552296
5696.00   0.83663684   0.02434715
5698.00   0.84710371   0.02285254
5700.00   0.85546535   0.02151033
5702.00   0.86238843   0.01987009
5704.00   0.86930680   0.01886725
5706.00   0.87563723   0.01836326
5708.00   0.88200676   0.01840260
5710.00   0.89187807   0.01929188
5712.00   0.90134281   0.02059477
5714.00   0.89282864   0.02079608
5716.00   0.86013734   0.02042114
5718.00   0.84748036   0.01969620
5720.00   0.84194982   0.01794902
5722.00   0.84290564   0.01659721
5724.00   0.85223955   0.01619736
5726.00   0.86669654   0.01625164
5728.00   0.88021284   0.01612133
5730.00   0.90379614   0.01610225
5732.00   0.89758456   0.01600164
5734.00   0.85582942   0.01578553
5736.00   0.83195370   0.01572848
5738.00   0.82598650   0.01587529
5740.00   0.83222973   0.01610515
5742.00   0.85648191   0.01635038
5744.00   0.90682769   0.01671481
5746.00   0.90352911   0.01662046
5748.00   0.84687233   0.01592418
5750.00   0.81633681   0.01562841
5752.00   0.80410475   0.01573426
5754.00   0.80102110   0.01593061
5756.00   0.80579358   0.01598621
5758.00   0.81954831   0.01600148
5760.00   0.82815069   0.01643974
5762.00   0.83692276   0.01721305
5764.00   0.84428263   0.01799124
5766.00   0.85375088   0.01905526
5768.00   0.85722280   0.01983259
5770.00   0.85065556   0.02014546
5772.00   0.83688593   0.02014467
5774.00   0.82001722   0.01979624
5776.00   0.79037827   0.01869390
5778.00   0.77575314   0.01816201
5780.00   0.76582259   0.01770192
5782.00   0.76640308   0.01767811
5784.00   0.78609943   0.01835586
5786.00   0.81164664   0.01930223
5788.00   0.81230712   0.01977544
5790.00   0.79103482   0.02013187
5792.00   0.78787476   0.02018177
5794.00   0.78424388   0.01982333
5796.00   0.79840416   0.01953369
5798.00   0.84864581   0.01937529
5800.00   0.89682084   0.01919423
5802.00   0.88942617   0.01884046
5804.00   0.83831590   0.01834012
5806.00   0.82002503   0.01789394
5808.00   0.81832010   0.01739722
5810.00   0.80710256   0.01696871
5812.00   0.78379452   0.01623199
5814.00   0.76248425   0.01602667
5816.00   0.75320888   0.01737385
5818.00   0.75122905   0.01967641
5820.00   0.75310260   0.02012818
5822.00   0.75366706   0.01926012
5824.00   0.77336210   0.01880585
5826.00   0.82193935   0.01832987
5828.00   0.86334723   0.01798710
5830.00   0.88162112   0.01789491
5832.00   0.88640314   0.01798802
5834.00   0.87927443   0.01819865
5836.00   0.85658771   0.01874494
5838.00   0.82871306   0.01894978
5840.00   0.78681839   0.01894358
5842.00   0.74689251   0.01892174
5844.00   0.70222354   0.01877257
5846.00   0.66564125   0.01869826
5848.00   0.68169355   0.01938650
5850.00   0.76110518   0.02107905
5852.00   0.78548986   0.02135385
5854.00   0.77960259   0.02035372
5856.00   0.77695304   0.01993550
5858.00   0.78253180   0.02052393
5860.00   0.78505003   0.02124138
5862.00   0.77191538   0.02118444
5864.00   0.74279410   0.02059032
5866.00   0.73376352   0.02042203
5868.00   0.73761660   0.02051708
5870.00   0.74099642   0.02044150
5872.00   0.74253774   0.02015202
5874.00   0.74907160   0.01986084
5876.00   0.77302098   0.01947423
5878.00   0.81296134   0.01887415
5880.00   0.79642123   0.02053096
5882.00   0.72268277   0.02276836
5884.00   0.67244750   0.02692373
5886.00   0.63808936   0.03258293
5888.00   0.59666073   0.03789717
5890.00   0.50326294   0.04311664
5892.00   0.39470878   0.04803734
5894.00   0.49432027   0.04941827
5896.00   0.90885234   0.04883466
5898.00   1.01352072   0.04618395
5900.00   0.88378268   0.03880226
5902.00   0.78737152   0.03154248
5904.00   0.80762172   0.02732238
5906.00   0.86250508   0.02494485
5908.00   0.86010003   0.02230737
5910.00   0.81933689   0.02071698
5912.00   0.80626756   0.01950880
5914.00   0.79856873   0.01954801
5916.00   0.80257320   0.01945131
5918.00   0.82752526   0.01899873
5920.00   0.85559613   0.01861986
5922.00   0.85747141   0.01873303
5924.00   0.83694082   0.01919156
5926.00   0.84413773   0.01981048
5928.00   0.87632084   0.02122722
5930.00   0.89323288   0.02158818
5932.00   0.88861650   0.02063767
5934.00   0.88637686   0.01944027
5936.00   0.91160816   0.01902638
5938.00   0.95748299   0.01900227
5940.00   0.95892161   0.01879062
5942.00   0.91794366   0.01851632
5944.00   0.89758801   0.01839844
5946.00   0.88255650   0.01850487
5948.00   0.87993175   0.01856682
5950.00   0.90235656   0.01840286
5952.00   0.94109625   0.01812158
5954.00   0.94588041   0.01803925
5956.00   0.91604537   0.01816322
5958.00   0.91309911   0.01810298
5960.00   0.93109667   0.01783714
5962.00   0.94141728   0.01770186
5964.00   0.93057698   0.01791593
5966.00   0.91291106   0.01822534
5968.00   0.91687226   0.01804536
5970.00   0.94418788   0.01728131
5972.00   0.94586557   0.01713300
5974.00   0.92403263   0.01731585
5976.00   0.91507602   0.01763027
5978.00   0.92699206   0.01827856
5980.00   0.94535232   0.01885113
5982.00   0.95464385   0.01860634
5984.00   0.96262217   0.01756256
5986.00   0.96168059   0.01723261
5988.00   0.94271284   0.01729925
5990.00   0.94051260   0.01733789
5992.00   0.96088350   0.01748360
5994.00   0.98363119   0.01753120
5996.00   0.99111646   0.01712370
5998.00   0.99062800   0.01627675
6000.00   0.99157619   0.01637334
6002.00   0.99179173   0.01733224
6004.00   0.98823577   0.01791784
6006.00   0.98429799   0.01851179
6008.00   0.97306919   0.01878698
6010.00   0.94420856   0.01842202
6012.00   0.90411687   0.01758596
6014.00   0.89754504   0.01713153
6016.00   0.92591745   0.01683045
6018.00   0.93245322   0.01648543
6020.00   0.92985028   0.01614474
6022.00   0.92373979   0.01581983
6024.00   0.91183376   0.01542149
6026.00   0.89813703   0.01507167
6028.00   0.90050465   0.01524677
6030.00   0.91524857   0.01606332
6032.00   0.93099898   0.01635619
6034.00   0.96291482   0.01649951
6036.00   0.97768664   0.01646776
6038.00   0.96714336   0.01614660
6040.00   0.94474393   0.01573045
6042.00   0.92496890   0.01562822
6044.00   0.89678371   0.01581695
6046.00   0.88718534   0.01557742
6048.00   0.89405042   0.01492232
6050.00   0.89825577   0.01444263
6052.00   0.90298373   0.01404790
6054.00   0.90486324   0.01386262
6056.00   0.89676809   0.01418459
6058.00   0.87985194   0.01497679
6060.00   0.87431550   0.01506306
6062.00   0.87516356   0.01463031
6064.00   0.87712467   0.01434405
6066.00   0.87938279   0.01398635
6068.00   0.88614476   0.01380645
6070.00   0.90517145   0.01406454
6072.00   0.93227506   0.01460916
6074.00   0.92753339   0.01487911
6076.00   0.88850760   0.01513576
6078.00   0.86904460   0.01518623
6080.00   0.85350418   0.01506332
6082.00   0.84738696   0.01481284
6084.00   0.86058128   0.01429784
6086.00   0.88168001   0.01367442
6088.00   0.87075222   0.01373375
6090.00   0.81747645   0.01461564
6092.00   0.81383359   0.01473142
6094.00   0.85267329   0.01422597
6096.00   0.87655395   0.01405673
6098.00   0.87077045   0.01455265
6100.00   0.85734791   0.01519026
6102.00   0.86467201   0.01528975
6104.00   0.89264876   0.01495332
6106.00   0.88510138   0.01509998
6108.00   0.83919531   0.01556484
6110.00   0.81573677   0.01595537
6112.00   0.82040697   0.01637082
6114.00   0.83205903   0.01666865
6116.00   0.83252466   0.01664269
6118.00   0.82826334   0.01636718
6120.00   0.83342552   0.01601791
6122.00   0.85123479   0.01533615
6124.00   0.85707092   0.01490493
6126.00   0.85591334   0.01465343
6128.00   0.84552556   0.01456711
6130.00   0.81622398   0.01468269
6132.00   0.77225447   0.01498104
6134.00   0.77102309   0.01525756
6136.00   0.81370854   0.01564771
6138.00   0.83145916   0.01592631
6140.00   0.83856249   0.01640725
6142.00   0.84122199   0.01642582
6144.00   0.83919573   0.01541795
6146.00   0.83367515   0.01378319
6148.00   0.83459640   0.01338955
6150.00   0.83298528   0.01388728
6152.00   0.84768540   0.01439700
6154.00   0.88948518   0.01547255
6156.00   0.91259140   0.01617477
6158.00   0.90531653   0.01641092
6160.00   0.88336533   0.01636504
6162.00   0.86312783   0.01607170
6164.00   0.82996577   0.01537194
6166.00   0.82227409   0.01485666
6168.00   0.84001428   0.01423752
6170.00   0.84798282   0.01382324
6172.00   0.84346527   0.01374075
6174.00   0.83626133   0.01373677
6176.00   0.83413678   0.01347801
6178.00   0.83437717   0.01300137
6180.00   0.83158755   0.01309290
6182.00   0.81758696   0.01401011
6184.00   0.82329488   0.01412573
6186.00   0.85904390   0.01331355
6188.00   0.88945144   0.01242901
6190.00   0.88809431   0.01218300
6192.00   0.86767364   0.01227727
6194.00   0.85048765   0.01224789
6196.00   0.82246000   0.01228910
6198.00   0.80450821   0.01228800
6200.00   0.79598725   0.01224329
6202.00   0.78603506   0.01222584
6204.00   0.76747793   0.01229152
6206.00   0.74635428   0.01239037
6208.00   0.74020207   0.01236083
6210.00   0.75464869   0.01215063
6212.00   0.74837083   0.01213982
6214.00   0.73080111   0.01230960
6216.00   0.70970970   0.01240059
6218.00   0.68651360   0.01229395
6220.00   0.65977806   0.01215769
6222.00   0.62865579   0.01230343
6224.00   0.58942133   0.01270400
6226.00   0.56035566   0.01290091
6228.00   0.52344131   0.01296904
6230.00   0.51500213   0.01311762
6232.00   0.55221194   0.01336421
6234.00   0.59704238   0.01364619
6236.00   0.60422528   0.01397448
6238.00   0.59127837   0.01445648
6240.00   0.57268256   0.01426481
6242.00   0.52616745   0.01322884
6244.00   0.50609040   0.01261128
6246.00   0.51165605   0.01236442
6248.00   0.52699113   0.01229906
6250.00   0.54624808   0.01233568
6252.00   0.57361645   0.01251554
6254.00   0.57832849   0.01278894
6256.00   0.56656176   0.01347279
6258.00   0.55223662   0.01356254
6260.00   0.52644295   0.01296330
6262.00   0.50399959   0.01249001
6264.00   0.49313354   0.01262434
6266.00   0.48815042   0.01304354
6268.00   0.47914430   0.01319114
6270.00   0.46275476   0.01342089
6272.00   0.46241838   0.01323118
6274.00   0.48316377   0.01243696
6276.00   0.49246305   0.01187833
6278.00   0.47843841   0.01181737
6280.00   0.45551318   0.01203740
6282.00   0.44559556   0.01239930
6284.00   0.44077742   0.01315582
6286.00   0.43848214   0.01335525
6288.00   0.43346050   0.01314294
6290.00   0.44332337   0.01300156
6292.00   0.47891003   0.01289189
6294.00   0.51770777   0.01286936
6296.00   0.52937502   0.01309799
6298.00   0.52273518   0.01351024
6300.00   0.52467746   0.01401345
6302.00   0.52965331   0.01499608
6304.00   0.52815354   0.01529730
6306.00   0.51342285   0.01486643
6308.00   0.50366664   0.01421716
6310.00   0.51639026   0.01374137
6312.00   0.54480428   0.01325363
6314.00   0.55954218   0.01268879
6316.00   0.56369132   0.01191590
6318.00   0.57926172   0.01138542
6320.00   0.60932726   0.01099646
6322.00   0.63437343   0.01084163
6324.00   0.64733469   0.01104971
6326.00   0.65178120   0.01151061
6328.00   0.63742679   0.01177022
6330.00   0.58774412   0.01212919
6332.00   0.57060987   0.01213937
6334.00   0.56515962   0.01178747
6336.00   0.57596701   0.01145072
6338.00   0.61292708   0.01122187
6340.00   0.66170847   0.01103161
6342.00   0.68463683   0.01088902
6344.00   0.69150990   0.01079800
6346.00   0.70166695   0.01074018
6348.00   0.71135587   0.01074432
6350.00   0.71434116   0.01074641
6352.00   0.70552516   0.01072931
6354.00   0.69495583   0.01072794
6356.00   0.69842261   0.01079313
6358.00   0.71438527   0.01093189
6360.00   0.71177185   0.01096493
6362.00   0.68623668   0.01094546
6364.00   0.68131977   0.01088800
6366.00   0.70167017   0.01075761
6368.00   0.72550076   0.01062609
6370.00   0.73661333   0.01056638
6372.00   0.74268681   0.01054932
6374.00   0.74355626   0.01051748
6376.00   0.72660255   0.01045438
6378.00   0.73235619   0.01047462
6380.00   0.76985788   0.01060931
6382.00   0.79622805   0.01072105
6384.00   0.78149927   0.01075192
6386.00   0.74501204   0.01073440
6388.00   0.74620086   0.01062555
6390.00   0.78032011   0.01034908
6392.00   0.79270446   0.01019817
6394.00   0.79708886   0.01007323
6396.00   0.79679006   0.01003453
6398.00   0.78906167   0.01009745
6400.00   0.77839255   0.01024988
6402.00   0.78063214   0.01051060
6404.00   0.79549891   0.01108073
6406.00   0.80012912   0.01109123
6408.00   0.79911679   0.01056470
6410.00   0.79920727   0.01019071
6412.00   0.80046177   0.01007723
6414.00   0.80278146   0.01006514
6416.00   0.80776560   0.01005208
6418.00   0.81571007   0.01010436
6420.00   0.82114112   0.01008696
6422.00   0.82472098   0.01003193
6424.00   0.82970870   0.00997132
6426.00   0.83834749   0.00988027
6428.00   0.84493881   0.00980567
6430.00   0.84350127   0.00980858
6432.00   0.83606207   0.00987232
6434.00   0.83155686   0.00986210
6436.00   0.82824677   0.00972531
6438.00   0.82219160   0.00977149
6440.00   0.80969691   0.01004906
6442.00   0.80170417   0.01028231
6444.00   0.80793321   0.01031413
6446.00   0.82240742   0.01024063
6448.00   0.81878519   0.01024322
6450.00   0.79089689   0.01019799
6452.00   0.79004890   0.01030396
6454.00   0.81127244   0.01060504
6456.00   0.83158070   0.01082910
6458.00   0.84750336   0.01089727
6460.00   0.85975915   0.01088240
6462.00   0.85444385   0.01083665
6464.00   0.82597864   0.01068636
6466.00   0.81585914   0.01063540
6468.00   0.81113362   0.01066868
6470.00   0.81300390   0.01065620
6472.00   0.82666695   0.01060518
6474.00   0.84259737   0.01049732
6476.00   0.84372044   0.01024362
6478.00   0.83468896   0.00978104
6480.00   0.82800764   0.00958124
6482.00   0.81495422   0.00952653
6484.00   0.80990475   0.00955770
6486.00   0.81431949   0.00971581
6488.00   0.82221621   0.00991792
6490.00   0.83033442   0.01004605
6492.00   0.84184641   0.01011922
6494.00   0.83943617   0.01050496
6496.00   0.81435609   0.01144845
6498.00   0.81234628   0.01169613
6500.00   0.83810747   0.01124740
6502.00   0.86020821   0.01071732
6504.00   0.85994852   0.01048509
6506.00   0.84742856   0.01036345
6508.00   0.83319974   0.01028622
6510.00   0.80405653   0.01039893
6512.00   0.79141843   0.01030581
6514.00   0.78789371   0.01000637
6516.00   0.79180026   0.00975392
6518.00   0.80683166   0.00963378
6520.00   0.82791698   0.00959496
6522.00   0.83502823   0.00964977
6524.00   0.83396405   0.00985933
6526.00   0.83090818   0.00997279
6528.00   0.81800759   0.01000233
6530.00   0.81220353   0.01012948
6532.00   0.81853509   0.01046542
6534.00   0.82897151   0.01080466
6536.00   0.83346748   0.01083101
6538.00   0.83806372   0.01062816
6540.00   0.83267969   0.01044837
6542.00   0.81525445   0.01001926
6544.00   0.80139410   0.00990327
6546.00   0.78661323   0.01017841
6548.00   0.77791959   0.01059152
6550.00   0.78860730   0.01092812
6552.00   0.81807578   0.01126059
6554.00   0.81767219   0.01178325
6556.00   0.78504837   0.01267958
6558.00   0.77779317   0.01309690
6560.00   0.79362351   0.01319262
6562.00   0.81469554   0.01303160
6564.00   0.83418196   0.01252985
6566.00   0.85578018   0.01168034
6568.00   0.85990065   0.01114201
6570.00   0.84890747   0.01064397
6572.00   0.83734375   0.01039747
6574.00   0.81637096   0.01051792
6576.00   0.79974586   0.01062020
6578.00   0.79285765   0.01053193
6580.00   0.79180002   0.01039240
6582.00   0.79393142   0.01043565
6584.00   0.80569875   0.01074742
6586.00   0.80746388   0.01070502
6588.00   0.79802233   0.01035591
6590.00   0.79717636   0.01007497
6592.00   0.81394643   0.00988750
6594.00   0.83434898   0.00979908
6596.00   0.83559400   0.00996369
6598.00   0.82484156   0.01040526
6600.00   0.81140387   0.01066057
6602.00   0.78381413   0.01101925
6604.00   0.76748604   0.01106380
6606.00   0.76254553   0.01070974
6608.00   0.76538390   0.01017248
6610.00   0.77692014   0.00961161
6612.00   0.80012590   0.00880966
6614.00   0.80750710   0.00877736
6616.00   0.80904031   0.00949786
6618.00   0.80161566   0.01001791
6620.00   0.77981949   0.01063603
6622.00   0.75761235   0.01101897
6624.00   0.74409592   0.01084972
6626.00   0.73456794   0.01027153
6628.00   0.73214942   0.01003095
6630.00   0.73753661   0.00998990
6632.00   0.74495173   0.00979305
6634.00   0.75649303   0.00943125
6636.00   0.77026528   0.00912520
6638.00   0.78632104   0.00894444
6640.00   0.80420488   0.00886815
6642.00   0.81945574   0.00903359
6644.00   0.83731389   0.00953719
6646.00   0.84522355   0.00981955
6648.00   0.84773773   0.01016053
6650.00   0.84256315   0.01026314
6652.00   0.82511914   0.00999335
6654.00   0.80283630   0.00953714
6656.00   0.79146606   0.00923411
6658.00   0.78432477   0.00884216
6660.00   0.78357840   0.00887898
6662.00   0.79069728   0.00935866
6664.00   0.79937279   0.00974862
6666.00   0.81139201   0.01017899
6668.00   0.82372767   0.01045439
6670.00   0.83216649   0.01021247
6672.00   0.83949131   0.00945019
6674.00   0.83865732   0.00917807
6676.00   0.82599944   0.00916800
6678.00   0.81996250   0.00918352
6680.00   0.81554198   0.00916932
6682.00   0.81814343   0.00933464
6684.00   0.83379012   0.00983526
6686.00   0.85983801   0.01055672
6688.00   0.88659948   0.01124131
6690.00   0.91759014   0.01212581
6692.00   0.95214146   0.01268575
6694.00   1.00430751   0.01321086
6696.00   1.03849196   0.01336039
6698.00   1.03927147   0.01286999
6700.00   1.01645517   0.01190827
6702.00   0.97404659   0.01119763
6704.00   0.87989962   0.01021990
6706.00   0.83790684   0.00983910
6708.00   0.81662321   0.00998527
6710.00   0.81830490   0.01030962
6712.00   0.85709888   0.01084694
6714.00   0.91043800   0.01145197
6716.00   0.92374688   0.01173421
6718.00   0.91558933   0.01198961
6720.00   0.89790660   0.01168288
6722.00   0.85923815   0.01054176
6724.00   0.82234311   0.00965434
6726.00   0.78242469   0.00909222
6728.00   0.74751693   0.00882350
6730.00   0.73267412   0.00904967
6732.00   0.73259270   0.00982364
6734.00   0.73951626   0.01004751
6736.00   0.76878798   0.01005743
6738.00   0.78085941   0.00997377
6740.00   0.77735883   0.00964035
6742.00   0.76667875   0.00936320
6744.00   0.74948937   0.00945183
6746.00   0.72369742   0.00977125
6748.00   0.72409308   0.01001369
6750.00   0.75682414   0.01050038
6752.00   0.76401317   0.01052273
6754.00   0.75008327   0.01006232
6756.00   0.73555416   0.00953831
6758.00   0.72866565   0.00911865
6760.00   0.72456366   0.00872281
6762.00   0.72390658   0.00859026
6764.00   0.73150742   0.00879463
6766.00   0.73036903   0.00884695
6768.00   0.72059005   0.00889103
6770.00   0.71517968   0.00891744
6772.00   0.71682805   0.00888949
6774.00   0.72328055   0.00886267
6776.00   0.73595375   0.00898940
6778.00   0.76437634   0.00929414
6780.00   0.76616186   0.00940480
6782.00   0.74600017   0.00945170
6784.00   0.72794849   0.00940006
6786.00   0.70962423   0.00920066
6788.00   0.69475436   0.00894162
6790.00   0.69478184   0.00874864
6792.00   0.70919782   0.00854546
6794.00   0.71081001   0.00849033
6796.00   0.70249891   0.00852216
6798.00   0.70209748   0.00868191
6800.00   0.71247208   0.00902420
6802.00   0.72225326   0.00938671
6804.00   0.72074646   0.00967905
6806.00   0.71171480   0.00996618
6808.00   0.71584624   0.00998171
6810.00   0.73698467   0.00966328
6812.00   0.74047768   0.00950480
6814.00   0.72714323   0.00938712
6816.00   0.71280915   0.00936366
6818.00   0.70430380   0.00948916
6820.00   0.69777900   0.00972225
6822.00   0.69487882   0.00993970
6824.00   0.69976890   0.01013407
6826.00   0.69654429   0.01046722
6828.00   0.68478125   0.01105646
6830.00   0.67756093   0.01142435
6832.00   0.67979938   0.01147409
6834.00   0.68632907   0.01131451
6836.00   0.68938041   0.01097406
6838.00   0.69206101   0.01026340
6840.00   0.69380075   0.00978948
6842.00   0.68827450   0.00928370
6844.00   0.69419962   0.00902367
6846.00   0.72000080   0.00918928
6848.00   0.74940538   0.00946925
6850.00   0.76020849   0.00942336
6852.00   0.76054490   0.00914444
6854.00   0.75693309   0.00916355
6856.00   0.74402976   0.00919727
6858.00   0.73176718   0.00958867
6860.00   0.71760499   0.01048433
6862.00   0.70479614   0.01132722
6864.00   0.69766247   0.01175654
6866.00   0.69464946   0.01199358
6868.00   0.68978661   0.01203023
6870.00   0.68329358   0.01176076
6872.00   0.68083066   0.01154178
6874.00   0.68233675   0.01131576
6876.00   0.68522626   0.01104765
6878.00   0.68923682   0.01068955
6880.00   0.69431549   0.01026551
6882.00   0.69387436   0.01002231
6884.00   0.68808681   0.00991520
6886.00   0.68412846   0.00984202
6888.00   0.68225753   0.00989061
6890.00   0.67662030   0.00990506
6892.00   0.66331500   0.00982869
6894.00   0.64684105   0.00971266
6896.00   0.63791537   0.00962270
6898.00   0.63203281   0.00953179
6900.00   0.63096321   0.00944876
6902.00   0.63472390   0.00930901
6904.00   0.64173442   0.00929015
6906.00   0.65536267   0.00946927
6908.00   0.66931057   0.00970158
6910.00   0.67216235   0.00979318
6912.00   0.66751486   0.00981232
6914.00   0.66139710   0.00984042
6916.00   0.64867806   0.00979526
6918.00   0.63908786   0.00984797
6920.00   0.63168257   0.01004588
6922.00   0.62649238   0.01024273
6924.00   0.62460357   0.01033216
6926.00   0.62572968   0.01038153
6928.00   0.62755382   0.01022218
6930.00   0.62820476   0.00969964
6932.00   0.63604444   0.00944182
6934.00   0.65555143   0.00940379
6936.00   0.67201668   0.00945081
6938.00   0.67606187   0.00952906
6940.00   0.67288804   0.00966518
6942.00   0.67085081   0.00980379
6944.00   0.66449237   0.00997243
6946.00   0.66217595   0.01013943
6948.00   0.66433412   0.01042573
6950.00   0.66406411   0.01053028
6952.00   0.65885073   0.01032643
6954.00   0.65079689   0.00992246
6956.00   0.64193422   0.00950226
6958.00   0.62536663   0.00866380
6960.00   0.62416607   0.00859390
6962.00   0.63683498   0.00932333
6964.00   0.64793539   0.00977563
6966.00   0.65538281   0.00983404
6968.00   0.66222918   0.00974828
6970.00   0.67026585   0.00968840
6972.00   0.68016315   0.00953403
6974.00   0.68466061   0.00954636
6976.00   0.68764764   0.00968731
6978.00   0.68430787   0.00982307
6980.00   0.67271960   0.00997643
6982.00   0.65786159   0.01012101
6984.00   0.64319754   0.01025765
6986.00   0.62547624   0.01043540
6988.00   0.62077850   0.01018595
6990.00   0.62416714   0.00930121
6992.00   0.63449335   0.00880708
6994.00   0.66365910   0.00865951
6996.00   0.68345135   0.00865356
6998.00   0.67021185   0.00872225
7000.00   0.63638461   0.00889896
7002.00   0.62823963   0.00894338
7004.00   0.63328367   0.00891099
7006.00   0.63964748   0.00889859
7008.00   0.66162914   0.00883103
7010.00   0.66946721   0.00884210
7012.00   0.64326912   0.00903209
7014.00   0.60242367   0.00929255
7016.00   0.59775132   0.00934685
7018.00   0.62054664   0.00927946
7020.00   0.63394433   0.00916958
7022.00   0.65329260   0.00890529
7024.00   0.66645533   0.00872239
7026.00   0.67148006   0.00870328
7028.00   0.67091113   0.00873319
7030.00   0.66567487   0.00864471
7032.00   0.65329552   0.00845178
7034.00   0.64413321   0.00840574
7036.00   0.62728369   0.00844878
7038.00   0.62556547   0.00852431
7040.00   0.64662069   0.00865069
7042.00   0.67104071   0.00879378
7044.00   0.68048286   0.00888637
7046.00   0.68492830   0.00892308
7048.00   0.66880012   0.00920995
7050.00   0.61431360   0.00995112
7052.00   0.59304899   0.01013098
7054.00   0.60304248   0.00968467
7056.00   0.62135077   0.00919179
7058.00   0.63746220   0.00908542
7060.00   0.65703553   0.00916572
7062.00   0.66391987   0.00918400
7064.00   0.65831143   0.00928581
7066.00   0.65781158   0.00927514
7068.00   0.66018885   0.00916776
7070.00   0.66024154   0.00904325
7072.00   0.65504247   0.00890764
7074.00   0.64713252   0.00876796
7076.00   0.64291525   0.00874576
7078.00   0.64434260   0.00884246
7080.00   0.63624573   0.00889992
7082.00   0.61861712   0.00886149
7084.00   0.60406226   0.00901587
7086.00   0.59085023   0.00952407
7088.00   0.58315158   0.01009064
7090.00   0.59650975   0.01027556
7092.00   0.63710648   0.01025319
7094.00   0.64714795   0.01012898
7096.00   0.63516003   0.00975353
7098.00   0.62899160   0.00944512
7100.00   0.62893778   0.00919989
7102.00   0.63123685   0.00900466
7104.00   0.63539547   0.00889924
7106.00   0.64247084   0.00889145
7108.00   0.64599419   0.00882367
7110.00   0.65048617   0.00874771
7112.00   0.64843822   0.00866094
7114.00   0.63816160   0.00847666
7116.00   0.62626797   0.00839730
7118.00   0.61643392   0.00864620
7120.00   0.60662365   0.00911135
7122.00   0.60304886   0.00919599
7124.00   0.60181397   0.00900654
7126.00   0.60866535   0.00889148
7128.00   0.62898302   0.00875437
7130.00   0.64551979   0.00863531
7132.00   0.65073997   0.00851592
7134.00   0.64970124   0.00842748
7136.00   0.64646816   0.00859715
7138.00   0.63859504   0.00912505
7140.00   0.62938637   0.00933788
7142.00   0.61080152   0.00940907
7144.00   0.60236275   0.00944309
7146.00   0.61093521   0.00948680
7148.00   0.62759930   0.00947620
7150.00   0.64000356   0.00928529
7152.00   0.65871263   0.00885039
7154.00   0.65813267   0.00862493
7156.00   0.63605589   0.00844256
7158.00   0.62213832   0.00840648
7160.00   0.61538905   0.00855744
7162.00   0.61537844   0.00880221
7164.00   0.62849945   0.00904587
7166.00   0.65732002   0.00933844
7168.00   0.66442215   0.00958580
7170.00   0.65676403   0.00993654
7172.00   0.65020543   0.01003142
7174.00   0.64142078   0.00981981
7176.00   0.63301617   0.00954221
7178.00   0.62926805   0.00936819
7180.00   0.62864530   0.00921339
7182.00   0.61844867   0.00916278
7184.00   0.59284991   0.00918552
7186.00   0.58465773   0.00929467
7188.00   0.59002084   0.00961668
7190.00   0.60031915   0.00980874
7192.00   0.61557591   0.00968304
7194.00   0.63443524   0.00937291
7196.00   0.63729769   0.00919667
7198.00   0.62460583   0.00896181
7200.00   0.61872643   0.00893747
7202.00   0.60916257   0.00919789
7204.00   0.60691470   0.00932807
7206.00   0.62000924   0.00918829
7208.00   0.63732404   0.00894615
7210.00   0.63443953   0.00886723
7212.00   0.61286616   0.00886276
7214.00   0.60664272   0.00888553
7216.00   0.60507518   0.00902554
7218.00   0.60888034   0.00906133
7220.00   0.62316954   0.00893379
7222.00   0.63780004   0.00877035
7224.00   0.63799351   0.00870727
7226.00   0.62882721   0.00865048
7228.00   0.61806899   0.00884563
7230.00   0.60045600   0.00878787
7232.00   0.58447981   0.00972885
7234.00   0.56504160   0.01127898
7236.00   0.55130470   0.01326109
7238.00   0.55437851   0.01596629
7240.00   0.57058233   0.01908784
7242.00   0.57170576   0.01970505
7244.00   0.56382489   0.01836879
7246.00   0.55802804   0.01741181
7248.00   0.54530948   0.01626882
7250.00   0.54244995   0.01503535
7252.00   0.56073922   0.01374590
7254.00   0.59256452   0.01237063
7256.00   0.61818808   0.01141926
7258.00   0.66165280   0.01100669
7260.00   0.66598731   0.01050911
7262.00   0.63056868   0.01006506
7264.00   0.60056943   0.00984134
7266.00   0.58480281   0.00966991
7268.00   0.57703656   0.00985726
7270.00   0.58505428   0.01129250
7272.00   0.62012929   0.01387470
7274.00   0.62367338   0.01511586
7276.00   0.60118198   0.01619186
7278.00   0.58843529   0.01650761
7280.00   0.58941650   0.01574203
7282.00   0.59566337   0.01452777
7284.00   0.60199159   0.01394228
7286.00   0.61284316   0.01369745
7288.00   0.61450541   0.01307548
7290.00   0.61215740   0.01199767
7292.00   0.60335207   0.01128158
7294.00   0.58151931   0.01100461
7296.00   0.56200022   0.01094623
7298.00   0.55964011   0.01096205
7300.00   0.56839669   0.01113018
7302.00   0.57507008   0.01132310
7304.00   0.58830220   0.01163842
7306.00   0.59462434   0.01188393
7308.00   0.58919966   0.01187889
7310.00   0.59074223   0.01217687
7312.00   0.61310148   0.01323622
7314.00   0.64736527   0.01460946
7316.00   0.66365153   0.01499379
7318.00   0.67827088   0.01493366
7320.00   0.67217785   0.01440741
7322.00   0.63647133   0.01281031
7324.00   0.60903913   0.01147365
7326.00   0.60270745   0.01109894
7328.00   0.60546964   0.01125684
7330.00   0.60397273   0.01136213
7332.00   0.61036944   0.01158517
7334.00   0.59664190   0.01210057
7336.00   0.55088007   0.01291998
7338.00   0.53160185   0.01372885
7340.00   0.55420268   0.01481166
7342.00   0.59014428   0.01561967
7344.00   0.60542619   0.01524162
7346.00   0.61438370   0.01372561
7348.00   0.61539084   0.01262903
7350.00   0.59969306   0.01106234
7352.00   0.59534836   0.01009912
7354.00   0.60870868   0.01003556
7356.00   0.61954087   0.01038102
7358.00   0.60650551   0.01075149
7360.00   0.57554996   0.01133094
7362.00   0.57223904   0.01175334
7364.00   0.59425724   0.01217927
7366.00   0.60078943   0.01250464
7368.00   0.59890354   0.01289046
7370.00   0.59020603   0.01301125
7372.00   0.56942689   0.01262551
7374.00   0.54020369   0.01184098
7376.00   0.53810388   0.01108252
7378.00   0.56484616   0.00974198
7380.00   0.57321161   0.00918767
7382.00   0.56522131   0.00927247
7384.00   0.56859779   0.00971057
7386.00   0.59749281   0.01058584
7388.00   0.63745493   0.01160387
7390.00   0.65873986   0.01193429
7392.00   0.67864287   0.01179241
7394.00   0.67382848   0.01177743
7396.00   0.63034338   0.01136558
7398.00   0.60789794   0.01153242
7400.00   0.62422621   0.01278058
7402.00   0.64896613   0.01403167
7404.00   0.64193672   0.01402134
7406.00   0.61464876   0.01315329
7408.00   0.59306127   0.01226529
7410.00   0.55483484   0.01044238
7412.00   0.54252654   0.00924263
7414.00   0.56614417   0.00911590
7416.00   0.59593874   0.00935423
7418.00   0.60473210   0.00932380
7420.00   0.60431725   0.00930416
7422.00   0.60042292   0.00937555
7424.00   0.58380318   0.00950385
7426.00   0.57765639   0.00970563
7428.00   0.57972127   0.00998240
7430.00   0.58545816   0.01030650
7432.00   0.59525824   0.01072163
7434.00   0.60881257   0.01119087
7436.00   0.60845262   0.01129728
7438.00   0.59686917   0.01116341
7440.00   0.58553123   0.01090305
7442.00   0.56523561   0.01035394
7444.00   0.55257589   0.00980986
7446.00   0.55569255   0.00935857
7448.00   0.56723851   0.00896858
7450.00   0.57334208   0.00879543
7452.00   0.57929605   0.00886943
7454.00   0.58462173   0.00892660
7456.00   0.59028232   0.00910919
7458.00   0.59396553   0.00923373
7460.00   0.59627837   0.00915754
7462.00   0.59599745   0.00912857
7464.00   0.58901435   0.00960979
7466.00   0.57191873   0.01055184
7468.00   0.57020134   0.01098014
7470.00   0.57750940   0.01117627
7472.00   0.58897054   0.01132398
7474.00   0.60845333   0.01136854
7476.00   0.62851012   0.01140499
7478.00   0.64059341   0.01160677
7480.00   0.64886361   0.01196155
7482.00   0.65031892   0.01183662
7484.00   0.64547801   0.01121095
7486.00   0.63580579   0.01075512
7488.00   0.61476272   0.01033340
7490.00   0.59740704   0.01002689
7492.00   0.59496009   0.00996736
7494.00   0.60169733   0.01010069
7496.00   0.60656065   0.01010505
7498.00   0.62250620   0.01021431
7500.00   0.61960864   0.01002687
7502.00   0.59687924   0.00945903
7504.00   0.57599926   0.00892293
7506.00   0.56351519   0.00858359
7508.00   0.55554277   0.00836501
7510.00   0.55650407   0.00834098
7512.00   0.57009238   0.00845674
7514.00   0.57730186   0.00882153
7516.00   0.59051913   0.00921698
7518.00   0.59094834   0.01005524
7520.00   0.56786090   0.01152710
7522.00   0.53810298   0.01302353
7524.00   0.53150505   0.01388789
7526.00   0.54070371   0.01470358
7528.00   0.54412705   0.01449087
7530.00   0.54736727   0.01296448
7532.00   0.55375749   0.01166430
7534.00   0.56237280   0.01059813
7536.00   0.57471895   0.00971842
7538.00   0.59513825   0.00927813
7540.00   0.62528443   0.00933176
7542.00   0.63662738   0.00926141
7544.00   0.63969642   0.00938250
7546.00   0.63068432   0.00934985
7548.00   0.60070759   0.00911073
7550.00   0.57212096   0.00890784
7552.00   0.56145018   0.00893825
7554.00   0.56053501   0.00911021
7556.00   0.56032813   0.00917965
7558.00   0.57667381   0.00910374
7560.00   0.56805670   0.00929757
7562.00   0.53141010   0.00962490
7564.00   0.49983719   0.01014179
7566.00   0.48503438   0.01103399
7568.00   0.47986543   0.01201402
7570.00   0.48780802   0.01217862
7572.00   0.52355361   0.01162532
7574.00   0.53183383   0.01131398
7576.00   0.51746792   0.01092703
7578.00   0.51256073   0.01053765
7580.00   0.52750921   0.01008751
7582.00   0.54855841   0.00967956
7584.00   0.55638146   0.00962163
7586.00   0.55677676   0.00986751
7588.00   0.55798471   0.01012531
7590.00   0.55416512   0.01037738
7592.00   0.55499715   0.01090636
7594.00   0.56666696   0.01148032
7596.00   0.57563412   0.01244357
7598.00   0.56252837   0.01403346
7600.00   0.52902710   0.01575538
7602.00   0.52408606   0.01877647
7604.00   0.53222364   0.02352802
7606.00   0.55224818   0.02592520
7608.00   0.60390258   0.02726487
7610.00   0.64167124   0.02730137
7612.00   0.62266541   0.02506524
7614.00   0.56520104   0.02021085
7616.00   0.54497141   0.01729737
7618.00   0.54893762   0.01523840
7620.00   0.53565592   0.01388705
7622.00   0.50190157   0.01387810
7624.00   0.47973025   0.01451036
7626.00   0.48417857   0.01568330
7628.00   0.50512445   0.01719631
7630.00   0.53029686   0.01766566
7632.00   0.58604920   0.01767517
7634.00   0.59829324   0.01721798
7636.00   0.57595617   0.01588125
7638.00   0.55425167   0.01459100
7640.00   0.54057479   0.01351875
7642.00   0.52771252   0.01262440
7644.00   0.51265019   0.01233798
7646.00   0.49225187   0.01283668
7648.00   0.48529136   0.01287815
7650.00   0.48658687   0.01294071
7652.00   0.49440157   0.01274762
7654.00   0.51558328   0.01203881
7656.00   0.53657514   0.01128071
7658.00   0.53670275   0.01126418
7660.00   0.52083296   0.01181091
7662.00   0.51552492   0.01200789
7664.00   0.51178741   0.01234395
7666.00   0.51097071   0.01223307
7668.00   0.51203293   0.01151767
7670.00   0.51695418   0.01065025
7672.00   0.52989185   0.01002168
7674.00   0.55005348   0.00945328
7676.00   0.55440813   0.00916311
7678.00   0.54003346   0.00915203
7680.00   0.54147691   0.00928336
7682.00   0.55841672   0.00972348
7684.00   0.57292193   0.01009270
7686.00   0.57809323   0.01020790
7688.00   0.57773787   0.01020454
7690.00   0.56733656   0.01029039
7692.00   0.53220493   0.01039890
7694.00   0.52717847   0.01050090
7696.00   0.55113780   0.01058322
7698.00   0.56458175   0.01070418
7700.00   0.55290586   0.01080804
7702.00   0.53267884   0.01098700
7704.00   0.52888167   0.01146480
7706.00   0.53012973   0.01174767
7708.00   0.54379112   0.01334235
7710.00   0.58800387   0.01621554
7712.00   0.60365927   0.01806077
7714.00   0.56791991   0.01913298
7716.00   0.52732295   0.01970115
7718.00   0.54555362   0.01970401
7720.00   0.61093313   0.01918401
7722.00   0.62936425   0.01811751
7724.00   0.62884438   0.01571327
7726.00   0.61582071   0.01380103
7728.00   0.57628649   0.01240988
7730.00   0.54009759   0.01143572
7732.00   0.53801781   0.01104835
7734.00   0.55834693   0.01135946
7736.00   0.55743295   0.01119321
7738.00   0.53800642   0.01049886
7740.00   0.53833234   0.01068544
7742.00   0.56557840   0.01150533
7744.00   0.58231395   0.01269854
7746.00   0.56045061   0.01433794
7748.00   0.51890552   0.01615465
7750.00   0.52384079   0.01700813
7752.00   0.58628702   0.01746021
7754.00   0.59059745   0.01746708
7756.00   0.55004263   0.01693881
7758.00   0.51496124   0.01614260
7760.00   0.49727258   0.01498013
7762.00   0.48768345   0.01351212
7764.00   0.48775840   0.01238675
7766.00   0.50232875   0.01131720
7768.00   0.50959176   0.01068451
7770.00   0.51122528   0.01060278
7772.00   0.52147555   0.01067826
7774.00   0.55122346   0.01092394
7776.00   0.57970691   0.01130067
7778.00   0.57292885   0.01171122
7780.00   0.53291816   0.01230355
7782.00   0.52987528   0.01239718
7784.00   0.55356222   0.01152148
7786.00   0.56730652   0.01179347
7788.00   0.57420355   0.01352146
7790.00   0.57603955   0.01515296
7792.00   0.57001328   0.01586854
7794.00   0.55605078   0.01620939
7796.00   0.55124944   0.01603366
7798.00   0.54981637   0.01509283
7800.00   0.55201894   0.01424434
7802.00   0.56392372   0.01306328
7804.00   0.57043225   0.01210993
7806.00   0.56348556   0.01194902
7808.00   0.54754287   0.01232573
7810.00   0.52227342   0.01244682
7812.00   0.46250466   0.01216503
7814.00   0.45232320   0.01289240
7816.00   0.49103820   0.01440562
7818.00   0.52045369   0.01588747
7820.00   0.51931864   0.01757334
7822.00   0.50715673   0.01902993
7824.00   0.50979328   0.01870129
7826.00   0.52275562   0.01643090
7828.00   0.52563417   0.01485603
7830.00   0.52045733   0.01267898
7832.00   0.51904851   0.01109814
7834.00   0.52476496   0.01084328
7836.00   0.53167027   0.01126569
7838.00   0.53234512   0.01136626
7840.00   0.52978468   0.01147376
7842.00   0.52424598   0.01199864
7844.00   0.51232553   0.01270621
7846.00   0.50403839   0.01374938
7848.00   0.48738509   0.01510223
7850.00   0.48648936   0.01657298
7852.00   0.53636849   0.01824192
7854.00   0.63152349   0.02020948
7856.00   0.65986419   0.02044980
7858.00   0.64784735   0.01908230
7860.00   0.62936145   0.01809081
7862.00   0.58841068   0.01706178
7864.00   0.54888016   0.01611750
7866.00   0.52562141   0.01544003
7868.00   0.51062906   0.01497262
7870.00   0.50385141   0.01464146
7872.00   0.50258601   0.01434136
7874.00   0.51582718   0.01456655
7876.00   0.55467969   0.01564808
7878.00   0.58358949   0.01628041
7880.00   0.59066665   0.01594817
7882.00   0.58501250   0.01516413
7884.00   0.57100636   0.01498527
7886.00   0.52827293   0.01519509
7888.00   0.52686799   0.01518179
7890.00   0.56353670   0.01534994
7892.00   0.58786690   0.01507507
7894.00   0.59242016   0.01397112
7896.00   0.58800852   0.01252301
7898.00   0.58084327   0.01179738
7900.00   0.56799042   0.01140942
7902.00   0.55160493   0.01164674
7904.00   0.51437885   0.01230474
7906.00   0.50610059   0.01358332
7908.00   0.54862297   0.01563525
7910.00   0.58663166   0.01759806
7912.00   0.55544806   0.01895251
7914.00   0.47097299   0.02010929
7916.00   0.45673785   0.02066578
7918.00   0.49395770   0.02097605
7920.00   0.51378191   0.02054161
7922.00   0.52564234   0.01893349
7924.00   0.53527844   0.01712150
7926.00   0.54509056   0.01589643
7928.00   0.55384636   0.01493648
7930.00   0.55295950   0.01426723
7932.00   0.53842568   0.01433073
7934.00   0.53321534   0.01386688
7936.00   0.53072441   0.01285162
7938.00   0.53330743   0.01205739
7940.00   0.54437071   0.01194433
7942.00   0.56019151   0.01220032
7944.00   0.56798971   0.01223742
7946.00   0.56539124   0.01227481
7948.00   0.57809520   0.01230666
7950.00   0.61030632   0.01223504
7952.00   0.62864822   0.01234004
7954.00   0.62844056   0.01262640
7956.00   0.61528289   0.01308710
7958.00   0.58698213   0.01379943
7960.00   0.52874011   0.01472346
7962.00   0.51705742   0.01567625
7964.00   0.54154104   0.01714991
7966.00   0.56210148   0.01778269
7968.00   0.58374619   0.01756375
7970.00   0.60154617   0.01687527
7972.00   0.60450917   0.01588442
7974.00   0.59660196   0.01423139
7976.00   0.58536464   0.01342692
7978.00   0.55562979   0.01327957
7980.00   0.54707807   0.01317872
7982.00   0.55491430   0.01317191
7984.00   0.57543051   0.01339369
7986.00   0.61679751   0.01387274
7988.00   0.67616361   0.01456119
7990.00   0.68039000   0.01559784
7992.00   0.63087833   0.01756920
7994.00   0.60547221   0.01813957
7996.00   0.58344299   0.01784750
7998.00   0.57034087   0.01701457
8000.00   0.57229298   0.01536319
8002.00   0.58356720   0.01292564
8004.00   0.58598262   0.01162956
8006.00   0.58362615   0.01117959
8008.00   0.58554626   0.01109984
8010.00   0.59007221   0.01195956
8012.00   0.59436649   0.01260032
8014.00   0.59719986   0.01274015
8016.00   0.60036165   0.01283564
8018.00   0.60800803   0.01347326
8020.00   0.62620842   0.01443912
8022.00   0.61913502   0.01538021
8024.00   0.58775640   0.01694780
8026.00   0.56202191   0.01747431
8028.00   0.53829867   0.01680014
8030.00   0.52083391   0.01554720
8032.00   0.52013749   0.01428164
8034.00   0.53384864   0.01251037
8036.00   0.54514813   0.01127603
8038.00   0.56564754   0.01035390
8040.00   0.57626843   0.00977610
8042.00   0.57666898   0.00967235
8044.00   0.57427859   0.00992438
8046.00   0.57246655   0.01046674
8048.00   0.56922454   0.01129041
8050.00   0.57434529   0.01193561
8052.00   0.58827502   0.01277879
8054.00   0.59867507   0.01312743
8056.00   0.61399984   0.01294661
8058.00   0.61979818   0.01282635
8060.00   0.60482079   0.01309672
8062.00   0.57849467   0.01349864
8064.00   0.57065368   0.01350998
8066.00   0.57751513   0.01343004
8068.00   0.57504696   0.01289123
8070.00   0.57029390   0.01146548
8072.00   0.56342107   0.01036805
8074.00   0.55017346   0.01018258
8076.00   0.53751093   0.01042107
8078.00   0.54311609   0.01038669
8080.00   0.56711042   0.01036120
8082.00   0.57827860   0.01030116
8084.00   0.59017813   0.01004669
8086.00   0.59129721   0.01010360
8088.00   0.57598197   0.01065977
8090.00   0.55650663   0.01125075
8092.00   0.54671955   0.01139753
8094.00   0.53892082   0.01127450
8096.00   0.54524153   0.01125668
8098.00   0.57401240   0.01120695
8100.00   0.58745819   0.01117449
8102.00   0.58859050   0.01117295
8104.00   0.58235687   0.01115566
8106.00   0.56676346   0.01109993
8108.00   0.54115385   0.01102128
8110.00   0.54002762   0.01081318
8112.00   0.56160957   0.01036506
8114.00   0.57377863   0.01012154
8116.00   0.58331323   0.00999331
8118.00   0.59085864   0.00998776
8120.00   0.59640551   0.01019613
8122.00   0.59989029   0.01052209
8124.00   0.60026205   0.01048580
8126.00   0.59463286   0.01001223
8128.00   0.59401309   0.00993127
8130.00   0.59982711   0.01001198
8132.00   0.59949416   0.01024464
8134.00   0.58971727   0.01059707
8136.00   0.57386094   0.01109071
8138.00   0.55372673   0.01184065
8140.00   0.51941133   0.01319308
8142.00   0.51003826   0.01327472
8144.00   0.52003777   0.01214865
8146.00   0.53072196   0.01134247
8148.00   0.54291070   0.01109906
8150.00   0.55585527   0.01103958
8152.00   0.56515628   0.01086736
8154.00   0.57256323   0.01067640
8156.00   0.57880515   0.01067204
8158.00   0.59086758   0.01056868
8160.00   0.58662921   0.01103964
8162.00   0.55608839   0.01254575
8164.00   0.52818954   0.01359153
8166.00   0.53010970   0.01301665
8168.00   0.55129629   0.01112738
8170.00   0.55136269   0.01078661
8172.00   0.53182495   0.01142366
8174.00   0.53154743   0.01204992
8176.00   0.55083716   0.01289882
8178.00   0.56856996   0.01379105
8180.00   0.57500869   0.01468669
8182.00   0.57589000   0.01558973
8184.00   0.57316172   0.01625235
8186.00   0.55996513   0.01674363
8188.00   0.55695623   0.01722810
8190.00   0.56399453   0.01761043
8192.00   0.56580466   0.01804426
8194.00   0.55448836   0.01878398
8196.00   0.53947616   0.01944838
8198.00   0.53998393   0.01909252
8200.00   0.55420756   0.01769312
8202.00   0.55948770   0.01662885
8204.00   0.56973273   0.01525532
8206.00   0.56474131   0.01412095
8208.00   0.52889365   0.01343790
8210.00   0.49255058   0.01296969
8212.00   0.50272161   0.01237921
8214.00   0.55162442   0.01179167
8216.00   0.56851798   0.01131773
8218.00   0.57704645   0.01084209
8220.00   0.57388186   0.01066061
8222.00   0.54551518   0.01074440
8224.00   0.52295172   0.01111231
8226.00   0.54063267   0.01193218
8228.00   0.58746350   0.01314424
8230.00   0.59556955   0.01331272
8232.00   0.57775182   0.01261350
8234.00   0.56569529   0.01215327
8236.00   0.54610592   0.01168370
8238.00   0.53638607   0.01128262
8240.00   0.55241716   0.01107319
8242.00   0.58389562   0.01099141
8244.00   0.59003508   0.01074139
8246.00   0.57738155   0.01029577
8248.00   0.57227749   0.01007023
8250.00   0.56767499   0.01001968
8252.00   0.56334955   0.00999235
8254.00   0.56054807   0.00991540
8256.00   0.55749053   0.00986680
8258.00   0.54808170   0.01001117
8260.00   0.52732635   0.01046612
8262.00   0.52393162   0.01049614
8264.00   0.53681654   0.01011490
8266.00   0.54416317   0.00992607
8268.00   0.53704697   0.00960093
8270.00   0.53191948   0.00979046
8272.00   0.55657017   0.01167046
8274.00   0.61797059   0.01455149
8276.00   0.61307567   0.01641021
8278.00   0.54161698   0.01825898
8280.00   0.50309396   0.01951364
8282.00   0.49728808   0.02019900
8284.00   0.50309360   0.02068114
8286.00   0.50966763   0.02124182
8288.00   0.52327895   0.02177643
8290.00   0.52966624   0.02205400
8292.00   0.52930957   0.02226139
8294.00   0.53572834   0.02208519
8296.00   0.55376494   0.02146890
8298.00   0.56535172   0.02065043
8300.00   0.55599439   0.01974240
8302.00   0.53420240   0.01865477
8304.00   0.53286999   0.01747758
8306.00   0.55804002   0.01583037
8308.00   0.55137980   0.01472020
8310.00   0.51352280   0.01417593
8312.00   0.48337224   0.01369681
8314.00   0.47363427   0.01313092
8316.00   0.47410294   0.01258055
8318.00   0.47740641   0.01198601
8320.00   0.48784348   0.01127886
8322.00   0.49960056   0.01078436
8324.00   0.51874942   0.01044854
8326.00   0.53302008   0.01022259
8328.00   0.54127210   0.01000362
8330.00   0.54509252   0.00999371
8332.00   0.54300004   0.01034194
8334.00   0.53084338   0.01021173
8336.00   0.53366965   0.01323125
8338.00   0.57142723   0.01816077
8340.00   0.56054735   0.02140880
8342.00   0.47479966   0.02424146
8344.00   0.38620308   0.02607326
8346.00   0.36618423   0.02598957
8348.00   0.38743034   0.02430411
8350.00   0.39997369   0.02306205
8352.00   0.43630603   0.02130604
8354.00   0.44602722   0.01970125
8356.00   0.42426449   0.01810120
8358.00   0.40429407   0.01660103
8360.00   0.40710285   0.01530189
8362.00   0.42150137   0.01421865
8364.00   0.43003857   0.01359184
8366.00   0.44159681   0.01383646
8368.00   0.44695589   0.01359595
8370.00   0.44798297   0.01298703
8372.00   0.44588763   0.01256889
8374.00   0.43869692   0.01251368
8376.00   0.42915148   0.01274377
8378.00   0.42889437   0.01342908
8380.00   0.43550822   0.01502938
8382.00   0.44199377   0.01534793
8384.00   0.44772390   0.01473715
8386.00   0.46037439   0.01422419
8388.00   0.48488328   0.01362062
8390.00   0.51302487   0.01336201
8392.00   0.53273439   0.01469289
8394.00   0.55739927   0.01712950
8396.00   0.54445153   0.01904017
8398.00   0.48156837   0.02187061
8400.00   0.44520280   0.02284406
8402.00   0.43605578   0.02177130
8404.00   0.44097757   0.01983367
8406.00   0.45694330   0.01809468
8408.00   0.48998630   0.01573078
8410.00   0.49921486   0.01480187
8412.00   0.48781592   0.01562533
8414.00   0.48782641   0.01579597
8416.00   0.50157243   0.01544145
8418.00   0.51088762   0.01522966
8420.00   0.50172216   0.01531956
8422.00   0.48102862   0.01560966
8424.00   0.47500160   0.01757814
8426.00   0.46914133   0.02132626
8428.00   0.48126280   0.02335056
8430.00   0.51441038   0.02542082
8432.00   0.54937530   0.02592148
8434.00   0.58681309   0.02360750
8436.00   0.62225991   0.01906657
8438.00   0.61637133   0.01632878
8440.00   0.55678856   0.01404733
8442.00   0.53883153   0.01309476
8444.00   0.55210084   0.01449144
8446.00   0.54629713   0.01553161
8448.00   0.50081819   0.01599009
8450.00   0.44636419   0.01621829
8452.00   0.43088770   0.01605350
8454.00   0.43472621   0.01524496
8456.00   0.46076041   0.01524096
8458.00   0.53224027   0.01495654
8460.00   0.57769060   0.01626841
8462.00   0.60109502   0.01976721
8464.00   0.60282397   0.02282759
8466.00   0.56677729   0.02383000
8468.00   0.48717993   0.02395020
8470.00   0.46509856   0.02251443
8472.00   0.49118268   0.01738353
8474.00   0.49202380   0.01397744
8476.00   0.46261856   0.01352837
8478.00   0.44124809   0.01371224
8480.00   0.45858306   0.01275746
8482.00   0.50066251   0.01142262
8484.00   0.51047695   0.01097795
8486.00   0.48573440   0.01116053
8488.00   0.49764425   0.01170014
8490.00   0.55159128   0.01295101
8492.00   0.59088492   0.01393475
8494.00   0.59214091   0.01428683
8496.00   0.57111824   0.01437823
8498.00   0.53886080   0.01481524
8500.00   0.47053352   0.01552551
8502.00   0.43781364   0.01593997
8504.00   0.42504323   0.01648992
8506.00   0.41676316   0.01648934
8508.00   0.40743682   0.01564627
8510.00   0.40445596   0.01425848
8512.00   0.42001781   0.01291025
8514.00   0.45734635   0.01093744
8516.00   0.48021027   0.00985048
8518.00   0.50240904   0.00967183
8520.00   0.51631182   0.00965315
8522.00   0.52022213   0.00982922
8524.00   0.51827252   0.01019390
8526.00   0.51464647   0.01069334
8528.00   0.50739223   0.01145589
8530.00   0.49753806   0.01153221
8532.00   0.47876808   0.01063068
8534.00   0.46958569   0.01064544
8536.00   0.46925637   0.01174925
8538.00   0.47340861   0.01279973
8540.00   0.48045567   0.01317978
8542.00   0.49146959   0.01324931
8544.00   0.49948362   0.01347829
8546.00   0.51158386   0.01390771
8548.00   0.51251370   0.01388662
8550.00   0.50181818   0.01346313
8552.00   0.48934138   0.01286356
8554.00   0.47573438   0.01205057
8556.00   0.46201339   0.01104038
8558.00   0.46769398   0.01061019
8560.00   0.49898669   0.01084147
8562.00   0.51106942   0.01072456
8564.00   0.50899094   0.01042789
8566.00   0.51481032   0.01029132
8568.00   0.53753930   0.01047608
8570.00   0.56579584   0.01077447
8572.00   0.58136016   0.01084385
8574.00   0.59616554   0.01079234
8576.00   0.58922106   0.01074515
8578.00   0.54661542   0.01060686
8580.00   0.52774662   0.01054129
8582.00   0.54402453   0.01055204
8584.00   0.56926519   0.01062474
8586.00   0.57576054   0.01076976
8588.00   0.57290816   0.01098913
8590.00   0.57662475   0.01121548
8592.00   0.58967161   0.01156053
8594.00   0.58783430   0.01173928
8596.00   0.56465238   0.01174562
8598.00   0.54204565   0.01169434
8600.00   0.53836447   0.01163508
8602.00   0.54571164   0.01152923
8604.00   0.54651856   0.01162833
8606.00   0.54902613   0.01181153
8608.00   0.54583895   0.01217852
8610.00   0.52894974   0.01275135
8612.00   0.52252501   0.01336292
8614.00   0.54552740   0.01389253
8616.00   0.58407938   0.01443335
8618.00   0.58957350   0.01529220
8620.00   0.56445974   0.01645581
8622.00   0.55905002   0.01743210
8624.00   0.55314493   0.01838201
8626.00   0.56293035   0.01927644
8628.00   0.60528994   0.02027951
8630.00   0.65691692   0.02114301
8632.00   0.66017061   0.02122603
8634.00   0.61824930   0.02072384
8636.00   0.60982782   0.01993050
8638.00   0.61477876   0.01812897
8640.00   0.62176949   0.01687209
8642.00   0.63271564   0.01652055
8644.00   0.64422381   0.01663648
8646.00   0.64924330   0.01682867
8648.00   0.65130109   0.01729768
8650.00   0.64692724   0.01775993
8652.00   0.63268417   0.01840087
8654.00   0.62244904   0.01890019
8656.00   0.61146212   0.01918161
8658.00   0.60677862   0.01952745
8660.00   0.61951780   0.02026555
8662.00   0.64716095   0.02128563
8664.00   0.65010470   0.02145663
8666.00   0.63160592   0.02104234
8668.00   0.62379932   0.02047983
8670.00   0.61801076   0.01950912
8672.00   0.61963958   0.01846237
8674.00   0.63935214   0.01754666
8676.00   0.66915905   0.01665247
8678.00   0.66161656   0.01578283
8680.00   0.61588508   0.01484376
8682.00   0.59111363   0.01417122
8684.00   0.56641066   0.01381213
8686.00   0.55433631   0.01350378
8688.00   0.56303447   0.01319586
8690.00   0.58281446   0.01291797
8692.00   0.59183252   0.01257259
8694.00   0.59452379   0.01209664
8696.00   0.60635912   0.01187486
8698.00   0.63005340   0.01188858
8700.00   0.64430571   0.01189047
8702.00   0.64717501   0.01174866
8704.00   0.64232880   0.01171241
8706.00   0.63006294   0.01221913
8708.00   0.60680765   0.01331493
8710.00   0.59235102   0.01340465
8712.00   0.58099395   0.01273736
8714.00   0.57096040   0.01214283
8716.00   0.55667889   0.01135080
8718.00   0.55088216   0.01074900
8720.00   0.56795514   0.01099881
8722.00   0.60342443   0.01189840
8724.00   0.63059515   0.01204630
8726.00   0.67386216   0.01177025
8728.00   0.68396366   0.01157367
8730.00   0.65656549   0.01134340
8732.00   0.62561345   0.01111643
8734.00   0.60696548   0.01088163
8736.00   0.59211582   0.01065305
8738.00   0.59082812   0.01076022
8740.00   0.61187243   0.01123787
8742.00   0.61468136   0.01155574
8744.00   0.59644008   0.01182331
8746.00   0.59341735   0.01212937
8748.00   0.62298793   0.01223260
8750.00   0.66747802   0.01248585
8752.00   0.69290906   0.01398013
8754.00   0.71784544   0.01578575
8756.00   0.72010678   0.01864842
8758.00   0.69128507   0.02251396
8760.00   0.67443746   0.02560046
8762.00   0.67330235   0.02850430
8764.00   0.68222088   0.03067152
8766.00   0.70425671   0.03071642
8768.00   0.74720943   0.02843234
8770.00   0.76221955   0.02855786
8772.00   0.77910841   0.03015910
8774.00   0.75452071   0.03148022
8776.00   0.65207624   0.03357205
8778.00   0.55943704   0.03451606
8780.00   0.57504386   0.03174462
8782.00   0.66872883   0.02478063
8784.00   0.68681246   0.02126274
8786.00   0.67083740   0.02044384
8788.00   0.65037459   0.01942928
8790.00   0.61242366   0.01927872
8792.00   0.57558793   0.01897241
8794.00   0.54470116   0.01750252
8796.00   0.51764739   0.01518902
8798.00   0.54508638   0.01387920
8800.00   0.64790946   0.01334203
8802.00   0.69859129   0.01282979
8804.00   0.72505510   0.01268158
8806.00   0.73986065   0.01262912
8808.00   0.74328494   0.01255531
8810.00   0.73695350   0.01255936
8812.00   0.73501080   0.01273273
8814.00   0.72368866   0.01227780
8816.00   0.73455065   0.01396052
8818.00   0.77138340   0.01548503
8820.00   0.79668134   0.01948772
8822.00   0.80468976   0.02625570
8824.00   0.80362833   0.03225409
8826.00   0.79879451   0.03487527
8828.00   0.78943902   0.03611650
8830.00   0.76846641   0.03613980
8832.00   0.72864276   0.03441241
8834.00   0.69825405   0.03238000
8836.00   0.67429727   0.02952584
8838.00   0.65849036   0.02633837
8840.00   0.65781260   0.02379495
8842.00   0.67198449   0.02150186
8844.00   0.67488080   0.02037112
8846.00   0.65944320   0.02150059
8848.00   0.67483073   0.02122544
8850.00   0.73616004   0.01956001
8852.00   0.78712898   0.01772534
8854.00   0.78447789   0.01643709
8856.00   0.75040823   0.01540558
8858.00   0.75545156   0.01597471
8860.00   0.80510461   0.01847884
8862.00   0.80093586   0.01982261
8864.00   0.74988604   0.02118429
8866.00   0.69737142   0.02175120
8868.00   0.65341538   0.02104530
8870.00   0.61404634   0.01947610
8872.00   0.60432631   0.01824875
8874.00   0.62061089   0.01563573
8876.00   0.64269084   0.01613956
8878.00   0.66269517   0.01833593
8880.00   0.71961343   0.02178148
8882.00   0.83351105   0.02631993
8884.00   0.97270709   0.03099718
8886.00   1.09552336   0.03529349
8888.00   1.27651441   0.04137527
8890.00   1.23549604   0.04032901
8892.00   0.93343538   0.03004955
8894.00   0.74561435   0.02182479
8896.00   0.66800755   0.01969837
8898.00   0.65876061   0.02063625
8900.00   0.73244345   0.02165757
8902.00   0.91219807   0.02440630
8904.00   0.95539623   0.02455800
8906.00   0.91118473   0.02243074
8908.00   0.87361348   0.02157729
8910.00   0.82572436   0.02125128
8912.00   0.77242917   0.02212475
8914.00   0.71518707   0.02498643
8916.00   0.65228254   0.02891778
8918.00   0.63051915   0.03119072
8920.00   0.66290313   0.03405951
8922.00   0.65434676   0.03403302
8924.00   0.60926610   0.03082929
8926.00   0.57463419   0.02697874
8928.00   0.56726533   0.02343154
8930.00   0.57632792   0.01954631
8932.00   0.60173738   0.01693697
8934.00   0.66264355   0.01564637
8936.00   0.69236153   0.01563145
8938.00   0.71430314   0.01755472
8940.00   0.71844274   0.01956289
8942.00   0.69587046   0.02199371
8944.00   0.66049874   0.02406407
8946.00   0.63891751   0.02381499
8948.00   0.61589664   0.02057898
8950.00   0.61325407   0.02110894
8952.00   0.62663287   0.02391491
8954.00   0.64894187   0.02668350
8956.00   0.70152742   0.03037914
8958.00   0.74133801   0.03311878
8960.00   0.70296246   0.03277189
8962.00   0.59539956   0.03002291
8964.00   0.56356764   0.02732395
8966.00   0.56662965   0.02217634
8968.00   0.58534122   0.01826907
8970.00   0.63546884   0.01630019
8972.00   0.68679523   0.01536881
8974.00   0.71665496   0.01482117
8976.00   0.73651028   0.01515675
8978.00   0.74171317   0.01555174
8980.00   0.72038347   0.01595553
8982.00   0.71623737   0.01731745
8984.00   0.72906417   0.01973279
8986.00   0.73394197   0.02178834
8988.00   0.71697891   0.02311862
8990.00   0.68864387   0.02414052
8992.00   0.67288005   0.02512192
8994.00   0.65362990   0.02593633
8996.00   0.65584767   0.02676686
8998.00   0.68531066   0.02783377
9000.00   0.70578647   0.02839522
9002.00   0.70734125   0.02839151
9004.00   0.70145279   0.02787643
9006.00   0.70046109   0.02658752
9008.00   0.69814914   0.02414092
9010.00   0.70068336   0.02195558
9012.00   0.71706712   0.01886451
9014.00   0.71539742   0.01665545
9016.00   0.68025219   0.01605568
9018.00   0.64486599   0.01641436
9020.00   0.65222794   0.01705990
9022.00   0.69061321   0.01849266
9024.00   0.71422797   0.01876892
9026.00   0.75360680   0.01804856
9028.00   0.76017821   0.01789261
9030.00   0.72612482   0.01828396
9032.00   0.68444002   0.01878900
9034.00   0.65989655   0.01922575
9036.00   0.64101052   0.01970652
9038.00   0.61572611   0.01973850
9040.00   0.57572830   0.01919304
9042.00   0.56104404   0.01903494
9044.00   0.57821947   0.01903299
9046.00   0.58863544   0.01925553
9048.00   0.57082993   0.01997982
9050.00   0.53940338   0.02090801
9052.00   0.52320695   0.02066440
9054.00   0.49877483   0.01942798
9056.00   0.51017171   0.01814250
9058.00   0.56585801   0.01573902
9060.00   0.60820115   0.01397263
9062.00   0.62050158   0.01395375
9064.00   0.62031233   0.01481421
9066.00   0.62695342   0.01515464
9068.00   0.64004618   0.01570459
9070.00   0.62970942   0.01566233
9072.00   0.58136398   0.01496538
9074.00   0.56393027   0.01448793
9076.00   0.59236097   0.01424820
9078.00   0.63448787   0.01422627
9080.00   0.65627098   0.01456927
9082.00   0.67343116   0.01525134
9084.00   0.67749900   0.01588473
9086.00   0.65748811   0.01690335
9088.00   0.65533096   0.01731797
9090.00   0.68260509   0.01694102
9092.00   0.70150506   0.01655128
9094.00   0.67563397   0.01684772
9096.00   0.61811882   0.01752284
9098.00   0.59587705   0.01793965
9100.00   0.60072821   0.01853954
9102.00   0.58661163   0.01861125
9104.00   0.55038881   0.01825698
9106.00   0.52379054   0.01759032
9108.00   0.52305788   0.01645968
9110.00   0.53833485   0.01488903
9112.00   0.55899161   0.01405762
9114.00   0.60632855   0.01367352
9116.00   0.62171906   0.01364543
9118.00   0.61270869   0.01434141
9120.00   0.60300368   0.01483291
9122.00   0.59390569   0.01487292
9124.00   0.58729666   0.01473163
9126.00   0.60324508   0.01467690
9128.00   0.65115821   0.01444631
9130.00   0.66179770   0.01468685
9132.00   0.64443463   0.01546123
9134.00   0.63311964   0.01595846
9136.00   0.63256598   0.01613740
9138.00   0.63335669   0.01614578
9140.00   0.62455887   0.01600845
9142.00   0.60114563   0.01559140
9144.00   0.61964947   0.01559699
9146.00   0.69528997   0.01572666
9148.00   0.72706532   0.01620628
9150.00   0.70935005   0.01719546
9152.00   0.67930770   0.01817248
9154.00   0.66492933   0.01883161
9156.00   0.65430045   0.01940201
9158.00   0.63185650   0.01919508
9160.00   0.58910429   0.01799626
9162.00   0.56971508   0.01712850
9164.00   0.58277136   0.01632179
9166.00   0.58457404   0.01563768
9168.00   0.54118448   0.01509624
9170.00   0.47406077   0.01472492
9172.00   0.46301749   0.01497010
9174.00   0.48827517   0.01603294
9176.00   0.52167177   0.01662089
9178.00   0.59659296   0.01743641
9180.00   0.64385670   0.01757750
9182.00   0.63329554   0.01644490
9184.00   0.59545833   0.01456454
9186.00   0.58326888   0.01377755
9188.00   0.58015299   0.01377012
9190.00   0.57265782   0.01354289
9192.00   0.55710089   0.01341068
9194.00   0.55565929   0.01336182
9196.00   0.57610571   0.01342091
9198.00   0.60432416   0.01354264
9200.00   0.62255681   0.01361828
9202.00   0.64173496   0.01358409
9204.00   0.64179003   0.01403553
9206.00   0.61672693   0.01503498
9208.00   0.60382581   0.01569748
9210.00   0.60097104   0.01599264
9212.00   0.60491335   0.01626403
9214.00   0.61590594   0.01675924
9216.00   0.63406909   0.01735469
9218.00   0.65679711   0.01799961
9220.00   0.69365847   0.01903694
9222.00   0.71707845   0.01940073
9224.00   0.73934507   0.01919856
9226.00   0.74292260   0.01872645
9228.00   0.70888013   0.01807981
9230.00   0.64840645   0.01717716
9232.00   0.61946338   0.01627502
9234.00   0.60938054   0.01482751
9236.00   0.59276325   0.01425994
9238.00   0.57718575   0.01464832
9240.00   0.56007200   0.01502203
9242.00   0.53385603   0.01511706
9244.00   0.50819814   0.01513130
9246.00   0.51602817   0.01505523
9248.00   0.56134993   0.01477225
9250.00   0.58257276   0.01472865
9252.00   0.59337717   0.01489965
9254.00   0.60755688   0.01497783
9256.00   0.63081652   0.01466938
9258.00   0.65342677   0.01449233
9260.00   0.66118914   0.01548862
9262.00   0.65968996   0.01771909
9264.00   0.64987200   0.01784947
9266.00   0.61798662   0.01602840
9268.00   0.60437423   0.01505854
9270.00   0.61327618   0.01522771
9272.00   0.62834388   0.01570748
9274.00   0.63826931   0.01591879
9276.00   0.65061688   0.01610408
9278.00   0.64181089   0.01646279
9280.00   0.60309076   0.01709488
9282.00   0.58653134   0.01744482
9284.00   0.59296721   0.01738033
9286.00   0.59846878   0.01749047
9288.00   0.58933300   0.01818449
9290.00   0.57280093   0.01919658
9292.00   0.55381662   0.01994881
9294.00   0.50849915   0.01918633
9296.00   0.50979173   0.02170557
9298.00   0.56300062   0.02449901
9300.00   0.60610414   0.03015690
9302.00   0.61316532   0.03874173
9304.00   0.60544664   0.04769995
9306.00   0.61328971   0.05460160
9308.00   0.62769026   0.06148862
9310.00   0.64043671   0.06651140
9312.00   0.66865015   0.07052236
9314.00   0.67107934   0.07390690
9316.00   0.63688713   0.07755000
9318.00   0.58221978   0.08008258
9320.00   0.52242213   0.07882044
9322.00   0.43069828   0.07379293
9324.00   0.40904838   0.06953340
9326.00   0.43482381   0.06347845
9328.00   0.48051772   0.05833440
9330.00   0.57466161   0.05419388
9332.00   0.66109174   0.05113623
9334.00   0.66864055   0.04980078
9336.00   0.62271196   0.05042924
9338.00   0.57685912   0.05048108
9340.00   0.50430918   0.05203371
9342.00   0.43392861   0.05118798
9344.00   0.32759437   0.04733611
9346.00   0.26487139   0.04281755
9348.00   0.32063204   0.03945047
9350.00   0.45872712   0.03644126
9352.00   0.51315075   0.03411147
9354.00   0.54168713   0.03291670
9356.00   0.54292345   0.03168499
9358.00   0.48117831   0.03035095
9360.00   0.45016903   0.02995707
9362.00   0.49764049   0.02861625
9364.00   0.58492243   0.02886225
9366.00   0.63839853   0.04069767
9368.00   0.68840212   0.05256173
9370.00   0.72336644   0.07127412
9372.00   0.72429913   0.09672529
9374.00   0.75379145   0.11284398
9376.00   0.86042005   0.12337460
9378.00   0.96739715   0.12857884
9380.00   0.92434329   0.12188290
9382.00   0.75069946   0.09865426
9384.00   0.63538671   0.08180043
9386.00   0.46831122   0.06063291
9388.00   0.40140653   0.04105861
9390.00   0.48802045   0.03171914
9392.00   0.60024631   0.03048714
9394.00   0.59237963   0.02715924
9396.00   0.51190907   0.02783000
9398.00   0.48501104   0.02849309
9400.00   0.45683250   0.03173425
9402.00   0.47022617   0.03319279
9404.00   0.54470026   0.03323041
9406.00   0.61921793   0.03296817
9408.00   0.65264505   0.03269174
9410.00   0.66582376   0.03217176
9412.00   0.65379244   0.03409642
9414.00   0.60433221   0.03852241
9416.00   0.56273401   0.04118147
9418.00   0.50812411   0.04338945
9420.00   0.46725506   0.04481015
9422.00   0.46444318   0.04541935
9424.00   0.47809571   0.04526519
9426.00   0.43386528   0.04377031
9428.00   0.30534476   0.03851340
9430.00   0.27588254   0.03784285
9432.00   0.29800647   0.03726722
9434.00   0.35289565   0.04276549
9436.00   0.43362653   0.05609803
9438.00   0.54935980   0.06891944
9440.00   0.72893971   0.07385591
9442.00   1.06682944   0.07649406
9444.00   1.08862472   0.07330924
9446.00   0.77178055   0.05887878
9448.00   0.61254704   0.04770066
9450.00   0.66446775   0.04292449
9452.00   0.77724868   0.04360515
9454.00   0.83687550   0.05044892
9456.00   0.91281444   0.06320041
9458.00   0.86140603   0.06635781
9460.00   0.63920325   0.06537225
9462.00   0.52394146   0.06245138
9464.00   0.50644648   0.05447248
9466.00   0.51830405   0.04594235
9468.00   0.52458531   0.04280741
9470.00   0.54370445   0.04340953
9472.00   0.54769766   0.04788800
9474.00   0.54974014   0.05957561
9476.00   0.53799999   0.06354073
9478.00   0.52948648   0.06372917
9480.00   0.48756510   0.06130690
9482.00   0.36307386   0.05504132
9484.00   0.19935232   0.04461394
9486.00   0.19209604   0.03801091
9488.00   0.37665385   0.03342802
9490.00   0.39523315   0.03095539
9492.00   0.27800372   0.03120039
9494.00   0.22713237   0.03443616
9496.00   0.30051690   0.04133358
9498.00   0.43450442   0.04863458
9500.00   0.56294328   0.05222688
9502.00   0.74588257   0.05530031
9504.00   0.83566284   0.05424878
9506.00   0.89487153   0.04755219
9508.00   0.87327021   0.04165598
9510.00   0.70872873   0.03655574
9512.00   0.52699566   0.03290045
9514.00   0.50954086   0.03405837
9516.00   0.60926497   0.03980523
9518.00   0.63020396   0.04168243
9520.00   0.59781396   0.04260629
9522.00   0.62721044   0.04272148
9524.00   0.74364787   0.04175195
9526.00   0.85618681   0.04026819
9528.00   0.89570630   0.03868578
9530.00   0.89503109   0.03670188
9532.00   0.86252373   0.03518243
9534.00   0.74636292   0.03375819
9536.00   0.70408279   0.03280404
9538.00   0.73330873   0.03238478
9540.00   0.75627524   0.03226882
9542.00   0.73235536   0.03209859
9544.00   0.68753594   0.03216915
9546.00   0.66401201   0.03397779
9548.00   0.68354756   0.03733989
9550.00   0.62239861   0.04021927
9552.00   0.46219707   0.04440837
9554.00   0.34756997   0.04648924
9556.00   0.31551358   0.04465469
9558.00   0.33247814   0.04139931
9560.00   0.38424355   0.04310309
9562.00   0.51257765   0.04851092
9564.00   0.56783754   0.05148077
9566.00   0.54611003   0.05506147
9568.00   0.59078425   0.05625807
9570.00   0.76720834   0.05477799
9572.00   0.94559264   0.05139955
9574.00   0.94006944   0.04622024
9576.00   0.78246236   0.03651361
9578.00   0.75237107   0.03202594
9580.00   0.82608759   0.03354560
9582.00   0.80373698   0.03360680
9584.00   0.65866518   0.03251645
9586.00   0.50209755   0.03154485
9588.00   0.40896714   0.03158545
9590.00   0.33669448   0.03239020
9592.00   0.38520250   0.03176856
9594.00   0.64255905   0.02990824
9596.00   0.72017753   0.02832909
9598.00   0.63894272   0.02584211
9600.00   0.54092592   0.02458863
9602.00   0.48623282   0.02665415
9604.00   0.44191322   0.03034668
9606.00   0.43541566   0.03149239
9608.00   0.47622862   0.03094744
9610.00   0.50016433   0.03150013
9612.00   0.54304802   0.03217945
9614.00   0.55560368   0.03348251
9616.00   0.49380285   0.03584952
9618.00   0.41296443   0.03848761
9620.00   0.45829746   0.03988163
9622.00   0.64607269   0.04121650
9624.00   0.69303566   0.04055340
9626.00   0.65285933   0.03745293
9628.00   0.61820811   0.03443846
9630.00   0.59371078   0.03157828
9632.00   0.57113057   0.02884783
9634.00   0.55700433   0.02710282
9636.00   0.54717767   0.02639915
9638.00   0.54989040   0.02566877
9640.00   0.57896024   0.02551862
9642.00   0.58462775   0.02527480
9644.00   0.55011106   0.02433933
9646.00   0.52361089   0.02417697
9648.00   0.55909687   0.02663757
9650.00   0.64254022   0.03081221
9652.00   0.64511287   0.03167881
9654.00   0.56599706   0.02992601
9656.00   0.54410732   0.02947224
9658.00   0.57967794   0.02912025
9660.00   0.60727471   0.03006195
9662.00   0.58502018   0.03344197
9664.00   0.53733391   0.03795766
9666.00   0.52844268   0.04011920
9668.00   0.53307259   0.04139367
9670.00   0.56004781   0.04199193
9672.00   0.63841671   0.04134423
9674.00   0.68453276   0.04094850
9676.00   0.66705710   0.04154078
9678.00   0.61384708   0.04238154
9680.00   0.55794412   0.04211827
9682.00   0.44704571   0.04113571
9684.00   0.43366316   0.03985377
9686.00   0.51300871   0.03674258
9688.00   0.56771713   0.03556766
9690.00   0.58628064   0.03773885
9692.00   0.58590108   0.04087217
9694.00   0.56315529   0.04235777
9696.00   0.50233144   0.04318837
9698.00   0.49484870   0.04435084
9700.00   0.52742195   0.04614010
9702.00   0.55331218   0.04672716
9704.00   0.58020866   0.04614552
9706.00   0.60044640   0.04473909
9708.00   0.60062921   0.04217120
9710.00   0.58555216   0.03771614
9712.00   0.56847382   0.03758555
9714.00   0.54761630   0.04145698
9716.00   0.51474524   0.04399898
9718.00   0.44881740   0.04692467
9720.00   0.40446654   0.04856654
9722.00   0.41631499   0.04754702
9724.00   0.46575898   0.04458285
9726.00   0.53610349   0.04272300
9728.00   0.70433277   0.04030495
9730.00   0.73567235   0.03934325
9732.00   0.62717479   0.03940077
9734.00   0.54441398   0.04052699
9736.00   0.55188936   0.04331962
9738.00   0.59642094   0.04668682
9740.00   0.61163878   0.04768601
9742.00   0.63123977   0.04794644
9744.00   0.62204480   0.04605957
9746.00   0.57669008   0.04045273
9748.00   0.54406977   0.03540901
9750.00   0.53764951   0.03209374
9752.00   0.53637171   0.02981977
9754.00   0.51222205   0.02847507
9756.00   0.46861714   0.02888370
9758.00   0.44537109   0.02832521
9760.00   0.42553455   0.02742625
9762.00   0.42246255   0.02683094
9764.00   0.44130078   0.02658278
9766.00   0.46896130   0.02653402
9768.00   0.49499395   0.02661570
9770.00   0.52759868   0.02689997
9772.00   0.53518987   0.02700631
9774.00   0.50185770   0.02684160
9776.00   0.51007652   0.02709334
9778.00   0.57137185   0.02703276
9780.00   0.62501264   0.02810447
9782.00   0.63484854   0.03109055
9784.00   0.61969262   0.03510650
9786.00   0.57967538   0.03955155
9788.00   0.46532291   0.04557330
9790.00   0.43879113   0.04919475
9792.00   0.47900337   0.05208151
9794.00   0.53715670   0.05355843
9796.00   0.61834848   0.05328869
9798.00   0.70747656   0.05164625
9800.00   0.69451654   0.04931845
9802.00   0.56422669   0.04453841
9804.00   0.51640904   0.04188985
9806.00   0.50054514   0.04068052
9808.00   0.49115956   0.03969836
9810.00   0.48187095   0.03879902
9812.00   0.48152184   0.03815175
9814.00   0.50443965   0.03764539
9816.00   0.56880724   0.03736889
9818.00   0.56001848   0.03716753
9820.00   0.48892474   0.03741316
9822.00   0.42921230   0.03715592
9824.00   0.35817379   0.03628413
9826.00   0.31370416   0.03510118
9828.00   0.36329883   0.03377802
9830.00   0.49949053   0.03203639
9832.00   0.54270786   0.03122245
9834.00   0.53955990   0.03115635
9836.00   0.52746356   0.03122475
9838.00   0.48553225   0.03090880
9840.00   0.44928557   0.03166174
9842.00   0.45262703   0.03475416
9844.00   0.47980151   0.03912541
9846.00   0.46772572   0.04150543
9848.00   0.40994406   0.04334840
9850.00   0.39827907   0.04435398
9852.00   0.42062137   0.04490453
9854.00   0.45237246   0.04439656
9856.00   0.49660093   0.04154359
9858.00   0.54551691   0.03728782
9860.00   0.53508955   0.03774011
9862.00   0.42193764   0.04086707
9864.00   0.43783671   0.04573020
9866.00   0.58022916   0.05316628
9868.00   0.66531420   0.05933592
9870.00   0.63531351   0.06467209
9872.00   0.56662714   0.06897852
9874.00   0.56257731   0.07074492
9876.00   0.58215243   0.07147549
9878.00   0.62676257   0.06824260
9880.00   0.75339073   0.05759703
9882.00   0.79299831   0.04944133
9884.00   0.70162165   0.04588331
9886.00   0.58553129   0.04506707
9888.00   0.55910981   0.04574847
9890.00   0.57798964   0.04891436
9892.00   0.60358077   0.05093252
9894.00   0.68400538   0.05429367
9896.00   0.70896196   0.05491476
9898.00   0.68486738   0.05197491
9900.00   0.63388073   0.04874840
9902.00   0.54913062   0.04779448
9904.00   0.42810610   0.04796006
9906.00   0.42723069   0.05028430
9908.00   0.53901482   0.05480822
9910.00   0.61459661   0.05914862
9912.00   0.71950382   0.06517231
9914.00   0.77202809   0.06914352
9916.00   0.71462494   0.06992330
9918.00   0.59211028   0.06860043
9920.00   0.52918309   0.06552199
9922.00   0.50108999   0.05767852
9924.00   0.43870094   0.05316356
9926.00   0.31984338   0.04941848
9928.00   0.26144832   0.04808084
9930.00   0.32030082   0.05040708
9932.00   0.42029297   0.05456480
9934.00   0.42019039   0.05726375
9936.00   0.34119615   0.05804643
9938.00   0.33111820   0.06454913
9940.00   0.43530712   0.07523251
9942.00   0.38828051   0.08399271
9944.00   0.07175767   0.09254659
9946.00   -0.26016891   0.09907365
9948.00   -0.28022143   0.10045039
9950.00   -0.07886186   0.09758096
9952.00   0.01046400   0.09632882
9954.00   0.08212065   0.09312959
9956.00   0.17629640   0.09308559
9958.00   0.31998107   0.09872460
9960.00   0.43907246   0.10245976
9962.00   0.46827742   0.09798298
9964.00   0.43543267   0.08708006
9966.00   0.41528440   0.08125237
9968.00   0.35977399   0.07816175
9970.00   0.34216064   0.07427239
9972.00   0.37603566   0.07006060
9974.00   0.38710389   0.06626367
9976.00   0.32068053   0.06325763
9978.00   0.21725543   0.06097681
9980.00   0.21132435   0.05953357
9982.00   0.25850555   0.06032690
9984.00   0.34555832   0.05884239
9986.00   0.54948986   0.05500451
9988.00   0.67059779   0.05212417
9990.00   0.62885672   0.05108571
9992.00   0.51802504   0.05146892
9994.00   0.48951960   0.05369791
9996.00   0.46943232   0.05770161
9998.00   0.52291340   0.06196346
10000.00   0.66935360   0.06662768
10002.00   0.79469001   0.07200692
10004.00   0.95070636   0.07647938
10006.00   1.04036272   0.08291059
10008.00   0.86116028   0.09561854
10010.00   0.39488640   0.11346925
10012.00   0.28875491   0.11988163
10014.00   0.43219066   0.12163541
10016.00   0.52985555   0.11920681
10018.00   0.64142025   0.10895364
10020.00   0.71217620   0.09717982
10022.00   0.64622349   0.09223515
10024.00   0.47035438   0.09163575
10026.00   0.47014925   0.08825412
10028.00   0.62900805   0.08449525
10030.00   0.69226933   0.08007723
10032.00   0.69892478   0.07376601
10034.00   0.68206692   0.06826948
10036.00   0.64044166   0.06547195
10038.00   0.57837349   0.06476273
10040.00   0.57699394   0.06606428
10042.00   0.61842233   0.07265794
10044.00   0.66579252   0.07313985
10046.00   0.74198282   0.06840340
10048.00   0.81272846   0.06461508
10050.00   0.90323937   0.06366221
10052.00   0.97041225   0.06436604
10054.00   0.85642326   0.06686163
10056.00   0.49793223   0.07171924
10058.00   0.39259899   0.07541723
10060.00   0.36051103   0.07730245
10062.00   0.48368832   0.08239534
10064.00   0.91500282   0.09434711
10066.00   1.36256349   0.10408261
10068.00   1.34530795   0.10075136
10070.00   0.95695716   0.08426184
10072.00   0.81762737   0.07842132
10074.00   0.75973797   0.07637675
10076.00   0.69316614   0.07929904
10078.00   0.64214367   0.08913507
10080.00   0.57433099   0.09907005
10082.00   0.42726403   0.10562889
10084.00   0.20875432   0.11161511
10086.00   0.18672007   0.10941351
10088.00   0.38329759   0.09565166
10090.00   0.44295499   0.08714642
10092.00   0.38019350   0.08154923
10094.00   0.32997659   0.07879255
10096.00   0.38513857   0.07976074
10098.00   0.48844579   0.08394040
10100.00   0.44310138   0.08837056
10102.00   0.14680810   0.09725548
10104.00   0.17112038   0.09920131
10106.00   0.55717081   0.09611790
10108.00   0.78541994   0.09185892
10110.00   0.64226061   0.08583734
10112.00   0.33670759   0.07915813
10114.00   0.20644480   0.08016553
10116.00   0.10179110   0.08659748
10118.00   0.10878575   0.09458637
10120.00   0.25269705   0.10758250
10122.00   0.38705179   0.11638937
10124.00   0.53199428   0.12187099
10126.00   0.64693129   0.12439227
10128.00   0.60748804   0.12186239
10130.00   0.39187038   0.11351629
10132.00   0.39898673   0.10663174
10134.00   0.62214923   0.09545516
10136.00   0.70118481   0.08943063
10138.00   0.59954691   0.09171513
10140.00   0.47118023   0.09554365
10142.00   0.43326035   0.09477955
10144.00   0.42739752   0.09161606
10146.00   0.50330257   0.09279963
10148.00   0.73604447   0.09630862
10150.00   0.83582395   0.10107976
10152.00   0.84593534   0.10954180
10154.00   0.79056513   0.11543563
10156.00   0.62003195   0.11445888
10158.00   0.36640051   0.10931057
10160.00   0.42669290   0.11091899
10162.00   0.87661415   0.11419571
10164.00   1.00557339   0.12269650
10166.00   0.92768848   0.13941467
10168.00   0.82732195   0.15059996
10170.00   0.76125687   0.15316279
10172.00   0.68636507   0.15127732
10174.00   0.57633311   0.14915413
10176.00   0.32500610   0.14417750
10178.00   0.36712170   0.13978754
10180.00   0.75881535   0.13301893
10182.00   0.97068447   0.12910822
10184.00   0.89967519   0.12891629
10186.00   0.70568454   0.13167106
10188.00   0.52320403   0.13796449
10190.00   0.21883921   0.15014404
10192.00   0.20025803   0.15203884
10194.00   0.46933347   0.14614451
10196.00   0.63681257   0.14114943
10198.00   0.66008943   0.13494058
10200.00   0.69810897   0.13055590
10202.00   0.93507588   0.13281189
10204.00   1.35611069   0.13968395
10206.00   1.31880188   0.14849366
10208.00   0.75555003   0.16389316
10210.00   0.54481345   0.17183538
10212.00   0.67595136   0.17598850
10214.00   0.80977303   0.17552166
10216.00   0.72350276   0.16670308
10218.00   0.53365928   0.15019777
10220.00   0.54706895   0.14694647
10222.00   0.77731335   0.15662159
10224.00   0.82889473   0.15859556
10226.00   0.67580670   0.15759687
10228.00   0.64482188   0.15503125
10230.00   0.95878983   0.15087783
10232.00   1.39896297   0.14514253
10234.00   1.36654258   0.13930340
10236.00   0.87577981   0.13227348
10238.00   0.67920107   0.12549645
10240.00   0.54804546   0.11628947
10242.00   0.49268487   0.11079286
10244.00   0.56165725   0.11246566
10246.00   0.67077237   0.11673240
10248.00   0.64448011   0.11656561
10250.00   0.50514293   0.11416435
10252.00   0.48758858   0.11263679
10254.00   0.50763714   0.10933500
10256.00   0.59754783   0.10922592
10258.00   0.80298305   0.11352403
10260.00   1.02332735   0.11873752
10262.00   1.15935421   0.12148091
10264.00   1.27469552   0.12278341
10266.00   1.20427823   0.12760574
10268.00   0.92525089   0.13762189
10270.00   0.67791843   0.14155264
10272.00   0.36318666   0.13738723
10274.00   0.12449934   0.13515946
10276.00   0.07660428   0.13861294
10278.00   0.16183983   0.14523530
10280.00   0.30969605   0.17355274
10282.00   0.67315668   0.22411600
10284.00   0.83158773   0.24809049
10286.00   0.91908503   0.26333979
10288.00   0.84905642   0.26890674
10290.00   0.46828160   0.26130560
10292.00   -0.06152298   0.24382351
10294.00   -0.10472213   0.23205799
10296.00   0.36018601   0.21952267
10298.00   0.43794814   0.20900336
10300.00   0.26658744   0.20012084
10302.00   0.20332462   0.19250825
10304.00   0.35053629   0.18705645
10306.00   0.57039708   0.18262696
10308.00   0.69261426   0.17597234
10310.00   0.80438328   0.16762482
10312.00   0.81344146   0.16025540
10314.00   0.73339975   0.14892472
10316.00   0.60863566   0.14586452
10318.00   0.43122032   0.15601480
10320.00   0.21260925   0.16778161
10322.00   -0.10190045   0.17050619
10324.00   -0.62485915   0.16862451
10326.00   -0.31686211   0.16794084
10328.00   1.00783241   0.16522871
10330.00   1.72271478   0.16460654
10332.00   2.05869937   0.16487186
10334.00   2.04407835   0.16743083
10336.00   1.47748601   0.17455080
10338.00   0.42019385   0.18490142
10340.00   0.11723382   0.18881167
10342.00   0.33430752   0.18934214
10344.00   0.44718915   0.18838893
10346.00   0.64427555   0.18397342
10348.00   0.80995041   0.17989859
10350.00   0.88481665   0.17839818
10352.00   0.90859228   0.17791568
10354.00   0.91404980   0.17535298
10356.00   0.95760792   0.17126068
10358.00   0.80617875   0.16736418
10360.00   0.30579311   0.15533960
10362.00   0.07206048   0.15663715
10364.00   0.29522201   0.18045616
10366.00   0.73947215   0.20879357
10368.00   1.12562084   0.22238958
10370.00   1.77836490   0.23135391
10372.00   1.73885214   0.23455106
10374.00   0.92777842   0.23146668
10376.00   0.44490293   0.22570731
10378.00   0.36906075   0.21554282
10380.00   0.45422125   0.20324664
10382.00   0.56536019   0.19280839
10384.00   0.81455261   0.18160839
10386.00   0.82517105   0.17659408
10388.00   0.61666119   0.17887439
10390.00   0.50443834   0.17977317
10392.00   0.49111250   0.17910405
10394.00   0.47061586   0.18007953
10396.00   0.35046911   0.18608993
10398.00   0.16482863   0.19566114
10400.00   0.15549232   0.19654106
10402.00   0.35534042   0.18978080
10404.00   0.39255708   0.18585201
10406.00   0.31611952   0.17776491
10408.00   0.20913781   0.17753509
10410.00   0.08709262   0.19325280
10412.00   -0.05309844   0.21636781
10414.00   -0.11854932   0.23108236
10416.00   -0.13269404   0.24896087
10418.00   -0.12943612   0.25304189
10420.00   -0.14528354   0.24595872
10422.00   -0.05348362   0.23563714
10424.00   0.19639787   0.22081967
10426.00   0.54307324   0.20335741
10428.00   0.90560311   0.19601272
10430.00   1.48071051   0.19909374
10432.00   1.56339264   0.19477993
10434.00   1.14982784   0.18586504
10436.00   0.88035786   0.17947099
10438.00   0.84448987   0.17631899
10440.00   0.83456022   0.17532240
10442.00   0.63239890   0.17656904
10444.00   0.24946378   0.18122162
10446.00   0.20790428   0.18129480
10448.00   0.50470990   0.17780909
10450.00   0.63535178   0.17550196
10452.00   0.61867553   0.17401615
10454.00   0.55537772   0.17288797
10456.00   0.46534610   0.17188150
10458.00   0.31998616   0.17103128
10460.00   0.43475536   0.17174673
10462.00   0.86067039   0.17292036
10464.00   1.09194815   0.17651089
10466.00   1.27313125   0.18356690
10468.00   1.30720115   0.18990794
10470.00   1.06336308   0.19491053
10472.00   0.64174247   0.19873898
10474.00   0.51646221   0.19493291
10476.00   0.63152659   0.18125965
10478.00   0.60640115   0.17121086
10480.00   0.57795423   0.15898196
10482.00   0.46422240   0.14980887
10484.00   0.09899646   0.14618556
10486.00   -0.28051269   0.14662655
10488.00   -0.01247831   0.14919342
10490.00   1.00449252   0.15713876
10492.00   1.31750560   0.15944254
10494.00   1.32833230   0.15915288
10496.00   1.15632510   0.15761335
10498.00   0.66719991   0.15320675
10500.00   0.11732221   0.14882801
10502.00   -0.06919289   0.14991920
10504.00   -0.05521040   0.15500915
10506.00   0.07244365   0.15913387
10508.00   0.56765109   0.16646938
10510.00   0.74160612   0.16889293
10512.00   0.54202896   0.16569912
10514.00   0.25931242   0.16081625
10516.00   0.07679290   0.15701447
10518.00   -0.11331192   0.15268950
10520.00   -0.02177744   0.15174881
10522.00   0.54345858   0.15521909
10524.00   0.65982813   0.15585208
10526.00   0.37238443   0.15492943
10528.00   0.02483927   0.15288520
10530.00   -0.30346751   0.14935175
10532.00   -0.63890654   0.14450479
10534.00   -0.46286571   0.14107488
10536.00   0.44284099   0.13713455
10538.00   0.73774660   0.13608170
10540.00   0.71722054   0.13920769
10542.00   0.56510293   0.14071268
10544.00   0.24149424   0.13849872
10546.00   -0.16635442   0.13458240
10548.00   -0.27538082   0.13199688
10550.00   -0.19756629   0.12863211
10552.00   -0.06401555   0.12836330
10554.00   0.24641874   0.13192151
10556.00   0.50055695   0.13387695
10558.00   0.71733189   0.13343313
10560.00   0.85883796   0.13216877
10562.00   0.78872532   0.13136724
10564.00   0.49195364   0.12993298
10566.00   0.36908329   0.13103670
10568.00   0.28476775   0.13471909
10570.00   0.26439381   0.13763091
10572.00   0.35415304   0.14089081
10574.00   0.44690281   0.14284416
10576.00   0.42084649   0.14117125
10578.00   0.31293941   0.13636224
10580.00   0.34393781   0.13426277
10582.00   0.57738316   0.13269441
10584.00   0.57857865   0.13258876
10586.00   0.31020018   0.13514130
10588.00   0.06432033   0.13696781
10590.00   0.01468649   0.13591778
10592.00   0.06339874   0.13320544
10594.00   0.05872966   0.13144508
10596.00   0.05895184   0.12971561
10598.00   0.04774970   0.12803239
10600.00   -0.00070106   0.12610909
10602.00   -0.00628058   0.12470327
10604.00   0.08134506   0.12401316
10606.00   0.20816839   0.12394729
10608.00   0.24388732   0.12478706
10610.00   0.20880699   0.12778944
10612.00   0.21172158   0.12769274
10614.00   0.21159664   0.12500858
10616.00   0.23183285   0.12275647
10618.00   0.30452821   0.12139289
10620.00   0.37195429   0.12027661
10622.00   0.32603815   0.11893860
10624.00   0.16880791   0.11718302
10626.00   0.12248439   0.11705139
10628.00   0.14587848   0.11915802
10630.00   0.15245458   0.11973912
10632.00   0.11865123   0.11849740
10634.00   0.11155143   0.11679454
10636.00   0.21339768   0.11561847
10638.00   0.41130251   0.11439464
10640.00   0.46252877   0.11443213
10642.00   0.40882090   0.11665964
10644.00   0.37148118   0.11678234
10646.00   0.27825114   0.11463118
10648.00   0.25204739   0.11242420
10650.00   0.43207523   0.11117876
10652.00   0.74242949   0.11039288
10654.00   0.73130608   0.11205101
10656.00   0.40402466   0.11613634
10658.00   0.26257825   0.12004843
10660.00   0.12846433   0.12600465
10662.00   0.13736026   0.12967873
10664.00   0.42571405   0.12947454
10666.00   0.84510601   0.12693596
10668.00   0.94557977   0.12432618
10670.00   0.86593825   0.12025698
10672.00   0.71097630   0.11638894
10674.00   0.31917897   0.11165413
10676.00   0.05729873   0.10750220
10678.00   -0.01480002   0.10369831
10680.00   0.02044110   0.10094706
10682.00   0.12600018   0.10142456
10684.00   0.38968018   0.10565636
10686.00   0.44651014   0.10664709
10688.00   0.33605796   0.10576478
10690.00   0.28112960   0.10559814
10692.00   0.25622159   0.10611024
10694.00   0.28088820   0.10697833
10696.00   0.42464066   0.10821407
10698.00   0.68940002   0.10991813
10700.00   0.78505027   0.11101180
10702.00   0.77039182   0.11279257
10704.00   0.75955492   0.11234226
10706.00   0.72301000   0.10906541
10708.00   0.68608564   0.10536871
10710.00   0.68987495   0.10276344
10712.00   0.71482331   0.10050928
10714.00   0.60161328   0.09946912
10716.00   0.33608100   0.09902340
10718.00   0.14537732   0.10038140
10720.00   -0.07931740   0.10517456
10722.00   -0.19845304   0.10808636
10724.00   -0.12710813   0.10638246
10726.00   0.05997639   0.10251947
10728.00   0.18538991   0.10270640
10730.00   0.31343946   0.10742890
10732.00   0.44786057   0.10683284
10734.00   0.69107342   0.10250188
10736.00   0.75364071   0.09795813
10738.00   0.49475810   0.09307205
10740.00   0.13032681   0.08836018
10742.00   0.02425789   0.08662792
10744.00   0.06477347   0.08691415
10746.00   0.09514435   0.08948550
10748.00   0.23940238   0.09728374
10750.00   0.27465081   0.10051065
10752.00   0.09179349   0.09810812
10754.00   -0.05490237   0.09420659
10756.00   0.17584360   0.09341115
10758.00   0.74302763   0.09460577
10760.00   0.78283018   0.09112971
10762.00   0.33246440   0.07978138
10764.00   0.15306944   0.07559174
10766.00   0.20647262   0.08187722
10768.00   0.30595127   0.08698295
10770.00   0.36107227   0.08364425
10772.00   0.41924965   0.07495072
10774.00   0.41623679   0.06979425
10776.00   0.33095714   0.06406418
10778.00   0.30399221   0.06189478
10780.00   0.30205458   0.06431785
10782.00   0.32622126   0.06701551
10784.00   0.39080364   0.06899142
10786.00   0.48058215   0.07067606
10788.00   0.52709907   0.06948231
10790.00   0.59665757   0.06409857
10792.00   0.54662538   0.06179133
10794.00   0.29967412   0.06142389
10796.00   0.18733253   0.06062845
10798.00   0.35641786   0.05885243
10800.00   0.60072768   0.05663710
10802.00   0.55544436   0.05420822
10804.00   0.23011871   0.05016398
10806.00   0.23198508   0.05020081
10808.00   0.52856654   0.05492169
10810.00   0.66306108   0.05729389
10812.00   0.56106627   0.05696782
10814.00   0.41605157   0.05586091
10816.00   0.42027104   0.05550346
10818.00   0.50718141   0.05520345
10820.00   0.55640876   0.05520723
10822.00   0.59576499   0.05406086
10824.00   0.65983260   0.05601313
10826.00   0.83398294   0.06244684
10828.00   0.90852267   0.06763137
10830.00   0.67309129   0.06820717
10832.00   0.21276703   0.06608608
10834.00   -0.00148952   0.06462327
10836.00   -0.13438281   0.06267478
10838.00   -0.17253457   0.06005251
10840.00   -0.10109911   0.05589915
10842.00   0.03437845   0.05208200
10844.00   0.26333147   0.04984736
10846.00   0.54702491   0.04861539
10848.00   0.60275406   0.04735323
10850.00   0.47369799   0.04748693
10852.00   0.35964695   0.04560536
10854.00   0.13672151   0.04107039
