# File created by shivutils (I.Shivvers)
# Blotched regions marked with a #.
# wl(A)   flm    er(optional)
3460.00   0.80781931
3462.00   0.80630225
3464.00   0.69062507
3466.00   0.94223744
3468.00   0.98400199
3470.00   0.98091739
3472.00   1.05438197
3474.00   0.87656105
3476.00   1.21971679
3478.00   1.12951899
3480.00   0.70627141
3482.00   1.02218914
3484.00   0.96548241
3486.00   1.09849632
3488.00   0.78537333
3490.00   0.81871837
3492.00   0.56780648
3494.00   0.57321256
3496.00   0.61692572
3498.00   0.84903586
3500.00   1.12577534
3502.00   0.95576376
3504.00   0.70330209
3506.00   0.83637065
3508.00   1.05535424
3510.00   0.86228621
3512.00   0.88366890
3514.00   0.87514842
3516.00   1.07891881
3518.00   1.13489771
3520.00   0.64572233
3522.00   0.87465763
3524.00   0.87064469
3526.00   0.84008712
3528.00   0.80993128
3530.00   0.79620451
3532.00   0.80569589
3534.00   0.93776214
3536.00   0.84581357
3538.00   0.81699300
3540.00   0.86034381
3542.00   0.88731331
3544.00   0.68183959
3546.00   0.72222114
3548.00   0.81368649
3550.00   0.79643393
3552.00   0.75114834
3554.00   0.74234200
3556.00   0.51210976
3558.00   0.90132809
3560.00   0.83395869
3562.00   0.99622190
3564.00   0.81366974
3566.00   0.93752903
3568.00   0.95464456
3570.00   0.89871007
3572.00   0.89603269
3574.00   0.97050560
3576.00   0.90065521
3578.00   0.89417547
3580.00   0.85734493
3582.00   0.70351100
3584.00   0.89929152
3586.00   0.84285367
3588.00   0.86401731
3590.00   0.92216384
3592.00   0.88937068
3594.00   1.03672183
3596.00   0.94621342
3598.00   0.92106020
3600.00   1.07403421
3602.00   0.73608232
3604.00   0.65966761
3606.00   0.90078580
3608.00   0.83312839
3610.00   0.98245049
3612.00   0.77940136
3614.00   0.87533075
3616.00   0.92737645
3618.00   0.85270929
3620.00   1.03983140
3622.00   0.93623495
3624.00   0.78904992
3626.00   0.85040021
3628.00   0.88800347
3630.00   0.89998460
3632.00   1.09996235
3634.00   0.90167689
3636.00   0.91396332
3638.00   0.89959091
3640.00   0.80995989
3642.00   1.26639342
3644.00   1.23394513
3646.00   1.04520833
3648.00   1.00815570
3650.00   1.04383123
3652.00   0.95404142
3654.00   0.91216028
3656.00   0.97291017
3658.00   0.90698928
3660.00   0.96485102
3662.00   0.95094496
3664.00   0.80592614
3666.00   0.91257846
3668.00   0.88637507
3670.00   1.07501149
3672.00   1.22605872
3674.00   0.82514304
3676.00   0.98160636
3678.00   1.08127022
3680.00   0.90899515
3682.00   1.02748251
3684.00   0.84723109
3686.00   1.12274468
3688.00   1.03924644
3690.00   1.04383612
3692.00   0.92146480
3694.00   1.06966102
3696.00   0.98180401
3698.00   1.13681734
3700.00   1.01200044
3702.00   0.93377578
3704.00   1.02197242
3706.00   0.99282092
3708.00   0.96907115
3710.00   0.97358781
3712.00   1.10336864
3714.00   1.05354333
3716.00   1.05123854
3718.00   1.12254739
3720.00   0.95090628
3722.00   0.85403121
3724.00   1.01061153
3726.00   1.12634826
3728.00   0.90832335
3730.00   1.16603875
3732.00   0.88808256
3734.00   0.87469572
3736.00   1.19987178
3738.00   0.98275715
3740.00   1.04356122
3742.00   1.05307376
3744.00   0.96801454
3746.00   1.11259663
3748.00   1.01231337
3750.00   1.06746709
3752.00   0.99035865
3754.00   0.93927127
3756.00   0.96786290
3758.00   1.09998298
3760.00   0.87872684
3762.00   1.05846977
3764.00   1.01067579
3766.00   1.01770616
3768.00   0.92738068
3770.00   0.97680354
3772.00   0.97429669
3774.00   0.92905837
3776.00   0.97587669
3778.00   0.89503831
3780.00   0.84210861
3782.00   1.00028479
3784.00   0.84137094
3786.00   1.00286019
3788.00   0.86261088
3790.00   0.69523072
3792.00   0.90924931
3794.00   0.98462206
3796.00   0.81621855
3798.00   0.83315027
3800.00   0.82840556
3802.00   0.72964579
3804.00   0.75630724
3806.00   0.62692755
3808.00   0.67533648
3810.00   0.62207443
3812.00   0.72705549
3814.00   0.76761913
3816.00   0.53217506
3818.00   0.55170310
3820.00   0.59149683
3822.00   0.67248583
3824.00   0.65720659
3826.00   0.63819104
3828.00   0.54391927
3830.00   0.63458723
3832.00   0.54705358
3834.00   0.59324878
3836.00   0.53810006
3838.00   0.54498529
3840.00   0.60368878
3842.00   0.54498976
3844.00   0.58016920
3846.00   0.47157595
3848.00   0.53743321
3850.00   0.52289104
3852.00   0.46020141
3854.00   0.46416709
3856.00   0.42536053
3858.00   0.52549940
3860.00   0.51052278
3862.00   0.49279830
3864.00   0.57178843
3866.00   0.69925493
3868.00   0.62799156
3870.00   0.58357769
3872.00   0.50598276
3874.00   0.45685208
3876.00   0.43653387
3878.00   0.42842039
3880.00   0.48321512
3882.00   0.53167838
3884.00   0.63634694
3886.00   0.58377123
3888.00   0.53731090
3890.00   0.43665448
3892.00   0.56533098
3894.00   0.63480562
3896.00   0.64714903
3898.00   0.52180183
3900.00   0.49685186
3902.00   0.65400571
3904.00   0.73444057
3906.00   0.61488444
3908.00   0.55520248
3910.00   0.49521229
3912.00   0.50392282
3914.00   0.42725384
3916.00   0.58543986
3918.00   0.53286517
3920.00   0.48227805
3922.00   0.58022159
3924.00   0.45539621
3926.00   0.47623724
3928.00   0.68779212
3930.00   0.61775309
3932.00   0.56339842
3934.00   0.57224524
3936.00   0.57658815
3938.00   0.57728696
3940.00   0.57726991
3942.00   0.65433747
3944.00   0.65256667
3946.00   0.59205860
3948.00   0.58366966
3950.00   0.59180731
3952.00   0.70129210
3954.00   0.68747908
3956.00   0.78536928
3958.00   0.71531183
3960.00   0.74300247
3962.00   0.72662222
3964.00   0.62073201
3966.00   0.68479592
3968.00   0.72060055
3970.00   0.70482707
3972.00   0.78384227
3974.00   0.76951951
3976.00   0.89857405
3978.00   1.04567587
3980.00   0.86283892
3982.00   0.87508458
3984.00   0.82052946
3986.00   0.86644369
3988.00   0.99655163
3990.00   0.96662641
3992.00   0.89225870
3994.00   0.98964566
3996.00   0.93964952
3998.00   1.09952235
4000.00   1.00815594
4002.00   1.03727925
4004.00   1.08539712
4006.00   1.15333092
4008.00   1.14983702
4010.00   1.21495438
4012.00   1.21059191
4014.00   1.21101069
4016.00   1.12452137
4018.00   1.16432774
4020.00   1.02375960
4022.00   1.22577059
4024.00   1.02889729
4026.00   1.14073718
4028.00   1.11711836
4030.00   1.20321035
4032.00   1.18133974
4034.00   1.11944854
4036.00   1.07869840
4038.00   1.34232414
4040.00   1.31262910
4042.00   1.23574138
4044.00   1.19488955
4046.00   1.35015368
4048.00   1.00051177
4050.00   1.20919013
4052.00   1.22179484
4054.00   1.33006585
4056.00   1.28494537
4058.00   1.17299461
4060.00   1.21596146
4062.00   1.08090389
4064.00   1.15165877
4066.00   1.08060133
4068.00   1.14800763
4070.00   1.18556905
4072.00   1.21843553
4074.00   1.23152304
4076.00   1.12749851
4078.00   1.11642706
4080.00   1.16493380
4082.00   1.12145782
4084.00   1.07816565
4086.00   1.13900363
4088.00   0.97354198
4090.00   0.98013210
4092.00   0.97625458
4094.00   0.97618228
4096.00   0.95296657
4098.00   0.81431609
4100.00   0.89205235
4102.00   1.00590563
4104.00   0.90956312
4106.00   0.96518129
4108.00   0.99231017
4110.00   0.87128651
4112.00   1.03119266
4114.00   0.99088043
4116.00   0.93157446
4118.00   0.98065436
4120.00   0.93440413
4122.00   0.97590685
4124.00   0.86933804
4126.00   0.87388468
4128.00   0.88784122
4130.00   0.86821258
4132.00   0.98012930
4134.00   0.96650195
4136.00   0.92603010
4138.00   0.96469551
4140.00   0.90180838
4142.00   1.05842543
4144.00   1.02689970
4146.00   0.93445694
4148.00   1.01215839
4150.00   1.02456033
4152.00   0.93387586
4154.00   1.03769207
4156.00   1.07359552
4158.00   1.00099206
4160.00   1.11427248
4162.00   1.16667736
4164.00   1.17988956
4166.00   1.13668525
4168.00   1.22189558
4170.00   1.09023201
4172.00   1.29141104
4174.00   1.22947562
4176.00   1.16271603
4178.00   1.15403378
4180.00   1.24557114
4182.00   1.28198791
4184.00   1.19824815
4186.00   1.29292834
4188.00   1.32881141
4190.00   1.29793859
4192.00   1.27365649
4194.00   1.31285810
4196.00   1.24686098
4198.00   1.22226644
4200.00   1.14737678
4202.00   1.27267468
4204.00   1.27149725
4206.00   1.22472274
4208.00   1.27107549
4210.00   1.28695977
4212.00   1.29573011
4214.00   1.25259578
4216.00   1.33753586
4218.00   1.30995226
4220.00   1.22037828
4222.00   1.26903641
4224.00   1.27818239
4226.00   1.31080580
4228.00   1.30472827
4230.00   1.38555527
4232.00   1.38766730
4234.00   1.31631327
4236.00   1.24996173
4238.00   1.14991009
4240.00   1.19731081
4242.00   1.18734598
4244.00   1.23331249
4246.00   1.29236794
4248.00   1.26934564
4250.00   1.30728579
4252.00   1.38077247
4254.00   1.29826319
4256.00   1.25538158
4258.00   1.18225741
4260.00   1.16145718
4262.00   1.25528038
4264.00   1.20781827
4266.00   1.21851754
4268.00   1.20434010
4270.00   1.35747445
4272.00   1.23053777
4274.00   1.13518441
4276.00   1.16333210
4278.00   1.08563018
4280.00   1.18840611
4282.00   1.25378728
4284.00   1.15720069
4286.00   1.13354099
4288.00   1.23828661
4290.00   1.13015962
4292.00   1.20363390
4294.00   1.21904564
4296.00   1.13102615
4298.00   1.22695553
4300.00   1.18620825
4302.00   1.21730340
4304.00   1.22796082
4306.00   1.21269810
4308.00   1.05789506
4310.00   1.18943214
4312.00   1.22883022
4314.00   1.14979136
4316.00   1.12566936
4318.00   1.09406376
4320.00   1.03307927
4322.00   1.10238147
4324.00   1.09892225
4326.00   1.20056117
4328.00   1.15272093
4330.00   1.05369294
4332.00   1.04706371
4334.00   1.07736623
4336.00   1.12537479
4338.00   1.05455017
4340.00   1.08173835
4342.00   1.06291294
4344.00   1.08368218
4346.00   1.01098812
4348.00   0.97071707
4350.00   0.97157651
#4352.00   0.95503426
#4354.00   1.15137267
#4356.00   1.27048349
#4358.00   0.96342236
#4360.00   0.84155101
#4362.00   0.95967889
4364.00   0.87007403
4366.00   0.95785660
4368.00   0.91835946
4370.00   1.03032398
4372.00   0.93618387
4374.00   0.97149003
4376.00   0.94072181
4378.00   0.93689746
4380.00   0.96528357
4382.00   0.90933889
4384.00   0.80454111
4386.00   0.87608379
4388.00   0.93610501
4390.00   0.92819160
4392.00   0.89232856
4394.00   0.83175915
4396.00   0.86121595
4398.00   0.84916127
4400.00   0.87678951
4402.00   0.80482316
4404.00   0.83186877
4406.00   0.86395657
4408.00   0.80354083
4410.00   0.80477214
4412.00   0.71989650
4414.00   0.69450831
4416.00   0.78169888
4418.00   0.78474134
4420.00   0.68462843
4422.00   0.75919604
4424.00   0.77550542
4426.00   0.72017795
4428.00   0.70193654
4430.00   0.62982053
4432.00   0.64757186
4434.00   0.78965789
4436.00   0.64867646
4438.00   0.69652414
4440.00   0.78232747
4442.00   0.59399283
4444.00   0.63394743
4446.00   0.61280489
4448.00   0.78620130
4450.00   0.71498305
4452.00   0.65750360
4454.00   0.77589154
4456.00   0.66810411
4458.00   0.72312284
4460.00   0.80843776
4462.00   0.74305713
4464.00   0.74432373
4466.00   0.66418743
4468.00   0.88137841
4470.00   0.78840166
4472.00   0.74611193
4474.00   0.68401337
4476.00   0.82523990
4478.00   0.74800414
4480.00   0.76203549
4482.00   0.76316273
4484.00   0.73964894
4486.00   0.82762247
4488.00   0.87242025
4490.00   0.82720089
4492.00   0.81670099
4494.00   0.86543936
4496.00   0.93899918
4498.00   0.81254596
4500.00   0.85024786
4502.00   0.78280902
4504.00   0.89628452
4506.00   0.91238034
4508.00   0.88258040
4510.00   0.86546552
4512.00   0.94518930
4514.00   0.83222401
4516.00   0.86555058
4518.00   0.79573905
4520.00   0.88601971
4522.00   0.74656916
4524.00   0.82928985
4526.00   0.99316347
4528.00   0.87320465
4530.00   0.81700116
4532.00   0.89530027
4534.00   0.90583050
4536.00   0.90829527
4538.00   0.86289108
4540.00   0.90149832
4542.00   0.87698305
4544.00   0.88759941
4546.00   0.87127823
4548.00   0.87060297
4550.00   0.77137387
4552.00   0.80542284
4554.00   0.86082143
4556.00   0.80144310
4558.00   0.74457794
4560.00   0.75131214
4562.00   0.69272035
4564.00   0.75444555
4566.00   0.76793104
4568.00   0.84773707
4570.00   0.85183287
4572.00   0.79494226
4574.00   0.79369467
4576.00   0.87575984
4578.00   0.87167603
4580.00   0.84531039
4582.00   0.81507641
4584.00   0.83815312
4586.00   0.89361775
4588.00   0.73281622
4590.00   0.84171093
4592.00   0.80143142
4594.00   0.76717013
4596.00   0.77744710
4598.00   0.84398574
4600.00   0.88693386
4602.00   0.85586011
4604.00   0.82877433
4606.00   0.86373669
4608.00   0.93185359
4610.00   0.99959618
4612.00   0.96764499
4614.00   0.91741776
4616.00   0.92905027
4618.00   0.85518926
4620.00   0.90177524
4622.00   1.00343001
4624.00   0.91914904
4626.00   0.93414307
4628.00   1.03094602
4630.00   0.92870075
4632.00   0.95860308
4634.00   0.98385096
4636.00   0.88977724
4638.00   0.91280031
4640.00   0.93726397
4642.00   0.91180027
4644.00   0.97877437
4646.00   0.92988080
4648.00   0.92445773
4650.00   0.97376442
4652.00   1.04831243
4654.00   1.03937876
4656.00   0.96086508
4658.00   0.95143968
4660.00   0.99313396
4662.00   1.08203101
4664.00   1.01125944
4666.00   0.90009838
4668.00   0.93416619
4670.00   1.06235540
4672.00   0.96492815
4674.00   0.96395004
4676.00   0.97384953
4678.00   1.06066179
4680.00   1.07247937
4682.00   0.97776759
4684.00   0.94333023
4686.00   0.96722066
4688.00   0.99920070
4690.00   0.90094262
4692.00   0.86994755
4694.00   1.01141655
4696.00   0.96034288
4698.00   0.89610744
4700.00   0.95350838
4702.00   0.89829320
4704.00   0.90599811
4706.00   0.90795803
4708.00   0.94460416
4710.00   0.99396890
4712.00   1.04946065
4714.00   0.95535278
4716.00   0.96007168
4718.00   0.92269236
4720.00   0.91682631
4722.00   0.95050871
4724.00   0.93405384
4726.00   0.92278773
4728.00   1.00991678
4730.00   0.98915184
4732.00   0.92264128
4734.00   0.97334087
4736.00   0.92963606
4738.00   0.92960966
4740.00   0.93960369
4742.00   0.90227109
4744.00   0.93670249
4746.00   0.97536159
4748.00   0.94993979
4750.00   0.94759125
4752.00   0.98792303
4754.00   0.90953839
4756.00   0.91167516
4758.00   0.89847541
4760.00   0.85689336
4762.00   0.85139877
4764.00   0.86094648
4766.00   0.84792274
4768.00   0.94727385
4770.00   0.88757885
4772.00   0.87745148
4774.00   0.92732209
4776.00   0.93332899
4778.00   0.82842839
4780.00   0.81028062
4782.00   0.89016438
4784.00   0.89660394
4786.00   0.77759266
4788.00   0.81176519
4790.00   0.79662645
4792.00   0.85375041
4794.00   0.79071152
4796.00   0.81898957
4798.00   0.83241636
4800.00   0.75502902
4802.00   0.74942845
4804.00   0.78126371
4806.00   0.84205657
4808.00   0.77364051
4810.00   0.73222983
4812.00   0.74390674
4814.00   0.77655214
4816.00   0.76527792
4818.00   0.71269429
4820.00   0.79921138
4822.00   0.82274050
4824.00   0.81524885
4826.00   0.82789218
4828.00   0.72616732
4830.00   0.70699435
4832.00   0.74842197
4834.00   0.72845274
4836.00   0.83580780
4838.00   0.80832094
4840.00   0.73879564
4842.00   0.75872529
4844.00   0.79997361
4846.00   0.78878975
4848.00   0.82098043
4850.00   0.79624939
4852.00   0.82159477
4854.00   0.75646204
4856.00   0.80315477
4858.00   0.76046658
4860.00   0.75515479
4862.00   0.79817772
4864.00   0.77621907
4866.00   0.80843377
4868.00   0.76781577
4870.00   0.81181443
4872.00   0.77390605
4874.00   0.74085712
4876.00   0.75454366
4878.00   0.76818711
4880.00   0.79524255
4882.00   0.78219217
4884.00   0.72243458
4886.00   0.74855644
4888.00   0.69160950
4890.00   0.76412427
4892.00   0.69882941
4894.00   0.70530474
4896.00   0.72483522
4898.00   0.75827211
4900.00   0.71414322
4902.00   0.65944833
4904.00   0.65923655
4906.00   0.75904465
4908.00   0.62925547
4910.00   0.62179780
4912.00   0.69308257
4914.00   0.57882243
4916.00   0.71824718
4918.00   0.62087601
4920.00   0.72495908
4922.00   0.72389692
4924.00   0.62199914
4926.00   0.58962297
4928.00   0.73197073
4930.00   0.75297517
4932.00   0.73658293
4934.00   0.72403610
4936.00   0.74457735
4938.00   0.70819038
4940.00   0.75091606
4942.00   0.67557269
4944.00   0.73038048
4946.00   0.73066717
4948.00   0.75930613
4950.00   0.71625042
4952.00   0.77488834
4954.00   0.72016770
4956.00   0.82950556
4958.00   0.67817301
4960.00   0.65378797
4962.00   0.69406098
4964.00   0.76934063
4966.00   0.68178159
4968.00   0.64159399
4970.00   0.60190535
4972.00   0.62118196
4974.00   0.65129447
4976.00   0.66037172
4978.00   0.65611488
4980.00   0.66763550
4982.00   0.63889164
4984.00   0.61083055
4986.00   0.53351206
4988.00   0.61593777
4990.00   0.46633103
4992.00   0.55582088
4994.00   0.64326310
4996.00   0.60641837
4998.00   0.51604986
5000.00   0.49801433
5002.00   0.51428676
5004.00   0.51445299
5006.00   0.53578788
5008.00   0.61492264
5010.00   0.50508678
5012.00   0.52049100
5014.00   0.51969004
5016.00   0.40311244
5018.00   0.45929551
5020.00   0.51424885
5022.00   0.49727419
5024.00   0.51206517
5026.00   0.44211304
5028.00   0.44370744
5030.00   0.44430351
5032.00   0.52340627
5034.00   0.45110235
5036.00   0.56264895
5038.00   0.60432374
5040.00   0.56256843
5042.00   0.49355277
5044.00   0.51466620
5046.00   0.59185296
5048.00   0.54474527
5050.00   0.57013965
5052.00   0.51602161
5054.00   0.51893055
5056.00   0.58236492
5058.00   0.55993086
5060.00   0.59149170
5062.00   0.70226079
5064.00   0.57655269
5066.00   0.63439655
5068.00   0.57440007
5070.00   0.61447453
5072.00   0.54570365
5074.00   0.62885773
5076.00   0.63811338
5078.00   0.55655181
5080.00   0.69303250
5082.00   0.63686711
5084.00   0.67422909
5086.00   0.62078291
5088.00   0.70509762
5090.00   0.60915035
5092.00   0.59354824
5094.00   0.68855095
5096.00   0.64701200
5098.00   0.60916394
5100.00   0.67708743
5102.00   0.71611112
5104.00   0.64409941
5106.00   0.68095660
5108.00   0.65622073
5110.00   0.66018111
5112.00   0.64173460
5114.00   0.56337506
5116.00   0.61151654
5118.00   0.64742333
5120.00   0.63827991
5122.00   0.62858331
5124.00   0.61117059
5126.00   0.54892439
5128.00   0.61156207
5130.00   0.59564847
5132.00   0.64696980
5134.00   0.61329895
5136.00   0.62059152
5138.00   0.56802523
5140.00   0.67850477
5142.00   0.67582154
5144.00   0.66763759
5146.00   0.64333087
5148.00   0.74532109
5150.00   0.65823692
5152.00   0.65075910
5154.00   0.56682253
5156.00   0.59734601
5158.00   0.63473022
5160.00   0.62965351
5162.00   0.63967824
5164.00   0.58077908
5166.00   0.61405987
5168.00   0.63016415
5170.00   0.66643000
5172.00   0.64104885
5174.00   0.58456749
5176.00   0.61520034
5178.00   0.64484966
5180.00   0.67470217
5182.00   0.61755961
5184.00   0.65230614
5186.00   0.64155519
5188.00   0.63235897
5190.00   0.66033906
5192.00   0.67674434
5194.00   0.62769312
5196.00   0.61275786
5198.00   0.67202908
5200.00   0.69130391
5202.00   0.65251124
5204.00   0.66027755
5206.00   0.65924001
5208.00   0.65147442
5210.00   0.66736257
5212.00   0.67735171
5214.00   0.65818363
5216.00   0.59376603
5218.00   0.64900362
5220.00   0.68987250
5222.00   0.65897071
5224.00   0.67942065
5226.00   0.69652408
5228.00   0.67021990
5230.00   0.71751004
5232.00   0.72757977
5234.00   0.72757268
5236.00   0.68367714
5238.00   0.71229720
5240.00   0.72066540
5242.00   0.75228268
5244.00   0.73921484
5246.00   0.66814923
5248.00   0.74632037
5250.00   0.61741364
5252.00   0.72696996
5254.00   0.69160503
5256.00   0.65690178
5258.00   0.79020232
5260.00   0.75140941
5262.00   0.75245821
5264.00   0.70715314
5266.00   0.73255497
5268.00   0.74511969
5270.00   0.78988492
5272.00   0.78142762
5274.00   0.75731635
5276.00   0.75507557
5278.00   0.71129936
5280.00   0.76358020
5282.00   0.72061139
5284.00   0.73181534
5286.00   0.74154735
5288.00   0.70446283
5290.00   0.77944034
5292.00   0.76102746
5294.00   0.70132172
5296.00   0.67150617
5298.00   0.65353292
5300.00   0.75181717
5302.00   0.79874653
5304.00   0.58001763
5306.00   0.59979337
5308.00   0.70979184
5310.00   0.73911130
5312.00   0.63567024
5314.00   0.61157560
5316.00   0.66764951
5318.00   0.66851681
5320.00   0.67958516
5322.00   0.72676212
5324.00   0.66018122
5326.00   0.73105222
5328.00   0.63913500
5330.00   0.66420960
5332.00   0.67121267
5334.00   0.64617705
5336.00   0.65627605
5338.00   0.69541830
5340.00   0.70405227
5342.00   0.62517667
5344.00   0.70863581
5346.00   0.68157166
5348.00   0.67239296
5350.00   0.70084900
5352.00   0.76053900
5354.00   0.67770028
5356.00   0.68144906
5358.00   0.69809431
5360.00   0.69440359
5362.00   0.73774606
5364.00   0.65785247
5366.00   0.69884974
5368.00   0.69875944
5370.00   0.65414733
5372.00   0.70335495
5374.00   0.64451683
5376.00   0.69041556
5378.00   0.67371368
5380.00   0.62238008
5382.00   0.73717660
5384.00   0.69530106
5386.00   0.68463242
5388.00   0.64825994
5390.00   0.67842972
5392.00   0.68424678
5394.00   0.69990712
5396.00   0.70903295
5398.00   0.72209489
5400.00   0.61709881
5402.00   0.60033584
5404.00   0.68613392
5406.00   0.67516005
5408.00   0.61097175
5410.00   0.59388214
5412.00   0.58668339
5414.00   0.52089036
5416.00   0.59983093
5418.00   0.56353170
5420.00   0.56948453
5422.00   0.51732314
5424.00   0.50052494
5426.00   0.42451257
5428.00   0.43205926
5430.00   0.53237021
5432.00   0.47922921
5434.00   0.56949991
5436.00   0.58563906
5438.00   0.54218602
5440.00   0.54229772
5442.00   0.51752162
5444.00   0.49052024
5446.00   0.42723796
5448.00   0.46653691
5450.00   0.41713834
5452.00   0.48672029
5454.00   0.42497456
5456.00   0.56807429
5458.00   0.56242561
5460.00   0.54402763
5462.00   0.50804114
5464.00   0.46135318
5466.00   0.44567800
5468.00   0.46225417
5470.00   0.45348650
5472.00   0.41824648
5474.00   0.40740940
5476.00   0.44081751
5478.00   0.48937741
5480.00   0.50848907
5482.00   0.51160157
5484.00   0.51948106
5486.00   0.51916862
5488.00   0.53001112
5490.00   0.56718600
5492.00   0.59564805
5494.00   0.57188380
5496.00   0.50654888
5498.00   0.48033506
5500.00   0.46090367
5502.00   0.46662411
5504.00   0.51117939
5506.00   0.55370229
5508.00   0.56733316
5510.00   0.56652749
5512.00   0.57109481
5514.00   0.57927072
5516.00   0.57397985
5518.00   0.55025524
5520.00   0.53309011
5522.00   0.52980828
5524.00   0.53503829
5526.00   0.54902589
5528.00   0.58294117
5530.00   0.59294826
5532.00   0.58452040
5534.00   0.57993859
5536.00   0.58355623
5538.00   0.58745527
5540.00   0.58335274
5542.00   0.57366323
5544.00   0.56429666
5546.00   0.54835212
5548.00   0.54113835
5550.00   0.54442900
5552.00   0.55042690
5554.00   0.55274427
5556.00   0.55402362
5558.00   0.55995762
5560.00   0.58141631
5562.00   0.57731742
5564.00   0.54547441
5566.00   0.51290709
5568.00   0.49185860
5570.00   0.47507775
5572.00   0.46075568
5574.00   0.44199356
5576.00   0.44425526
5578.00   0.46738225
5580.00   0.49173111
5582.00   0.51881361
5584.00   0.54336137
5586.00   0.54230350
5588.00   0.51513654
5590.00   0.50376964
5592.00   0.49155813
5594.00   0.48950300
5596.00   0.50588685
5598.00   0.52289402
5600.00   0.51695335
5602.00   0.49398535
5604.00   0.48608142
5606.00   0.48055005
5608.00   0.48450506
5610.00   0.50704253
5612.00   0.52417207
5614.00   0.51591939
5616.00   0.49182859
5618.00   0.48003411
5620.00   0.47636548
5622.00   0.46278617
5624.00   0.43587750
5626.00   0.41586751
5628.00   0.41266403
5630.00   0.41805100
5632.00   0.41700709
5634.00   0.41361582
5636.00   0.41318530
5638.00   0.41351637
5640.00   0.41633976
5642.00   0.42163697
5644.00   0.42956078
5646.00   0.44152427
5648.00   0.45966083
5650.00   0.46993795
5652.00   0.47757283
5654.00   0.48011926
5656.00   0.47470570
5658.00   0.46802619
5660.00   0.46583620
5662.00   0.46464086
5664.00   0.47389981
5666.00   0.49497664
5668.00   0.51358801
5670.00   0.53828621
5672.00   0.55457181
5674.00   0.55222243
5676.00   0.53722847
5678.00   0.52236605
5680.00   0.48645303
5682.00   0.48512894
5684.00   0.52852440
5686.00   0.54884869
5688.00   0.51213491
5690.00   0.45657748
5692.00   0.45766959
5694.00   0.50465655
5696.00   0.52420723
5698.00   0.53660107
5700.00   0.54772878
5702.00   0.55869931
5704.00   0.56721860
5706.00   0.57051331
5708.00   0.56851101
5710.00   0.56911594
5712.00   0.56676400
5714.00   0.57077622
5716.00   0.58812147
5718.00   0.60012269
5720.00   0.58717370
5722.00   0.55654550
5724.00   0.55421758
5726.00   0.57311004
5728.00   0.58568704
5730.00   0.60343379
5732.00   0.61249590
5734.00   0.60130829
5736.00   0.57939273
5738.00   0.57733023
5740.00   0.59194171
5742.00   0.59615725
5744.00   0.59570980
5746.00   0.59688669
5748.00   0.60222161
5750.00   0.60819435
5752.00   0.60916996
5754.00   0.60652578
5756.00   0.60421246
5758.00   0.59943461
5760.00   0.59684795
5762.00   0.59679145
5764.00   0.59799063
5766.00   0.59969109
5768.00   0.60248202
5770.00   0.60418367
5772.00   0.60704088
5774.00   0.60624725
5776.00   0.60018545
5778.00   0.59463692
5780.00   0.59407288
5782.00   0.59617168
5784.00   0.59375107
5786.00   0.58758295
5788.00   0.58334899
5790.00   0.57971704
5792.00   0.57642812
5794.00   0.57312971
5796.00   0.57026291
5798.00   0.56932360
5800.00   0.57007861
5802.00   0.57129419
5804.00   0.57078230
5806.00   0.57583845
5808.00   0.59317571
5810.00   0.61058736
5812.00   0.60648829
5814.00   0.58150947
5816.00   0.58148938
5818.00   0.60238588
5820.00   0.61250293
5822.00   0.61250973
5824.00   0.60804743
5826.00   0.60067403
5828.00   0.58873147
5830.00   0.58453399
5832.00   0.58671111
5834.00   0.58648008
5836.00   0.58223283
5838.00   0.58237892
5840.00   0.59480339
5842.00   0.61379832
5844.00   0.61474115
5846.00   0.59667909
5848.00   0.59229624
5850.00   0.59373766
5852.00   0.59739125
5854.00   0.60483772
5856.00   0.61306411
5858.00   0.61241722
5860.00   0.60684514
5862.00   0.59538049
5864.00   0.56523836
#5866.00   0.55464709
#5868.00   0.57057703
#5870.00   0.59674829
#5872.00   0.61891448
#5874.00   0.64678705
#5876.00   0.65489811
#5878.00   0.63408446
#5880.00   0.63818973
#5882.00   0.69098181
#5884.00   0.71916527
#5886.00   0.65309823
#5888.00   0.52274472
#5890.00   0.48127443
#5892.00   0.52353936
#5894.00   0.49544507
#5896.00   0.38480452
#5898.00   0.31614330
#5900.00   0.35801980
#5902.00   0.45417321
#5904.00   0.48108414
#5906.00   0.47284481
#5908.00   0.46918696
#5910.00   0.44227690
#5912.00   0.43702722
#5914.00   0.47270003
#5916.00   0.51949173
5918.00   0.53050470
5920.00   0.51908976
5922.00   0.51216471
5924.00   0.49542570
5926.00   0.48650369
5928.00   0.48471409
5930.00   0.48868883
5932.00   0.50111753
5934.00   0.52358133
5936.00   0.52869993
5938.00   0.51865548
5940.00   0.51508445
5942.00   0.51868010
5944.00   0.51832706
5946.00   0.50463867
5948.00   0.48312086
5950.00   0.47890273
5952.00   0.48862129
5954.00   0.49417207
5956.00   0.50450695
5958.00   0.50841612
5960.00   0.49778101
5962.00   0.48203361
5964.00   0.48416263
5966.00   0.50089991
5968.00   0.51075828
5970.00   0.52179593
5972.00   0.52955842
5974.00   0.53455073
5976.00   0.53580475
5978.00   0.52979273
5980.00   0.51482350
5982.00   0.51003152
5984.00   0.51346517
5986.00   0.51244688
5988.00   0.50297701
5990.00   0.49748701
5992.00   0.50791973
5994.00   0.52979428
5996.00   0.54238230
5998.00   0.55873698
6000.00   0.55930716
6002.00   0.53956574
6004.00   0.52154952
6006.00   0.51499885
6008.00   0.51407653
6010.00   0.51794177
6012.00   0.53340465
6014.00   0.53844833
6016.00   0.53060848
6018.00   0.53438401
6020.00   0.56419832
6022.00   0.59970063
6024.00   0.60148251
6026.00   0.57655007
6028.00   0.56291485
6030.00   0.54417378
6032.00   0.53409123
6034.00   0.53610611
6036.00   0.54177219
6038.00   0.54207766
6040.00   0.54022688
6042.00   0.54191548
6044.00   0.54691881
6046.00   0.55015254
6048.00   0.55128813
6050.00   0.55299264
6052.00   0.55817270
6054.00   0.56546587
6056.00   0.56451011
6058.00   0.54733378
6060.00   0.55188000
6062.00   0.58315533
6064.00   0.60363531
6066.00   0.59611893
6068.00   0.57512337
6070.00   0.56481969
6072.00   0.55452204
6074.00   0.55061156
6076.00   0.55257207
6078.00   0.55644852
6080.00   0.56357729
6082.00   0.57130760
6084.00   0.57383215
6086.00   0.57391590
6088.00   0.56937617
6090.00   0.55189389
6092.00   0.54864216
6094.00   0.56625587
6096.00   0.58471894
6098.00   0.58601719
6100.00   0.57776839
6102.00   0.56769085
6104.00   0.54376191
6106.00   0.53610587
6108.00   0.54969424
6110.00   0.55786896
6112.00   0.54063910
6114.00   0.51079059
6116.00   0.51206177
6118.00   0.54801536
6120.00   0.55489016
6122.00   0.54394412
6124.00   0.53207231
6126.00   0.51894873
6128.00   0.50787699
6130.00   0.51842308
6132.00   0.55556518
6134.00   0.56744480
6136.00   0.56668484
6138.00   0.56259656
6140.00   0.55116558
6142.00   0.53998041
6144.00   0.54262555
6146.00   0.55593467
6148.00   0.56275970
6150.00   0.57180017
6152.00   0.57321632
6154.00   0.56155717
6156.00   0.55242991
6158.00   0.56110573
6160.00   0.58143270
6162.00   0.58125055
6164.00   0.56106651
6166.00   0.55476534
6168.00   0.55784261
6170.00   0.56223762
6172.00   0.56554651
6174.00   0.56903982
6176.00   0.57027137
6178.00   0.57287657
6180.00   0.56731439
6182.00   0.55381286
6184.00   0.53961706
6186.00   0.52438056
6188.00   0.50946534
6190.00   0.50045192
6192.00   0.49579015
6194.00   0.49230143
6196.00   0.48903877
6198.00   0.49176213
6200.00   0.50431544
6202.00   0.51777560
6204.00   0.52315223
6206.00   0.52507305
6208.00   0.51785707
6210.00   0.49586618
6212.00   0.48270753
6214.00   0.47572932
6216.00   0.47162494
6218.00   0.47013342
6220.00   0.47134250
6222.00   0.46799570
6224.00   0.45754826
6226.00   0.45679092
6228.00   0.46904263
6230.00   0.47403517
6232.00   0.46318078
6234.00   0.44435290
6236.00   0.42992362
6238.00   0.41511735
6240.00   0.40045187
6242.00   0.38443518
6244.00   0.37089041
6246.00   0.35850397
6248.00   0.34982875
6250.00   0.35133106
6252.00   0.36478660
6254.00   0.36458588
6256.00   0.35611421
6258.00   0.34770384
6260.00   0.33761591
6262.00   0.32773387
6264.00   0.32058808
6266.00   0.31513935
6268.00   0.30919924
6270.00   0.30354846
6272.00   0.29803699
6274.00   0.28956789
6276.00   0.28600734
6278.00   0.29528245
6280.00   0.31132054
6282.00   0.30833510
6284.00   0.28576422
6286.00   0.27659854
6288.00   0.27669686
6290.00   0.27162030
6292.00   0.25316745
6294.00   0.23227280
6296.00   0.23045877
6298.00   0.24257015
6300.00   0.25463197
6302.00   0.28176790
6304.00   0.29221648
6306.00   0.28006980
6308.00   0.25971898
6310.00   0.24464063
6312.00   0.22791794
6314.00   0.21770768
6316.00   0.20955193
6318.00   0.20909740
6320.00   0.22002396
6322.00   0.23171480
6324.00   0.23663728
6326.00   0.23853692
6328.00   0.23922381
6330.00   0.23561573
6332.00   0.23576239
6334.00   0.23901407
6336.00   0.24207856
6338.00   0.24247369
6340.00   0.24259837
6342.00   0.24982271
6344.00   0.26968679
6346.00   0.27237809
6348.00   0.25838611
6350.00   0.25138819
6352.00   0.25700673
6354.00   0.26700932
6356.00   0.27263689
6358.00   0.27801558
6360.00   0.28005150
6362.00   0.27837798
6364.00   0.27700627
6366.00   0.27445155
6368.00   0.27321771
6370.00   0.27611962
6372.00   0.28169385
6374.00   0.29189569
6376.00   0.31542188
6378.00   0.32264131
6380.00   0.31137168
6382.00   0.30036864
6384.00   0.29995906
6386.00   0.30439737
6388.00   0.30934364
6390.00   0.31239033
6392.00   0.32665199
6394.00   0.35573819
6396.00   0.38048950
6398.00   0.40010908
6400.00   0.41228244
6402.00   0.39645663
6404.00   0.33761314
6406.00   0.32801169
6408.00   0.35470486
6410.00   0.37408236
6412.00   0.38122416
6414.00   0.38634467
6416.00   0.39761472
6418.00   0.41488937
6420.00   0.41758099
6422.00   0.40211153
6424.00   0.39965248
6426.00   0.41331458
6428.00   0.42719731
6430.00   0.42887080
6432.00   0.42372158
6434.00   0.42344961
6436.00   0.42210272
6438.00   0.42612565
6440.00   0.43736956
6442.00   0.44752818
6444.00   0.45365348
6446.00   0.45728406
6448.00   0.45529234
6450.00   0.44391647
6452.00   0.43980300
6454.00   0.43724960
6456.00   0.43844429
6458.00   0.44623497
6460.00   0.45613763
6462.00   0.45883933
6464.00   0.45827749
6466.00   0.45316792
6468.00   0.43739048
6470.00   0.43023869
6472.00   0.43378469
6474.00   0.44150734
6476.00   0.44821373
6478.00   0.45641145
6480.00   0.46421990
6482.00   0.47521678
6484.00   0.48011810
6486.00   0.47670200
6488.00   0.47388497
6490.00   0.47824666
6492.00   0.48641783
6494.00   0.48973364
6496.00   0.48964840
6498.00   0.49126664
6500.00   0.49567956
6502.00   0.49664584
6504.00   0.49090964
6506.00   0.48152721
6508.00   0.47480991
6510.00   0.46868920
6512.00   0.46210191
6514.00   0.45235124
6516.00   0.44801971
6518.00   0.45154595
6520.00   0.45878744
6522.00   0.46494520
6524.00   0.47311965
6526.00   0.47702885
6528.00   0.47507691
6530.00   0.47810158
6532.00   0.48866701
6534.00   0.49874189
6536.00   0.50152117
6538.00   0.50010031
6540.00   0.49524805
6542.00   0.48223034
6544.00   0.47535488
6546.00   0.47439879
6548.00   0.47287202
6550.00   0.46520090
6552.00   0.45530018
6554.00   0.45981106
6556.00   0.48578587
6558.00   0.48969549
6560.00   0.47864205
6562.00   0.46633390
6564.00   0.45259836
6566.00   0.43989345
6568.00   0.44237015
6570.00   0.46050799
6572.00   0.46914870
6574.00   0.47860855
6576.00   0.48125726
6578.00   0.47268087
6580.00   0.46210545
6582.00   0.46184805
6584.00   0.46854809
6586.00   0.46913469
6588.00   0.46682653
6590.00   0.46469620
6592.00   0.46070877
6594.00   0.45860973
6596.00   0.46271712
6598.00   0.47128347
6600.00   0.47277722
6602.00   0.47303802
6604.00   0.46587110
6606.00   0.44627181
6608.00   0.43087149
6610.00   0.42655966
6612.00   0.42869696
6614.00   0.43455341
6616.00   0.45217347
6618.00   0.45668525
6620.00   0.45313546
6622.00   0.44808614
6624.00   0.43955487
6626.00   0.43160638
6628.00   0.43574676
6630.00   0.45249858
6632.00   0.45667195
6634.00   0.45692864
6636.00   0.45087129
6638.00   0.43271700
6640.00   0.41518685
6642.00   0.41318211
6644.00   0.42160746
6646.00   0.42537612
6648.00   0.43182322
6650.00   0.43346921
6652.00   0.42909345
6654.00   0.42486838
6656.00   0.42475760
6658.00   0.42658588
6660.00   0.42650402
6662.00   0.42747086
6664.00   0.42413872
6666.00   0.41255528
6668.00   0.40700933
6670.00   0.41514271
6672.00   0.42888761
6674.00   0.43139997
6676.00   0.42669117
6678.00   0.42396036
6680.00   0.41845763
6682.00   0.41583267
6684.00   0.41786510
6686.00   0.42119732
6688.00   0.42192638
6690.00   0.42242387
6692.00   0.41820502
6694.00   0.40598184
6696.00   0.40015054
6698.00   0.39880455
6700.00   0.40253523
6702.00   0.41623050
6704.00   0.43959603
6706.00   0.43982115
6708.00   0.41672784
6710.00   0.40644476
6712.00   0.40283129
6714.00   0.40217993
6716.00   0.40418983
6718.00   0.40872461
6720.00   0.41101226
6722.00   0.41478387
6724.00   0.41322780
6726.00   0.40565613
6728.00   0.39939210
6730.00   0.39476526
6732.00   0.39225751
6734.00   0.39698964
6736.00   0.41281798
6738.00   0.41351536
6740.00   0.39993399
6742.00   0.39337504
6744.00   0.39725813
6746.00   0.40262184
6748.00   0.40085551
6750.00   0.39514220
6752.00   0.38977197
6754.00   0.37749884
6756.00   0.37656999
6758.00   0.39045885
6760.00   0.40430120
6762.00   0.40853626
6764.00   0.40801242
6766.00   0.40371221
6768.00   0.38667533
6770.00   0.38518924
6772.00   0.39813080
6774.00   0.41046822
6776.00   0.42031845
6778.00   0.42709345
6780.00   0.41451067
6782.00   0.37324810
6784.00   0.35965222
6786.00   0.36102092
6788.00   0.36559120
6790.00   0.37370116
6792.00   0.38401473
6794.00   0.39096290
6796.00   0.39756757
6798.00   0.39977619
6800.00   0.39653900
6802.00   0.39485598
6804.00   0.39644215
6806.00   0.39619455
6808.00   0.38832855
6810.00   0.37420627
6812.00   0.36833572
6814.00   0.36708647
6816.00   0.36668676
6818.00   0.36998495
6820.00   0.37170944
6822.00   0.36740077
6824.00   0.35987651
6826.00   0.35938179
6828.00   0.36699340
6830.00   0.36700797
6832.00   0.36047670
6834.00   0.35611972
6836.00   0.35715014
6838.00   0.36025530
6840.00   0.36062637
6842.00   0.35929957
6844.00   0.35957196
6846.00   0.36392635
6848.00   0.36224395
6850.00   0.34923685
6852.00   0.33560702
6854.00   0.33595747
6856.00   0.34628546
6858.00   0.35250854
6860.00   0.36489710
6862.00   0.36573914
6864.00   0.35025445
6866.00   0.33474159
6868.00   0.33241087
6870.00   0.33734262
6872.00   0.33796373
6874.00   0.33869132
6876.00   0.33794776
6878.00   0.33369207
6880.00   0.33206260
6882.00   0.33702981
6884.00   0.34544489
6886.00   0.34908557
6888.00   0.35242310
6890.00   0.35033470
6892.00   0.33916676
6894.00   0.33330184
6896.00   0.33757034
6898.00   0.34537098
6900.00   0.34773043
6902.00   0.34943762
6904.00   0.34459412
6906.00   0.32897109
6908.00   0.32057536
6910.00   0.32062989
6912.00   0.32421499
6914.00   0.32822004
6916.00   0.33462271
6918.00   0.33816639
6920.00   0.34267390
6922.00   0.34154245
6924.00   0.33296862
6926.00   0.32396740
6928.00   0.31797141
6930.00   0.31319922
6932.00   0.31509528
6934.00   0.32966462
6936.00   0.33080199
6938.00   0.31840646
6940.00   0.31035554
6942.00   0.31384885
6944.00   0.32257089
6946.00   0.32760042
6948.00   0.33319432
6950.00   0.33583915
6952.00   0.33779043
6954.00   0.33562911
6956.00   0.32769230
6958.00   0.31699735
6960.00   0.30702636
6962.00   0.29360697
6964.00   0.29231837
6966.00   0.30348647
6968.00   0.31112790
6970.00   0.31819323
6972.00   0.32183862
6974.00   0.31668702
6976.00   0.30412096
6978.00   0.29992810
6980.00   0.29928520
6982.00   0.30070731
6984.00   0.30772465
6986.00   0.31223789
6988.00   0.30800083
6990.00   0.29937044
6992.00   0.30057687
6994.00   0.31168741
6996.00   0.31536910
6998.00   0.31729046
7000.00   0.31537932
7002.00   0.30682403
7004.00   0.29573452
7006.00   0.29191932
7008.00   0.29331011
7010.00   0.29242009
7012.00   0.29040614
7014.00   0.29061142
7016.00   0.29572263
7018.00   0.30007935
7020.00   0.29561457
7022.00   0.28363442
7024.00   0.27971455
7026.00   0.27909964
7028.00   0.28091979
7030.00   0.28832391
7032.00   0.29422224
7034.00   0.29180360
7036.00   0.28411832
7038.00   0.28475565
7040.00   0.29287067
7042.00   0.29600561
7044.00   0.29725352
7046.00   0.29619953
7048.00   0.29134455
7050.00   0.28434402
7052.00   0.28168347
7054.00   0.28033236
7056.00   0.28261292
7058.00   0.29212525
7060.00   0.29680225
7062.00   0.29307738
7064.00   0.28628018
7066.00   0.28333041
7068.00   0.28198686
7070.00   0.27954447
7072.00   0.27481452
7074.00   0.27389696
7076.00   0.27909961
7078.00   0.28440946
7080.00   0.28375435
7082.00   0.27948210
7084.00   0.27562687
7086.00   0.26635247
7088.00   0.26592156
7090.00   0.27713820
7092.00   0.28679249
7094.00   0.28674939
7096.00   0.28157720
7098.00   0.27832627
7100.00   0.26905924
7102.00   0.27194563
7104.00   0.29091728
7106.00   0.30245635
7108.00   0.29715970
7110.00   0.28431830
7112.00   0.27809384
7114.00   0.27313235
7116.00   0.26938355
7118.00   0.26590016
7120.00   0.26545891
7122.00   0.26983058
7124.00   0.27557153
7126.00   0.27801883
7128.00   0.27932644
7130.00   0.27822301
7132.00   0.27319100
7134.00   0.27012271
7136.00   0.26875293
7138.00   0.26806709
7140.00   0.26768902
7142.00   0.26784864
7144.00   0.26763970
7146.00   0.26803663
7148.00   0.26688144
7150.00   0.26289541
7152.00   0.26051652
7154.00   0.26242527
7156.00   0.26668486
7158.00   0.26881760
7160.00   0.27057809
7162.00   0.27149841
7164.00   0.27151489
7166.00   0.27118391
7168.00   0.27217886
7170.00   0.27180022
7172.00   0.26294476
7174.00   0.24144433
7176.00   0.23918979
7178.00   0.25363922
7180.00   0.26315767
7182.00   0.26640725
7184.00   0.26847783
7186.00   0.27328813
7188.00   0.28006658
7190.00   0.28116810
7192.00   0.27623162
7194.00   0.27418116
7196.00   0.27474701
7198.00   0.27518013
7200.00   0.27375513
7202.00   0.27134508
7204.00   0.26993510
7206.00   0.26786438
7208.00   0.26833770
7210.00   0.27248311
7212.00   0.27524275
7214.00   0.27409551
7216.00   0.27130997
7218.00   0.27133861
7220.00   0.27426243
7222.00   0.27359840
7224.00   0.27141887
7226.00   0.26736367
7228.00   0.25916517
7230.00   0.25096434
7232.00   0.25021994
7234.00   0.25447831
7236.00   0.26056865
7238.00   0.27657166
7240.00   0.28108215
7242.00   0.27062306
7244.00   0.25735730
7246.00   0.25141925
7248.00   0.24831712
7250.00   0.24574003
7252.00   0.24375367
7254.00   0.24460497
7256.00   0.24880421
7258.00   0.25399250
7260.00   0.26027822
7262.00   0.26725006
7264.00   0.26660195
7266.00   0.25677076
7268.00   0.25287855
7270.00   0.25135294
7272.00   0.25052464
7274.00   0.25035685
7276.00   0.25064626
7278.00   0.24994631
7280.00   0.24817848
7282.00   0.24800932
7284.00   0.25086528
7286.00   0.25021785
7288.00   0.24251243
7290.00   0.23511781
7292.00   0.23847669
7294.00   0.25095344
7296.00   0.25353238
7298.00   0.24999690
7300.00   0.24755993
7302.00   0.24375571
7304.00   0.24203074
7306.00   0.24653880
7308.00   0.25560036
7310.00   0.25933975
7312.00   0.26050505
7314.00   0.26110861
7316.00   0.25957474
7318.00   0.25878274
7320.00   0.26078326
7322.00   0.26382938
7324.00   0.26296911
7326.00   0.25669542
7328.00   0.25662804
7330.00   0.26254529
7332.00   0.26543096
7334.00   0.26306382
7336.00   0.25838560
7338.00   0.25437641
7340.00   0.24919792
7342.00   0.24603359
7344.00   0.24285032
7346.00   0.24275285
7348.00   0.24788004
7350.00   0.25322819
7352.00   0.25306317
7354.00   0.24926034
7356.00   0.24817233
7358.00   0.24526785
7360.00   0.24824995
7362.00   0.26150200
7364.00   0.27114850
7366.00   0.26756683
7368.00   0.25599235
7370.00   0.24735768
7372.00   0.23237532
7374.00   0.22916608
7376.00   0.23808509
7378.00   0.24567328
7380.00   0.24930245
7382.00   0.25007659
7384.00   0.24178371
7386.00   0.21740720
7388.00   0.21342617
7390.00   0.22458513
7392.00   0.23433454
7394.00   0.24437760
7396.00   0.25127038
7398.00   0.24413136
7400.00   0.22233294
7402.00   0.21600485
7404.00   0.21907499
7406.00   0.22086643
7408.00   0.22307356
7410.00   0.22455949
7412.00   0.22262968
7414.00   0.21796247
7416.00   0.21973294
7418.00   0.22878163
7420.00   0.23249297
7422.00   0.23234941
7424.00   0.23123734
7426.00   0.22883041
7428.00   0.22586860
7430.00   0.23120314
7432.00   0.24820940
7434.00   0.25477925
7436.00   0.25821340
7438.00   0.25592971
7440.00   0.24301241
7442.00   0.22700188
7444.00   0.22597787
7446.00   0.23751146
7448.00   0.24118590
7450.00   0.24517363
7452.00   0.24393192
7454.00   0.23341563
7456.00   0.22235911
7458.00   0.22196217
7460.00   0.22890234
7462.00   0.23166783
7464.00   0.23359901
7466.00   0.23592176
7468.00   0.23879814
7470.00   0.24140882
7472.00   0.24374135
7474.00   0.24587879
7476.00   0.24372177
7478.00   0.23568706
7480.00   0.23158440
7482.00   0.22912443
7484.00   0.22812708
7486.00   0.22841533
7488.00   0.23022053
7490.00   0.23465773
7492.00   0.24465750
7494.00   0.24803792
7496.00   0.24773701
7498.00   0.24573831
7500.00   0.24150862
7502.00   0.23613936
7504.00   0.23194687
7506.00   0.22663003
7508.00   0.22730389
7510.00   0.23657154
7512.00   0.23988549
7514.00   0.23404139
7516.00   0.22872344
7518.00   0.23429132
7520.00   0.24794863
7522.00   0.24866338
7524.00   0.24012427
7526.00   0.23275813
7528.00   0.22336847
7530.00   0.21502316
7532.00   0.21067199
7534.00   0.20848554
7536.00   0.20167130
7538.00   0.18370412
7540.00   0.18436313
7542.00   0.20232457
7544.00   0.21944307
7546.00   0.23284161
7548.00   0.24359636
7550.00   0.24412683
7552.00   0.23386471
7554.00   0.22693133
7556.00   0.21585009
7558.00   0.20982571
7560.00   0.21063703
7562.00   0.21458937
7564.00   0.21826072
7566.00   0.22391643
7568.00   0.22626367
7570.00   0.22833958
7572.00   0.22601916
7574.00   0.21626651
7576.00   0.20725013
7578.00   0.20646070
7580.00   0.21076292
7582.00   0.20973709
7584.00   0.20550132
7586.00   0.20263863
7588.00   0.19695489
7590.00   0.19659121
7592.00   0.20885502
7594.00   0.22749655
7596.00   0.23064420
7598.00   0.21640648
7600.00   0.21847473
7602.00   0.23252203
7604.00   0.24291256
7606.00   0.24584933
7608.00   0.24590643
7610.00   0.24790272
7612.00   0.25287983
7614.00   0.24701631
7616.00   0.22965460
7618.00   0.21546222
7620.00   0.20064332
7622.00   0.19135377
7624.00   0.19979253
7626.00   0.22538050
7628.00   0.22709335
7630.00   0.21231036
7632.00   0.19997708
7634.00   0.18036869
7636.00   0.16933352
7638.00   0.18337412
7640.00   0.21388772
7642.00   0.21764000
7644.00   0.19749302
7646.00   0.19356865
7648.00   0.20022531
7650.00   0.20561337
7652.00   0.20563966
7654.00   0.20356545
7656.00   0.20248576
7658.00   0.20314136
7660.00   0.19832456
7662.00   0.18571414
7664.00   0.17811629
7666.00   0.17756069
7668.00   0.18070590
7670.00   0.18554926
7672.00   0.19511537
7674.00   0.19705538
7676.00   0.19374545
7678.00   0.18982717
7680.00   0.18308480
7682.00   0.17739256
7684.00   0.17752038
7686.00   0.18186350
7688.00   0.18216509
7690.00   0.17921172
7692.00   0.17932133
7694.00   0.18266450
7696.00   0.18564557
7698.00   0.18580393
7700.00   0.18480039
7702.00   0.18773948
7704.00   0.19615157
7706.00   0.19877605
7708.00   0.19849537
7710.00   0.19608893
7712.00   0.19026051
7714.00   0.18315248
7716.00   0.18095578
7718.00   0.18290852
7720.00   0.18201908
7722.00   0.17906241
7724.00   0.17803994
7726.00   0.17945471
7728.00   0.18204983
7730.00   0.18543392
7732.00   0.19118509
7734.00   0.18932386
7736.00   0.17760830
7738.00   0.17296892
7740.00   0.17581935
7742.00   0.17957103
7744.00   0.17981388
7746.00   0.17864618
7748.00   0.17933036
7750.00   0.18037345
7752.00   0.18300413
7754.00   0.19016276
7756.00   0.19348089
7758.00   0.18787263
7760.00   0.17765622
7762.00   0.17323245
7764.00   0.17030625
7766.00   0.17059143
7768.00   0.17710546
7770.00   0.17994946
7772.00   0.17587852
7774.00   0.16973187
7776.00   0.16792615
7778.00   0.16707593
7780.00   0.17127734
7782.00   0.18341403
7784.00   0.19102629
7786.00   0.19211315
7788.00   0.19299828
7790.00   0.20120011
7792.00   0.21575619
7794.00   0.21273124
7796.00   0.18849692
7798.00   0.17949028
7800.00   0.18343897
7802.00   0.18995537
7804.00   0.19449013
7806.00   0.19943890
7808.00   0.20193775
7810.00   0.19982961
7812.00   0.20362353
7814.00   0.21324812
7816.00   0.22147124
7818.00   0.22801000
7820.00   0.23192883
7822.00   0.22514462
7824.00   0.20431732
7826.00   0.19486250
7828.00   0.18673983
7830.00   0.18667871
7832.00   0.20140682
7834.00   0.21799017
7836.00   0.21662554
7838.00   0.20274717
7840.00   0.19346493
7842.00   0.17316318
7844.00   0.17292424
7846.00   0.20152692
7848.00   0.23074673
7850.00   0.23715341
7852.00   0.23112318
7854.00   0.22666882
7856.00   0.21387294
7858.00   0.20947620
7860.00   0.21430308
7862.00   0.21719348
7864.00   0.21228647
7866.00   0.20353661
7868.00   0.19764408
7870.00   0.18970181
7872.00   0.18814687
7874.00   0.19014397
7876.00   0.19671749
7878.00   0.21230820
7880.00   0.22976062
7882.00   0.23203637
7884.00   0.22212431
7886.00   0.21670225
7888.00   0.20941667
7890.00   0.20381579
7892.00   0.20042881
7894.00   0.19780833
7896.00   0.19370846
7898.00   0.18750368
7900.00   0.19191013
7902.00   0.21011582
7904.00   0.21923615
7906.00   0.22251602
7908.00   0.22076650
7910.00   0.21113111
7912.00   0.19485581
7914.00   0.19141130
7916.00   0.19667062
7918.00   0.20209342
7920.00   0.21411826
7922.00   0.22133408
7924.00   0.21776235
7926.00   0.20871624
7928.00   0.20473143
7930.00   0.20329244
7932.00   0.19923866
7934.00   0.19407809
7936.00   0.18792047
7938.00   0.17747980
7940.00   0.16874911
7942.00   0.17388469
7944.00   0.19281259
7946.00   0.19946679
7948.00   0.20094731
7950.00   0.20059875
7952.00   0.19313458
7954.00   0.18948396
7956.00   0.20326822
7958.00   0.23062316
7960.00   0.24324606
7962.00   0.25344133
7964.00   0.25199732
7966.00   0.23178971
7968.00   0.21488649
7970.00   0.21446049
7972.00   0.22270824
7974.00   0.22788674
7976.00   0.24200150
7978.00   0.23879610
7980.00   0.21434493
7982.00   0.19884835
7984.00   0.20288470
7986.00   0.21552491
7988.00   0.22286911
7990.00   0.23629929
7992.00   0.23054902
7994.00   0.20093045
7996.00   0.18350050
7998.00   0.18288307
8000.00   0.18853009
8002.00   0.19186035
8004.00   0.19682103
8006.00   0.20133629
8008.00   0.20773730
8010.00   0.21089163
8012.00   0.20790447
8014.00   0.20705079
8016.00   0.21679492
8018.00   0.23381163
8020.00   0.23769356
8022.00   0.23192361
8024.00   0.22775051
8026.00   0.22133128
8028.00   0.21601273
8030.00   0.21400109
8032.00   0.21356069
8034.00   0.21060503
8036.00   0.20163555
8038.00   0.20401675
8040.00   0.21844250
8042.00   0.22862384
8044.00   0.22976902
8046.00   0.22838749
8048.00   0.23345689
8050.00   0.24572583
8052.00   0.24443588
8054.00   0.22728255
8056.00   0.22035363
8058.00   0.22876891
8060.00   0.23805565
8062.00   0.23347439
8064.00   0.21968068
8066.00   0.21385016
8068.00   0.21089660
8070.00   0.20908846
8072.00   0.20877230
8074.00   0.20982571
8076.00   0.21260425
8078.00   0.21689244
8080.00   0.21911080
8082.00   0.22027713
8084.00   0.22115478
8086.00   0.22114052
8088.00   0.22131711
8090.00   0.22188981
8092.00   0.22279109
8094.00   0.22461429
8096.00   0.22754061
8098.00   0.23000756
8100.00   0.23763107
8102.00   0.23568098
8104.00   0.21548893
8106.00   0.19310810
8108.00   0.19326612
8110.00   0.21079354
8112.00   0.21657518
8114.00   0.22026467
8116.00   0.22059982
8118.00   0.21400534
8120.00   0.20880458
8122.00   0.21379541
8124.00   0.22580472
8126.00   0.23060329
8128.00   0.23325679
8130.00   0.23282935
8132.00   0.22778842
8134.00   0.22247557
8136.00   0.22003172
8138.00   0.21824171
8140.00   0.21037014
8142.00   0.18632945
8144.00   0.18825005
8146.00   0.21642287
8148.00   0.23705006
8150.00   0.24105306
8152.00   0.23794173
8154.00   0.23579900
8156.00   0.22741294
8158.00   0.23068722
8160.00   0.24631020
8162.00   0.25610495
8164.00   0.26007986
8166.00   0.25961491
8168.00   0.25251547
8170.00   0.23723912
8172.00   0.23219398
8174.00   0.23339462
8176.00   0.23469511
8178.00   0.24289204
8180.00   0.24412461
8182.00   0.22224198
8184.00   0.18428230
8186.00   0.17970593
8188.00   0.21117432
8190.00   0.21438088
8192.00   0.19231512
8194.00   0.17712109
8196.00   0.18331154
8198.00   0.19937772
8200.00   0.20705810
8202.00   0.21543422
8204.00   0.21598792
8206.00   0.20488389
8208.00   0.20009489
8210.00   0.20753452
8212.00   0.21798009
8214.00   0.21828718
8216.00   0.21072480
8218.00   0.21082665
8220.00   0.21479432
8222.00   0.21941085
8224.00   0.22694352
8226.00   0.23305434
8228.00   0.23205011
8230.00   0.22554748
8232.00   0.22378914
8234.00   0.22162591
8236.00   0.22463988
8238.00   0.23626663
8240.00   0.24552932
8242.00   0.24698271
8244.00   0.24350475
8246.00   0.23152597
8248.00   0.20356739
8250.00   0.18875043
8252.00   0.17681812
8254.00   0.17434770
8256.00   0.18841547
8258.00   0.20988843
8260.00   0.21518713
8262.00   0.21153596
8264.00   0.20596859
8266.00   0.19049387
8268.00   0.18203402
8270.00   0.18177144
8272.00   0.18712306
8274.00   0.19681284
8276.00   0.20962313
8278.00   0.23660293
8280.00   0.29482657
8282.00   0.32104385
8284.00   0.31520224
8286.00   0.29537886
8288.00   0.26748553
8290.00   0.22631420
8292.00   0.21836229
8294.00   0.24675746
8296.00   0.25046921
8298.00   0.23516764
8300.00   0.22043470
8302.00   0.21387309
8304.00   0.21084996
8306.00   0.21097305
8308.00   0.22059058
8310.00   0.21855508
8312.00   0.20574464
8314.00   0.19702584
8316.00   0.19521232
8318.00   0.19741184
8320.00   0.20336173
8322.00   0.21666850
8324.00   0.22104973
8326.00   0.21879408
8328.00   0.21806096
8330.00   0.21847664
8332.00   0.21987632
8334.00   0.22368470
8336.00   0.23019987
8338.00   0.23171256
8340.00   0.22851244
8342.00   0.22758046
8344.00   0.23218793
8346.00   0.23178029
8348.00   0.21525979
8350.00   0.18826021
8352.00   0.18535081
8354.00   0.20723113
8356.00   0.21208329
8358.00   0.20572193
8360.00   0.20040779
8362.00   0.20156658
8364.00   0.20432566
8366.00   0.19987988
8368.00   0.18821266
8370.00   0.18176003
8372.00   0.17618851
8374.00   0.17319335
8376.00   0.17223759
8378.00   0.17438158
8380.00   0.18263328
8382.00   0.19842866
8384.00   0.20704030
8386.00   0.21384880
8388.00   0.21664779
8390.00   0.21495040
8392.00   0.21031888
8394.00   0.20423059
8396.00   0.19614682
8398.00   0.18418153
8400.00   0.15969692
8402.00   0.15231615
8404.00   0.16338821
8406.00   0.17490594
8408.00   0.17839549
8410.00   0.17866108
8412.00   0.17576027
8414.00   0.16471493
8416.00   0.16216698
8418.00   0.16481532
8420.00   0.16898941
8422.00   0.17633258
8424.00   0.18371770
8426.00   0.18023665
8428.00   0.16391329
8430.00   0.16103499
8432.00   0.16872455
8434.00   0.17188723
8436.00   0.16632809
8438.00   0.16126366
8440.00   0.16861027
8442.00   0.18708012
8444.00   0.19031060
8446.00   0.18194261
8448.00   0.17700595
8450.00   0.17200683
8452.00   0.17020652
8454.00   0.17604125
8456.00   0.18765938
8458.00   0.19455466
8460.00   0.20458329
8462.00   0.20384163
8464.00   0.19285719
8466.00   0.17857556
8468.00   0.15997142
8470.00   0.13958856
8472.00   0.13680319
8474.00   0.15185255
8476.00   0.15882613
8478.00   0.16607763
8480.00   0.17178108
8482.00   0.17763139
8484.00   0.18050539
8486.00   0.17199481
8488.00   0.14826308
8490.00   0.14486223
8492.00   0.15992400
8494.00   0.16588017
8496.00   0.16083699
8498.00   0.15312827
8500.00   0.14849284
8502.00   0.14387535
8504.00   0.14389950
8506.00   0.14561945
8508.00   0.15353014
8510.00   0.17367493
8512.00   0.18940648
8514.00   0.18985616
8516.00   0.18097439
8518.00   0.17124994
8520.00   0.14776103
8522.00   0.14353400
8524.00   0.15725434
8526.00   0.16933978
8528.00   0.17496528
8530.00   0.17730542
8532.00   0.17351376
8534.00   0.16114032
8536.00   0.15407009
8538.00   0.14505763
8540.00   0.14284888
8542.00   0.15103559
8544.00   0.16280030
8546.00   0.16987403
8548.00   0.17782769
8550.00   0.17386895
8552.00   0.15293822
8554.00   0.14292687
8556.00   0.14272106
8558.00   0.14759071
8560.00   0.15675765
8562.00   0.17142200
8564.00   0.17797031
8566.00   0.18130404
8568.00   0.18040113
8570.00   0.17361833
8572.00   0.16566142
8574.00   0.15794055
8576.00   0.14991173
8578.00   0.14589657
8580.00   0.14391640
8582.00   0.14540628
8584.00   0.15136851
8586.00   0.15789676
8588.00   0.16592081
8590.00   0.17338732
8592.00   0.17304853
8594.00   0.16324258
8596.00   0.16413707
8598.00   0.17137036
8600.00   0.17946723
8602.00   0.19280596
8604.00   0.20289049
8606.00   0.19700436
8608.00   0.17837022
8610.00   0.16485162
8612.00   0.14428796
8614.00   0.13650204
8616.00   0.14085755
8618.00   0.15162128
8620.00   0.16870534
8622.00   0.19250202
8624.00   0.19908588
8626.00   0.19164161
8628.00   0.18679453
8630.00   0.17686665
8632.00   0.17138800
8634.00   0.17734273
8636.00   0.18790673
8638.00   0.18446547
8640.00   0.16374023
8642.00   0.16313690
8644.00   0.17763372
8646.00   0.18975681
8648.00   0.19898269
8650.00   0.20520802
8652.00   0.20231918
8654.00   0.18827291
8656.00   0.18697909
8658.00   0.19615483
8660.00   0.20002131
8662.00   0.19840033
8664.00   0.19476613
8666.00   0.19008204
8668.00   0.18287027
8670.00   0.18492568
8672.00   0.20022820
8674.00   0.20364800
8676.00   0.19502774
8678.00   0.18657857
8680.00   0.18414700
8682.00   0.18451096
8684.00   0.18819790
8686.00   0.20057198
8688.00   0.20307730
8690.00   0.19764829
8692.00   0.19274712
8694.00   0.19020440
8696.00   0.18871684
8698.00   0.18927574
8700.00   0.19236633
8702.00   0.19441894
8704.00   0.19783154
8706.00   0.19880298
8708.00   0.19554919
8710.00   0.19170357
8712.00   0.19224644
8714.00   0.19606164
8716.00   0.19668499
8718.00   0.19270049
8720.00   0.19485551
8722.00   0.20815986
8724.00   0.21783744
8726.00   0.21021304
8728.00   0.19093955
8730.00   0.18333286
8732.00   0.17919980
8734.00   0.17941949
8736.00   0.18787621
8738.00   0.19409552
8740.00   0.19199643
8742.00   0.18620223
8744.00   0.18683811
8746.00   0.19447652
8748.00   0.19440749
8750.00   0.18857801
8752.00   0.18368949
8754.00   0.18148562
8756.00   0.17973743
8758.00   0.17585029
8760.00   0.16991386
8762.00   0.16639006
8764.00   0.16046050
8766.00   0.16232544
8768.00   0.17388408
8770.00   0.18978612
8772.00   0.20789409
8774.00   0.23314749
8776.00   0.23037599
8778.00   0.19533992
8780.00   0.17759328
8782.00   0.17044550
8784.00   0.16991258
8786.00   0.17790899
8788.00   0.19334392
8790.00   0.19618477
8792.00   0.18584864
8794.00   0.18731730
8796.00   0.19878221
8798.00   0.20814733
8800.00   0.21071121
8802.00   0.21056528
8804.00   0.21347252
8806.00   0.22159694
8808.00   0.21835095
8810.00   0.20242056
8812.00   0.19185360
8814.00   0.19121920
8816.00   0.19242291
8818.00   0.18468031
8820.00   0.16770235
8822.00   0.16843700
8824.00   0.18935151
8826.00   0.19699410
8828.00   0.19072866
8830.00   0.17986704
8832.00   0.16778654
8834.00   0.15105109
8836.00   0.15571891
8838.00   0.18913865
8840.00   0.19975983
8842.00   0.19007416
8844.00   0.18015391
8846.00   0.17805465
8848.00   0.17937142
8850.00   0.18835683
8852.00   0.21020146
8854.00   0.22231567
8856.00   0.22817744
8858.00   0.23580980
8860.00   0.25144547
8862.00   0.26642543
8864.00   0.26173154
8866.00   0.24083292
8868.00   0.22065371
8870.00   0.18269107
8872.00   0.16592547
8874.00   0.17574479
8876.00   0.19851819
8878.00   0.22495142
8880.00   0.26459661
8882.00   0.27717611
8884.00   0.27167588
8886.00   0.26063961
8888.00   0.23530896
8890.00   0.21195979
8892.00   0.20364240
8894.00   0.20397012
8896.00   0.20708162
8898.00   0.22010736
8900.00   0.22631326
8902.00   0.22912994
8904.00   0.22990704
8906.00   0.22776565
8908.00   0.22396034
8910.00   0.22493054
8912.00   0.22852001
8914.00   0.23397049
8916.00   0.25013262
8918.00   0.25274733
8920.00   0.23295173
8922.00   0.20451480
8924.00   0.18604602
8926.00   0.16532546
8928.00   0.16648391
8930.00   0.19362819
8932.00   0.21179456
8934.00   0.22129406
8936.00   0.22746034
8938.00   0.23413233
8940.00   0.24151337
8942.00   0.22971472
8944.00   0.19025606
8946.00   0.17082116
8948.00   0.16218644
8950.00   0.16566163
8952.00   0.18880706
8954.00   0.22662391
8956.00   0.24100001
8958.00   0.24707939
8960.00   0.23905759
8962.00   0.20348626
8964.00   0.18063831
8966.00   0.18901050
8968.00   0.20918047
8970.00   0.20556472
8972.00   0.18240331
8974.00   0.17685024
8976.00   0.18223180
8978.00   0.18525358
8980.00   0.18242124
8982.00   0.18062723
8984.00   0.18851534
8986.00   0.20451602
8988.00   0.21595024
8990.00   0.23461892
8992.00   0.23676549
8994.00   0.21629548
8996.00   0.19366588
8998.00   0.18504365
9000.00   0.18297838
9002.00   0.18167867
9004.00   0.18105248
9006.00   0.18771976
9008.00   0.20741354
9010.00   0.22189237
9012.00   0.22127517
9014.00   0.21237028
9016.00   0.20689927
9018.00   0.19297114
9020.00   0.19654201
9022.00   0.21923847
9024.00   0.23542346
9026.00   0.24001865
9028.00   0.23819292
9030.00   0.23105150
9032.00   0.21396519
9034.00   0.20622790
9036.00   0.20073605
9038.00   0.20084430
9040.00   0.21013042
9042.00   0.22079526
9044.00   0.22373337
9046.00   0.22275357
9048.00   0.21932131
9050.00   0.21115954
9052.00   0.20389818
9054.00   0.19493727
9056.00   0.18833521
9058.00   0.18884669
9060.00   0.19411963
9062.00   0.18972802
9064.00   0.17095156
9066.00   0.16976659
9068.00   0.18665229
9070.00   0.19945903
9072.00   0.20002767
9074.00   0.19464794
9076.00   0.18876970
9078.00   0.17704624
9080.00   0.17189856
9082.00   0.16718031
9084.00   0.16976139
9086.00   0.18631245
9088.00   0.20490079
9090.00   0.20542566
9092.00   0.19364432
9094.00   0.18282253
9096.00   0.16097209
9098.00   0.15169226
9100.00   0.15860146
9102.00   0.16871357
9104.00   0.17097692
9106.00   0.17001911
9108.00   0.17178650
9110.00   0.17646153
9112.00   0.17713603
9114.00   0.17439145
9116.00   0.17014481
9118.00   0.16353603
9120.00   0.15552224
9122.00   0.15708634
9124.00   0.17027214
9126.00   0.17514928
9128.00   0.17804015
9130.00   0.17678635
9132.00   0.16763672
9134.00   0.15597101
9136.00   0.15603065
9138.00   0.16860756
9140.00   0.16729656
9142.00   0.15248360
9144.00   0.14657047
9146.00   0.15305766
9148.00   0.16391300
9150.00   0.17311998
9152.00   0.18644182
9154.00   0.18204363
9156.00   0.15637220
9158.00   0.14212173
9160.00   0.13708103
9162.00   0.13601400
9164.00   0.13677308
9166.00   0.14045370
9168.00   0.14602572
9170.00   0.15837885
9172.00   0.16274495
9174.00   0.15959626
9176.00   0.15643452
9178.00   0.15598430
9180.00   0.15656093
9182.00   0.15852976
9184.00   0.16604592
9186.00   0.16404955
9188.00   0.15206681
9190.00   0.14392056
9192.00   0.14223304
9194.00   0.14382003
9196.00   0.14711656
9198.00   0.15496606
9200.00   0.15651648
9202.00   0.15342978
9204.00   0.15083753
9206.00   0.14531249
9208.00   0.14339170
9210.00   0.15464559
9212.00   0.17710178
9214.00   0.18923499
9216.00   0.19998126
9218.00   0.20347799
9220.00   0.19879499
9222.00   0.19066817
9224.00   0.17940579
9226.00   0.16504864
9228.00   0.16455534
9230.00   0.18155658
9232.00   0.18436344
9234.00   0.17723735
9236.00   0.17074923
9238.00   0.16828512
9240.00   0.16705982
9242.00   0.16481759
9244.00   0.16164581
9246.00   0.16052094
9248.00   0.15894312
9250.00   0.16150399
9252.00   0.17152183
9254.00   0.18274805
9256.00   0.18603641
9258.00   0.18503559
9260.00   0.18056025
9262.00   0.16511412
9264.00   0.16076869
9266.00   0.17232840
9268.00   0.18339895
9270.00   0.17897582
9272.00   0.16480723
9274.00   0.16198248
9276.00   0.16316691
9278.00   0.16914724
9280.00   0.18643074
9282.00   0.19817322
9284.00   0.19048454
9286.00   0.17381842
9288.00   0.18506928
9290.00   0.23041946
9292.00   0.24429271
9294.00   0.22834341
9296.00   0.22995751
9298.00   0.26977816
9300.00   0.32120624
9302.00   0.33951035
9304.00   0.34176478
9306.00   0.32944766
9308.00   0.29476416
9310.00   0.25929755
9312.00   0.22206244
9314.00   0.18322739
9316.00   0.14221275
9318.00   0.09208385
9320.00   0.08736847
9322.00   0.13338453
9324.00   0.15846111
9326.00   0.16989319
9328.00   0.17608903
9330.00   0.17451350
9332.00   0.16569041
9334.00   0.19212562
9336.00   0.28578225
9338.00   0.29393315
9340.00   0.21164338
9342.00   0.14803472
9344.00   0.14904767
9346.00   0.17900625
9348.00   0.19238313
9350.00   0.21888195
9352.00   0.21144310
9354.00   0.16723549
9356.00   0.13399307
9358.00   0.11706850
9360.00   0.10999496
9362.00   0.11729361
9364.00   0.15048844
9366.00   0.13984671
9368.00   0.08967759
9370.00   0.05290439
9372.00   0.02299315
9374.00   0.00421877
9376.00   0.00448770
9378.00   0.01883610
9380.00   0.06218473
9382.00   0.16291215
9384.00   0.21511348
9386.00   0.23157941
9388.00   0.22980992
9390.00   0.20934120
9392.00   0.17198154
9394.00   0.16709390
9396.00   0.19613467
9398.00   0.19605501
9400.00   0.17391929
9402.00   0.15674849
9404.00   0.15242338
9406.00   0.15391855
9408.00   0.15593413
9410.00   0.16096796
9412.00   0.16706254
9414.00   0.17887217
9416.00   0.18463811
9418.00   0.17786337
9420.00   0.17156523
9422.00   0.18423423
9424.00   0.21189868
9426.00   0.23001546
9428.00   0.25065216
9430.00   0.26088059
9432.00   0.27479428
9434.00   0.26381329
9436.00   0.18813939
9438.00   0.06027362
9440.00   0.02605066
9442.00   0.04764426
9444.00   0.08733065
9446.00   0.18686701
9448.00   0.26073283
9450.00   0.26076055
9452.00   0.22200714
9454.00   0.21206596
9456.00   0.21107261
9458.00   0.20302080
9460.00   0.18986057
9462.00   0.17932132
9464.00   0.16188322
9466.00   0.15451679
9468.00   0.20322117
9470.00   0.32294723
9472.00   0.35775629
9474.00   0.35191512
9476.00   0.31765363
9478.00   0.22753929
9480.00   0.13763361
9482.00   0.12156633
9484.00   0.15691134
9486.00   0.15699439
9488.00   0.14310002
9490.00   0.13742839
9492.00   0.13898990
9494.00   0.14131458
9496.00   0.14037707
9498.00   0.13828349
9500.00   0.14040603
9502.00   0.14828774
9504.00   0.15067068
9506.00   0.14733499
9508.00   0.14639671
9510.00   0.14845990
9512.00   0.15430076
9514.00   0.17370147
9516.00   0.21816523
9518.00   0.22997804
9520.00   0.20692873
9522.00   0.20489980
9524.00   0.24513090
9526.00   0.28986716
9528.00   0.28410879
9530.00   0.23680513
9532.00   0.22446586
9534.00   0.22552225
9536.00   0.23195812
9538.00   0.25508168
9540.00   0.27155894
9542.00   0.25434130
9544.00   0.21238823
9546.00   0.19507076
9548.00   0.19501173
9550.00   0.18296152
9552.00   0.15347712
9554.00   0.13490781
9556.00   0.14261326
9558.00   0.16718230
9560.00   0.19628230
9562.00   0.26732385
9564.00   0.26931801
9566.00   0.20255625
9568.00   0.15163599
9570.00   0.13452722
9572.00   0.13623385
9574.00   0.16040188
9576.00   0.22365199
9578.00   0.24832308
9580.00   0.25709492
9582.00   0.25329855
9584.00   0.23032041
9586.00   0.20127423
9588.00   0.18151896
9590.00   0.15861183
9592.00   0.17422019
9594.00   0.24765040
9596.00   0.27734163
9598.00   0.26333275
9600.00   0.23944102
9602.00   0.22482191
9604.00   0.20975678
9606.00   0.20030457
9608.00   0.20364510
9610.00   0.18957543
9612.00   0.15057412
9614.00   0.12448167
9616.00   0.12988190
9618.00   0.15227209
9620.00   0.16665974
9622.00   0.18472072
9624.00   0.19751278
9626.00   0.21657623
9628.00   0.21698605
9630.00   0.18327488
9632.00   0.14052087
9634.00   0.13193984
9636.00   0.14466222
9638.00   0.15646663
9640.00   0.18639092
9642.00   0.19824050
9644.00   0.18733929
9646.00   0.16969158
9648.00   0.15755624
9650.00   0.14412458
9652.00   0.14217956
9654.00   0.15112378
9656.00   0.15950575
9658.00   0.17373416
9660.00   0.18317813
9662.00   0.17746350
9664.00   0.16273439
9666.00   0.16645323
9668.00   0.18084894
9670.00   0.19971281
9672.00   0.24045311
9674.00   0.26080936
9676.00   0.23938043
9678.00   0.19895124
9680.00   0.18408041
9682.00   0.17773274
9684.00   0.18061967
9686.00   0.19854328
9688.00   0.21416540
9690.00   0.23158972
9692.00   0.24298239
9694.00   0.23073348
9696.00   0.19684300
9698.00   0.17390583
9700.00   0.14607692
9702.00   0.13003533
9704.00   0.12032732
9706.00   0.12484893
9708.00   0.15754513
9710.00   0.21508776
9712.00   0.23898247
9714.00   0.24747230
9716.00   0.24537648
9718.00   0.22640437
9720.00   0.20391159
9722.00   0.18222535
9724.00   0.15948343
9726.00   0.14573866
9728.00   0.12372715
9730.00   0.13962708
9732.00   0.20659344
9734.00   0.25102547
9736.00   0.25552791
9738.00   0.23901689
9740.00   0.21452565
9742.00   0.16779843
9744.00   0.14049901
9746.00   0.12042954
9748.00   0.10559990
9750.00   0.09293772
9752.00   0.08900018
9754.00   0.10393286
9756.00   0.13729063
9758.00   0.15733954
9760.00   0.18000637
9762.00   0.18780886
9764.00   0.17504388
9766.00   0.16183788
9768.00   0.16258542
9770.00   0.17003541
9772.00   0.17154032
9774.00   0.16618219
9776.00   0.17134692
9778.00   0.19020766
9780.00   0.20319152
9782.00   0.19799478
9784.00   0.18656674
9786.00   0.19971584
9788.00   0.25720227
9790.00   0.24320063
9792.00   0.16484924
9794.00   0.10039331
9796.00   0.04510594
9798.00   0.01172360
9800.00   0.05231082
9802.00   0.17790316
9804.00   0.21536112
9806.00   0.20461410
9808.00   0.18977794
9810.00   0.16226852
9812.00   0.13192475
9814.00   0.11138561
9816.00   0.09411822
9818.00   0.08860000
9820.00   0.09123349
9822.00   0.10449467
9824.00   0.13736472
9826.00   0.16636957
9828.00   0.17841665
9830.00   0.18104640
9832.00   0.17990491
9834.00   0.16773078
9836.00   0.16213499
9838.00   0.15417729
9840.00   0.15495035
9842.00   0.17532368
9844.00   0.20066966
9846.00   0.19519694
9848.00   0.16458824
9850.00   0.14239764
9852.00   0.10041665
9854.00   0.09088966
9856.00   0.13195784
9858.00   0.18556158
9860.00   0.20767470
9862.00   0.21909772
9864.00   0.20555501
9866.00   0.14657561
9868.00   0.11947220
9870.00   0.12471776
9872.00   0.13726644
9874.00   0.14336966
9876.00   0.15026690
9878.00   0.14532360
9880.00   0.12275566
9882.00   0.11533965
9884.00   0.11934985
9886.00   0.12526047
9888.00   0.13194330
9890.00   0.13893943
9892.00   0.13337779
9894.00   0.11009402
9896.00   0.10346010
9898.00   0.10701528
9900.00   0.11035135
9902.00   0.11379290
9904.00   0.11570551
9906.00   0.10681494
9908.00   0.07882931
9910.00   0.08958571
9912.00   0.14912435
9914.00   0.17393361
9916.00   0.15459841
9918.00   0.12284847
9920.00   0.10294906
9922.00   0.08149140
9924.00   0.08218402
9926.00   0.10877066
9928.00   0.12495210
9930.00   0.13741352
9932.00   0.14504495
9934.00   0.14102036
9936.00   0.12926207
9938.00   0.14604346
9940.00   0.20026912
9942.00   0.22055043
9944.00   0.21131797
9946.00   0.20969385
9948.00   0.23196658
9950.00   0.26264715
9952.00   0.27615178
9954.00   0.29959753
9956.00   0.26511768
9958.00   0.14917314
9960.00   0.07789493
9962.00   0.07373413
9964.00   0.09656113
9966.00   0.11026287
9968.00   0.13444652
9970.00   0.14181764
9972.00   0.13103239
9974.00   0.13256598
9976.00   0.15319853
9978.00   0.17024499
9980.00   0.16537307
9982.00   0.14702748
9984.00   0.11807877
9986.00   0.04657147
9988.00   0.03204493
9990.00   0.07462692
9992.00   0.12225534
9994.00   0.15339220
9996.00   0.18007398
9998.00   0.19424680
10000.00   0.18530117
10002.00   0.19873679
10004.00   0.22886904
10006.00   0.25557065
10008.00   0.27710509
10010.00   0.29331145
10012.00   0.29341069
10014.00   0.27136090
10016.00   0.27218807
10018.00   0.30644533
10020.00   0.30248779
10022.00   0.24608931
10024.00   0.17185746
10026.00   0.10824823
10028.00   0.03181175
10030.00   0.02553710
10032.00   0.10093971
10034.00   0.13857870
10036.00   0.14516373
10038.00   0.14675063
10040.00   0.15696171
10042.00   0.16903171
10044.00   0.17822097
10046.00   0.19876316
10048.00   0.18939699
10050.00   0.13836978
10052.00   0.10203908
10054.00   0.10905608
10056.00   0.13553791
10058.00   0.13457264
10060.00   0.09177277
10062.00   0.12196944
10064.00   0.24309084
10066.00   0.30793083
10068.00   0.27546868
10070.00   0.20835821
10072.00   0.18268484
10074.00   0.16346802
10076.00   0.17309411
10078.00   0.23016928
10080.00   0.25770658
10082.00   0.25727385
10084.00   0.23939259
10086.00   0.19974385
10088.00   0.13205634
10090.00   0.12407494
10092.00   0.17647989
10094.00   0.19492853
10096.00   0.19388002
10098.00   0.18077098
10100.00   0.14760649
10102.00   0.10059588
10104.00   0.10551484
10106.00   0.18757915
10108.00   0.18541698
10110.00   0.10686024
10112.00   0.04764067
10114.00   0.02760742
10116.00   0.03458682
10118.00   0.09297536
10120.00   0.24675155
10122.00   0.27972829
10124.00   0.22785611
10126.00   0.17730340
10128.00   0.12506852
10130.00   0.07541056
10132.00   0.04921950
10134.00   0.03240008
10136.00   0.05867241
10138.00   0.14498451
10140.00   0.20617753
10142.00   0.25859791
10144.00   0.28916398
10146.00   0.27459759
10148.00   0.22273672
10150.00   0.20179044
10152.00   0.17740385
10154.00   0.18599567
10156.00   0.24785689
10158.00   0.29078007
10160.00   0.27599511
10162.00   0.23087902
10164.00   0.20417739
10166.00   0.17774662
10168.00   0.15327059
10170.00   0.13224751
10172.00   0.10914469
10174.00   0.08197574
10176.00   0.05340138
10178.00   0.02338779
10180.00   -0.03219907
10182.00   -0.00082709
10184.00   0.15068969
10186.00   0.22072940
10188.00   0.17415130
10190.00   0.10809943
10192.00   0.11754122
10194.00   0.16860719
10196.00   0.19490096
10198.00   0.20636824
10200.00   0.23982286
10202.00   0.32702756
10204.00   0.37743747
10206.00   0.31693912
10208.00   0.18366946
10210.00   0.10771886
10212.00   0.03743221
10214.00   -0.00568536
10216.00   -0.04628275
10218.00   -0.03347801
10220.00   0.07521904
10222.00   0.23366217
10224.00   0.31344941
10226.00   0.35392603
10228.00   0.38734183
10230.00   0.43872768
10232.00   0.40918079
10234.00   0.24285357
10236.00   0.03930457
10238.00   -0.05386455
10240.00   -0.10107644
10242.00   -0.07980725
10244.00   0.07732353
10246.00   0.14458932
10248.00   0.09880466
10250.00   0.04129068
10252.00   0.05775500
10254.00   0.11525162
10256.00   0.12468158
10258.00   0.10503767
10260.00   0.09072251
10262.00   0.05852255
10264.00   0.04932785
10266.00   0.10079467
10268.00   0.18657042
10270.00   0.20198944
10272.00   0.10330894
10274.00   0.16253681
10276.00   0.40809003
10278.00   0.55516756
10280.00   0.49910453
10282.00   0.35695234
10284.00   0.30227962
10286.00   0.28872696
10288.00   0.22885799
10290.00   0.08521716
10292.00   0.04536558
10294.00   0.16807675
10296.00   0.32505181
10298.00   0.36152393
10300.00   0.32224911
10302.00   0.35608739
10304.00   0.45051929
10306.00   0.49570844
10308.00   0.50184512
10310.00   0.48102385
10312.00   0.42532027
10314.00   0.33554301
10316.00   0.30909100
10318.00   0.37246603
10320.00   0.33078870
10322.00   0.13130453
10324.00   0.02740132
10326.00   0.17895374
10328.00   0.44947448
10330.00   0.48633268
10332.00   0.32504880
10334.00   0.29710504
10336.00   0.33754045
10338.00   0.35219899
10340.00   0.31967211
10342.00   0.26878217
10344.00   0.22129287
10346.00   0.13633205
10348.00   0.17348081
10350.00   0.37531084
10352.00   0.46567574
10354.00   0.41427222
10356.00   0.32937592
10358.00   0.30281019
10360.00   0.29792410
10362.00   0.27051479
10364.00   0.18172081
10366.00   0.20030800
10368.00   0.38943729
10370.00   0.52233744
10372.00   0.43577248
10374.00   0.22137012
10376.00   0.12929626
10378.00   0.07461889
10380.00   0.04833962
10382.00   0.03747168
10384.00   0.08305456
10386.00   0.24714255
10388.00   0.44934165
10390.00   0.45118156
10392.00   0.25785497
10394.00   0.20426439
10396.00   0.20062739
10398.00   0.21349594
10400.00   0.26687607
10402.00   0.31474912
10404.00   0.26569951
10406.00   0.12356193
10408.00   0.09357048
10410.00   0.11015315
10412.00   0.17397001
10414.00   0.36192456
10416.00   0.49983817
10418.00   0.39102820
10420.00   0.10200106
10422.00   0.08256184
10424.00   0.29382169
10426.00   0.37291485
10428.00   0.38958517
10430.00   0.36173517
10432.00   0.26579517
10434.00   0.12609790
10436.00   0.09679749
10438.00   0.13268583
10440.00   0.19908863
10442.00   0.35182652
10444.00   0.46487835
10446.00   0.51836699
10448.00   0.52747422
10450.00   0.46672067
10452.00   0.28545347
10454.00   0.25659701
10456.00   0.38184360
10458.00   0.40806580
10460.00   0.27494624
10462.00   0.13057412
10464.00   0.14150013
10466.00   0.26431346
10468.00   0.27269685
10470.00   0.20979033
10472.00   0.17055163
10474.00   0.11379033
10476.00   0.10239926
10478.00   0.21426907
10480.00   0.41305453
10482.00   0.45176914
10484.00   0.36912158
10486.00   0.31776384
10488.00   0.23687428
10490.00   0.18841672
10492.00   0.21598668
10494.00   0.27751496
10496.00   0.26279363
10498.00   0.15338884
10500.00   0.16764513
10502.00   0.31743175
10504.00   0.38405448
10506.00   0.30205074
10508.00   0.17728578
10510.00   0.14547025
10512.00   0.15362522
10514.00   0.19106677
10516.00   0.32512924
10518.00   0.36294645
10520.00   0.25933823
10522.00   0.15126270
10524.00   0.17477737
10526.00   0.28409362
10528.00   0.28858283
10530.00   0.19393882
10532.00   0.18363707
10534.00   0.28679222
10536.00   0.34470874
10538.00   0.23043132
10540.00   0.02561016
10542.00   0.04126157
10544.00   0.29009116
10546.00   0.36157143
10548.00   0.31195319
10550.00   0.29269537
10552.00   0.36806375
10554.00   0.46689746
10556.00   0.46484840
10558.00   0.38017142
10560.00   0.33409169
10562.00   0.27770761
10564.00   0.24565852
10566.00   0.25283921
10568.00   0.26872599
10570.00   0.25547621
10572.00   0.22909406
10574.00   0.18951844
10576.00   0.08242805
10578.00   0.07522618
10580.00   0.22150978
10582.00   0.34703204
10584.00   0.29694939
10586.00   0.13652278
10588.00   0.10738621
10590.00   0.14040767
10592.00   0.19338664
10594.00   0.30682707
10596.00   0.40101576
10598.00   0.45301214
10600.00   0.47200638
10602.00   0.40002137
10604.00   0.14959309
10606.00   0.09676500
10608.00   0.20097925
10610.00   0.26508343
10612.00   0.23844974
10614.00   0.18593539
10616.00   0.17850803
10618.00   0.19454816
10620.00   0.20314763
10622.00   0.22520861
10624.00   0.22714736
10626.00   0.18755734
10628.00   0.15611476
10630.00   0.19560142
10632.00   0.29223341
10634.00   0.32133913
10636.00   0.30139956
10638.00   0.30280486
10640.00   0.32259256
10642.00   0.33920482
10644.00   0.33879462
10646.00   0.32875225
10648.00   0.33025208
10650.00   0.33239383
10652.00   0.34683383
10654.00   0.39785230
10656.00   0.41307473
10658.00   0.34244218
10660.00   0.24012055
10662.00   0.24400471
10664.00   0.35980824
10666.00   0.36686775
10668.00   0.30376676
10670.00   0.25044540
10672.00   0.20028156
10674.00   0.16764386
10676.00   0.20383373
10678.00   0.31666273
10680.00   0.34055230
10682.00   0.31336904
10684.00   0.27956381
10686.00   0.21242443
10688.00   0.16111010
10690.00   0.17983906
10692.00   0.24761137
10694.00   0.30136469
10696.00   0.41541606
10698.00   0.41918236
10700.00   0.29315799
10702.00   0.17375652
10704.00   0.12093118
10706.00   0.10100909
10708.00   0.13027687
10710.00   0.24509868
10712.00   0.30341145
10714.00   0.35492799
10716.00   0.37412056
10718.00   0.34377506
10720.00   0.28723446
10722.00   0.25104272
10724.00   0.20945723
10726.00   0.19613186
10728.00   0.21213445
10730.00   0.22403355
10732.00   0.22843730
10734.00   0.23461388
10736.00   0.24852102
10738.00   0.26527241
10740.00   0.30178890
10742.00   0.39249423
10744.00   0.41348314
10746.00   0.35532054
10748.00   0.28268313
10750.00   0.23459065
10752.00   0.19112894
10754.00   0.16646416
10756.00   0.18484084
10758.00   0.15111290
10760.00   0.03690293
10762.00   -0.02535968
10764.00   0.04997216
10766.00   0.18573914
10768.00   0.17877138
10770.00   0.01016606
10772.00   0.01689013
10774.00   0.16266166
10776.00   0.26682544
10778.00   0.29888156
10780.00   0.29884487
10782.00   0.28783450
10784.00   0.24595520
10786.00   0.23135222
10788.00   0.23804352
10790.00   0.22935472
10792.00   0.19049734
10794.00   0.15978926
10796.00   0.17967224
10798.00   0.23761278
10800.00   0.26457012
10802.00   0.30983678
10804.00   0.28952342
10806.00   0.16905998
10808.00   0.07083610
10810.00   0.07126702
10812.00   0.12718780
10814.00   0.17197733
10816.00   0.27265665
10818.00   0.28407696
10820.00   0.20227858
10822.00   0.14196077
10824.00   0.13207301
10826.00   0.15130015
10828.00   0.20906000
10830.00   0.36052030
10832.00   0.36928365
10834.00   0.24986772
10836.00   0.16765216
10838.00   0.13639523
10840.00   0.12751347
10842.00   0.13585649
10844.00   0.17938852
10846.00   0.15967444
10848.00   0.04094435
10850.00   0.02926851
