# File created by shivutils (I.Shivvers)
# 
# wl(A)   flm    er(optional)
3440.00   0.31948557   0.04780925
3442.00   0.28568667   0.04621564
3444.00   0.32346523   0.04648487
3446.00   0.30908155   0.04732939
3448.00   0.36854869   0.04736266
3450.00   0.31925106   0.04982717
3452.00   0.36457276   0.05118494
3454.00   0.32820284   0.05088786
3456.00   0.41839203   0.05211965
3458.00   0.23098303   0.04850805
3460.00   0.33135828   0.05000944
3462.00   0.41662961   0.05036533
3464.00   0.35732892   0.04921710
3466.00   0.35201490   0.04889766
3468.00   0.29078433   0.04746354
3470.00   0.26831612   0.04701775
3472.00   0.44655967   0.05025810
3474.00   0.42101300   0.04919767
3476.00   0.35373315   0.04835469
3478.00   0.40071204   0.05029534
3480.00   0.26750794   0.05214374
3482.00   0.28145888   0.05300906
3484.00   0.25735173   0.05194196
3486.00   0.39126772   0.05212163
3488.00   0.34955749   0.05135496
3490.00   0.27233905   0.05213606
3492.00   0.36944777   0.05075077
3494.00   0.33779705   0.04843371
3496.00   0.30913353   0.04748080
3498.00   0.36459830   0.04805305
3500.00   0.34235543   0.04778178
3502.00   0.39714572   0.04751199
3504.00   0.27511996   0.04557003
3506.00   0.37133437   0.04665989
3508.00   0.24222486   0.04485446
3510.00   0.30996245   0.04686677
3512.00   0.22427943   0.04519281
3514.00   0.33071244   0.04650797
3516.00   0.33064499   0.04675485
3518.00   0.41782156   0.04766269
3520.00   0.28435284   0.04434613
3522.00   0.33870947   0.04553317
3524.00   0.38712844   0.04634074
3526.00   0.31883323   0.04496161
3528.00   0.33874005   0.04499790
3530.00   0.38890231   0.04548357
3532.00   0.38938430   0.04502308
3534.00   0.30415034   0.04395502
3536.00   0.14488326   0.04174054
3538.00   0.38615724   0.04558530
3540.00   0.49471465   0.04763745
3542.00   0.34779608   0.04691186
3544.00   0.31802446   0.04935364
3546.00   0.36912090   0.04891204
3548.00   0.33808285   0.04773389
3550.00   0.36700657   0.04696189
3552.00   0.35340741   0.04675756
3554.00   0.40959203   0.04802625
3556.00   0.26432875   0.04599369
3558.00   0.24733691   0.04559208
3560.00   0.36874509   0.04598833
3562.00   0.32281590   0.04523176
3564.00   0.25325254   0.04204138
3566.00   0.40149581   0.04319219
3568.00   0.36219373   0.04278927
3570.00   0.37510076   0.04263883
3572.00   0.33326319   0.04217702
3574.00   0.33613393   0.04229177
3576.00   0.36697668   0.04236892
3578.00   0.38208467   0.04143757
3580.00   0.38410160   0.04075129
3582.00   0.33172077   0.03968984
3584.00   0.32577673   0.03882021
3586.00   0.39140156   0.03855215
3588.00   0.32109582   0.03761265
3590.00   0.34849486   0.03903708
3592.00   0.29017267   0.03953457
3594.00   0.43433666   0.03864647
3596.00   0.34739774   0.03712616
3598.00   0.28761765   0.03615257
3600.00   0.29679853   0.03629794
3602.00   0.38968343   0.03671874
3604.00   0.33489701   0.03623442
3606.00   0.35266653   0.03582581
3608.00   0.37388846   0.03536131
3610.00   0.40484130   0.03597309
3612.00   0.36659774   0.03654154
3614.00   0.38726559   0.03783398
3616.00   0.38682222   0.03760558
3618.00   0.37717766   0.03772185
3620.00   0.40556708   0.03709291
3622.00   0.35503250   0.03593208
3624.00   0.33901107   0.03536195
3626.00   0.34957942   0.03539737
3628.00   0.30305800   0.03506915
3630.00   0.35154474   0.03687204
3632.00   0.35350832   0.03763559
3634.00   0.39869416   0.03695755
3636.00   0.35683531   0.03642610
3638.00   0.34212402   0.03614099
3640.00   0.43710959   0.03710967
3642.00   0.36550575   0.03768196
3644.00   0.43026024   0.03899895
3646.00   0.38538796   0.03841870
3648.00   0.35979274   0.04591760
3650.00   0.42684004   0.05498426
3652.00   0.32098028   0.05259654
3654.00   0.39801288   0.04809493
3656.00   0.39447767   0.04442732
3658.00   0.42606887   0.03928211
3660.00   0.43031669   0.03762994
3662.00   0.44037443   0.04158108
3664.00   0.37285239   0.04132014
3666.00   0.38394684   0.03660415
3668.00   0.38220254   0.03287903
3670.00   0.40223500   0.03243571
3672.00   0.39007089   0.03186738
3674.00   0.42035070   0.03134828
3676.00   0.44220540   0.03129110
3678.00   0.39231220   0.03052623
3680.00   0.34261855   0.02934921
3682.00   0.36019960   0.02972475
3684.00   0.42877221   0.03021465
3686.00   0.33570525   0.02872868
3688.00   0.38202286   0.02907581
3690.00   0.39533684   0.03018693
3692.00   0.37653702   0.03025892
3694.00   0.39918262   0.03020303
3696.00   0.37599409   0.02922364
3698.00   0.37647331   0.02974446
3700.00   0.42282718   0.03070087
3702.00   0.37790430   0.02989971
3704.00   0.39504564   0.03030916
3706.00   0.37791359   0.02953453
3708.00   0.43201080   0.03008036
3710.00   0.43656695   0.02969278
3712.00   0.40113300   0.02940226
3714.00   0.40376067   0.02906748
3716.00   0.37279636   0.02825700
3718.00   0.38202816   0.02812476
3720.00   0.39673996   0.02807228
3722.00   0.47884586   0.02891309
3724.00   0.43308517   0.02835627
3726.00   0.39350814   0.02781124
3728.00   0.37550047   0.02818142
3730.00   0.46961930   0.02900587
3732.00   0.41313979   0.02869051
3734.00   0.40564784   0.02865285
3736.00   0.36837423   0.02844568
3738.00   0.38660079   0.02877314
3740.00   0.39574534   0.02932497
3742.00   0.38284776   0.02911540
3744.00   0.42619586   0.02893931
3746.00   0.41013402   0.02815721
3748.00   0.34673619   0.02693654
3750.00   0.41383758   0.02794750
3752.00   0.37970594   0.02710398
3754.00   0.43994534   0.02780448
3756.00   0.44123065   0.02785765
3758.00   0.42680302   0.02754108
3760.00   0.45142752   0.02762645
3762.00   0.42067921   0.02647541
3764.00   0.43854961   0.02665377
3766.00   0.46602401   0.02673302
3768.00   0.42231819   0.02610436
3770.00   0.43359858   0.02653974
3772.00   0.38076887   0.02584047
3774.00   0.38914692   0.02566892
3776.00   0.44628572   0.02623537
3778.00   0.38530639   0.02558018
3780.00   0.40368038   0.02547180
3782.00   0.38104033   0.02530280
3784.00   0.42752525   0.02566637
3786.00   0.41734299   0.02549143
3788.00   0.39275473   0.02481152
3790.00   0.44532907   0.02608189
3792.00   0.45520934   0.02611966
3794.00   0.41260758   0.02541719
3796.00   0.38650471   0.02472756
3798.00   0.41697186   0.02454000
3800.00   0.48175937   0.02551298
3802.00   0.43732876   0.02526186
3804.00   0.46701840   0.02568019
3806.00   0.47970688   0.02552488
3808.00   0.42138383   0.02451488
3810.00   0.47808072   0.02485222
3812.00   0.44621071   0.02496598
3814.00   0.45771688   0.02519835
3816.00   0.46370530   0.02510549
3818.00   0.52038801   0.02565650
3820.00   0.51207662   0.02583503
3822.00   0.46891594   0.02504683
3824.00   0.55279994   0.02589102
3826.00   0.47837043   0.02509986
3828.00   0.52073491   0.02645655
3830.00   0.47666284   0.02653452
3832.00   0.53808421   0.02723288
3834.00   0.54997957   0.02674363
3836.00   0.54117328   0.02624054
3838.00   0.58555830   0.02654627
3840.00   0.53961670   0.02594610
3842.00   0.57436103   0.02615254
3844.00   0.53433293   0.02570005
3846.00   0.59221035   0.02595092
3848.00   0.52637494   0.02507917
3850.00   0.53144509   0.02488022
3852.00   0.56023502   0.02519891
3854.00   0.54218394   0.02488616
3856.00   0.57361841   0.02483636
3858.00   0.54081756   0.02430040
3860.00   0.58127952   0.02486977
3862.00   0.57124752   0.02468737
3864.00   0.52880031   0.02452894
3866.00   0.55790395   0.02458978
3868.00   0.54494274   0.02432883
3870.00   0.55999368   0.02410137
3872.00   0.49463186   0.02367352
3874.00   0.53002787   0.02461579
3876.00   0.49862218   0.02421024
3878.00   0.51095420   0.02390176
3880.00   0.54465193   0.02366010
3882.00   0.55990976   0.02378536
3884.00   0.54521137   0.02366056
3886.00   0.51651800   0.02360728
3888.00   0.51169425   0.02346221
3890.00   0.51814950   0.02361319
3892.00   0.73881328   0.02619104
3894.00   1.40616035   0.03506673
3896.00   1.86487615   0.04198096
3898.00   1.36060333   0.03846955
3900.00   0.80821735   0.02949401
3902.00   0.55951709   0.02415935
3904.00   0.48542267   0.02422799
3906.00   0.53239703   0.02678356
3908.00   0.49208033   0.02786011
3910.00   0.52160722   0.02842092
3912.00   0.45369190   0.02774546
3914.00   0.52456510   0.02735609
3916.00   0.46798810   0.02511873
3918.00   0.45314714   0.02406240
3920.00   0.42788345   0.02321269
3922.00   0.42725357   0.02266084
3924.00   0.44606853   0.02294636
3926.00   0.44196939   0.02246379
3928.00   0.46124625   0.02259878
3930.00   0.47539771   0.02285337
3932.00   0.44414306   0.02337921
3934.00   0.42540383   0.02314274
3936.00   0.43948749   0.02238295
3938.00   0.41064522   0.02170947
3940.00   0.43058354   0.02214466
3942.00   0.41076201   0.02289406
3944.00   0.40929976   0.02343065
3946.00   0.44322672   0.02352921
3948.00   0.39349490   0.02214441
3950.00   0.47117269   0.02284689
3952.00   0.50118262   0.02296464
3954.00   0.51283127   0.02283360
3956.00   0.47772235   0.02213819
3958.00   0.42278627   0.02186514
3960.00   0.48390698   0.02341817
3962.00   0.46364892   0.02348810
3964.00   0.36511755   0.02122486
3966.00   0.37586462   0.02130240
3968.00   0.36841938   0.02123662
3970.00   0.38554579   0.02053105
3972.00   0.37901416   0.02081044
3974.00   0.41427821   0.02140340
3976.00   0.46013322   0.02171740
3978.00   0.47222450   0.02182203
3980.00   0.51614469   0.02245311
3982.00   0.52367145   0.02237891
3984.00   0.47881559   0.02174161
3986.00   0.44193634   0.02127267
3988.00   0.46133703   0.02160635
3990.00   0.53478938   0.02252167
3992.00   0.49250486   0.02177279
3994.00   0.46974978   0.02186451
3996.00   0.53893894   0.02352180
3998.00   0.45467737   0.02289808
4000.00   0.46423420   0.02191902
4002.00   0.45101938   0.02153037
4004.00   0.38136601   0.02034570
4006.00   0.45251790   0.02119867
4008.00   0.43444365   0.02190052
4010.00   0.48078400   0.02232855
4012.00   0.45999476   0.02210986
4014.00   0.49867359   0.02226675
4016.00   0.50045508   0.02207992
4018.00   0.59906030   0.02470964
4020.00   0.58232898   0.02640954
4022.00   0.61434811   0.02777978
4024.00   0.61228603   0.02703866
4026.00   0.59379303   0.02564898
4028.00   0.60440737   0.02447916
4030.00   0.60188133   0.02432155
4032.00   0.60977399   0.02396477
4034.00   0.64063364   0.02377708
4036.00   0.62540078   0.02364838
4038.00   0.60255581   0.02320702
4040.00   0.63460660   0.02345339
4042.00   0.66817945   0.02436002
4044.00   0.64644867   0.03277345
4046.00   0.63732570   0.04284229
4048.00   0.62829626   0.04071759
4050.00   0.69380510   0.02937520
4052.00   0.62817729   0.02474892
4054.00   0.62239099   0.02475249
4056.00   0.58395118   0.02404852
4058.00   0.61923367   0.02326304
4060.00   0.60437018   0.02262492
4062.00   0.61657423   0.02256428
4064.00   0.65090710   0.02300381
4066.00   0.62929147   0.02279084
4068.00   0.59765148   0.02220632
4070.00   0.61736369   0.02212938
4072.00   0.65561348   0.02230783
4074.00   0.67475474   0.02268299
4076.00   0.60306984   0.02450708
4078.00   0.70335543   0.02630965
4080.00   0.62405246   0.02473186
4082.00   0.66206187   0.02397374
4084.00   0.68200958   0.02407972
4086.00   0.68519068   0.02362206
4088.00   0.65682715   0.02289444
4090.00   0.66374999   0.02189145
4092.00   0.69997281   0.02189539
4094.00   0.70116335   0.02199090
4096.00   0.68884474   0.02183780
4098.00   0.73277605   0.02215138
4100.00   0.72070533   0.02192211
4102.00   0.74877620   0.02192128
4104.00   0.68427378   0.02095502
4106.00   0.66519731   0.02101394
4108.00   0.63919276   0.02076428
4110.00   0.58270365   0.02011647
4112.00   0.59204912   0.02001355
4114.00   0.62485361   0.02048781
4116.00   0.74493128   0.02149767
4118.00   0.74505919   0.02137971
4120.00   0.71750158   0.02146391
4122.00   0.74168408   0.02133447
4124.00   0.76113158   0.02151468
4126.00   0.73993474   0.02152404
4128.00   0.71091026   0.02137625
4130.00   0.74877965   0.02174823
4132.00   0.73476362   0.02231880
4134.00   0.72439086   0.02216056
4136.00   0.70199460   0.02154491
4138.00   0.65109688   0.02116940
4140.00   0.64859164   0.02143963
4142.00   0.64855450   0.02093394
4144.00   0.60540247   0.01985727
4146.00   0.59715158   0.01981058
4148.00   0.60666811   0.01967958
4150.00   0.65738952   0.02072982
4152.00   0.59071225   0.02099002
4154.00   0.61102408   0.02103980
4156.00   0.62856799   0.02033704
4158.00   0.65537995   0.02053696
4160.00   0.61547226   0.02032592
4162.00   0.60660625   0.02076825
4164.00   0.68673587   0.02245865
4166.00   0.64546126   0.02223945
4168.00   0.66543704   0.02123360
4170.00   0.64726925   0.02063817
4172.00   0.66342103   0.02053245
4174.00   0.69806504   0.02050072
4176.00   0.66953367   0.02044557
4178.00   0.65660876   0.02034652
4180.00   0.63566464   0.02007126
4182.00   0.68151969   0.02011632
4184.00   0.64572763   0.01968727
4186.00   0.63996738   0.01947954
4188.00   0.66747224   0.01996188
4190.00   0.64039361   0.01961026
4192.00   0.64596450   0.01980324
4194.00   0.67651200   0.01988968
4196.00   0.64397985   0.01943491
4198.00   0.66447443   0.01952437
4200.00   0.62575662   0.01920746
4202.00   0.65231931   0.01943268
4204.00   0.62399995   0.01915663
4206.00   0.61526322   0.01930279
4208.00   0.63889039   0.01968241
4210.00   0.64638788   0.01989658
4212.00   0.62941146   0.01971976
4214.00   0.63691550   0.01958067
4216.00   0.65980536   0.01971918
4218.00   0.64233232   0.01951166
4220.00   0.67898899   0.01971811
4222.00   0.66986662   0.01961555
4224.00   0.65643644   0.01938188
4226.00   0.65283626   0.01944738
4228.00   0.65030038   0.01914736
4230.00   0.65416539   0.01953530
4232.00   0.66167074   0.01981544
4234.00   0.66957331   0.01979931
4236.00   0.70106816   0.02028391
4238.00   0.65066302   0.02006797
4240.00   0.64544100   0.01967424
4242.00   0.65408820   0.01919117
4244.00   0.63470846   0.02009406
4246.00   0.63243461   0.02211246
4248.00   0.64803362   0.02207396
4250.00   0.65548581   0.02013354
4252.00   0.64886081   0.01929221
4254.00   0.61615103   0.01903289
4256.00   0.62863779   0.01934077
4258.00   0.60517102   0.01892038
4260.00   0.61044782   0.01873249
4262.00   0.60886657   0.01868173
4264.00   0.62164623   0.01868301
4266.00   0.59751129   0.01843535
4268.00   0.64417553   0.01892736
4270.00   0.57559282   0.01850504
4272.00   0.58914196   0.01855027
4274.00   0.59865117   0.01863153
4276.00   0.58739400   0.01862141
4278.00   0.57300305   0.01849797
4280.00   0.55708766   0.01820102
4282.00   0.52836829   0.01813737
4284.00   0.54606861   0.01814022
4286.00   0.62003505   0.01863955
4288.00   0.60471475   0.01829001
4290.00   0.54884410   0.01781157
4292.00   0.53914988   0.01784382
4294.00   0.52726167   0.01786593
4296.00   0.52355832   0.01783672
4298.00   0.57748210   0.01809848
4300.00   0.59573054   0.01814401
4302.00   0.59890258   0.01819311
4304.00   0.58355016   0.01815962
4306.00   0.60314226   0.01855443
4308.00   0.61779034   0.01857593
4310.00   0.60683012   0.01866341
4312.00   0.56170034   0.01946397
4314.00   0.58490682   0.02032119
4316.00   0.58126491   0.01955570
4318.00   0.63102943   0.01946373
4320.00   0.65305412   0.02026613
4322.00   0.68818116   0.02047139
4324.00   0.63912833   0.01975382
4326.00   0.61558938   0.01948478
4328.00   0.62203884   0.01867691
4330.00   0.60905862   0.01833745
4332.00   0.66560549   0.01865934
4334.00   0.66283190   0.01870137
4336.00   0.66921371   0.01901859
4338.00   0.66320699   0.01937483
4340.00   0.66025633   0.01941604
4342.00   0.64989978   0.01928825
4344.00   0.66364306   0.01968694
4346.00   0.67999983   0.02067213
4348.00   0.67323995   0.02095312
4350.00   0.66164124   0.02032835
4352.00   0.72313267   0.02019821
4354.00   0.71617246   0.02180231
4356.00   0.83405358   0.03646858
4358.00   0.68819571   0.04516189
4360.00   0.67757946   0.03989431
4362.00   0.58874506   0.02570910
4364.00   0.62958282   0.02104821
4366.00   0.65497589   0.02036332
4368.00   0.64373153   0.02001495
4370.00   0.65149176   0.01988522
4372.00   0.69039840   0.02045935
4374.00   0.70801669   0.02101936
4376.00   0.65874189   0.02025071
4378.00   0.65603483   0.01947323
4380.00   0.65141064   0.01920557
4382.00   0.65692478   0.01913179
4384.00   0.65320694   0.01888328
4386.00   0.65585220   0.01879698
4388.00   0.63922048   0.01866359
4390.00   0.62517661   0.01869805
4392.00   0.64990336   0.01886846
4394.00   0.61118674   0.01845900
4396.00   0.62633669   0.01837829
4398.00   0.62643075   0.01924450
4400.00   0.64527696   0.01973063
4402.00   0.60473675   0.01906916
4404.00   0.64272171   0.01877371
4406.00   0.60833514   0.01843163
4408.00   0.67411262   0.01897709
4410.00   0.69863153   0.01917982
4412.00   0.65898955   0.01894396
4414.00   0.65237558   0.01925401
4416.00   0.65178299   0.01936731
4418.00   0.62319064   0.01876494
4420.00   0.66589624   0.01890068
4422.00   0.67355794   0.01891873
4424.00   0.65383792   0.01864748
4426.00   0.63712502   0.01856220
4428.00   0.61229908   0.01828433
4430.00   0.64661181   0.01854161
4432.00   0.65801334   0.01852431
4434.00   0.64861715   0.01840085
4436.00   0.66460568   0.01841178
4438.00   0.61851913   0.01809384
4440.00   0.60717219   0.01807602
4442.00   0.62797475   0.01807667
4444.00   0.60624099   0.01800410
4446.00   0.62316233   0.01811874
4448.00   0.60471016   0.01787643
4450.00   0.61102557   0.01782984
4452.00   0.63212800   0.01793116
4454.00   0.65703768   0.01811720
4456.00   0.64422631   0.01799660
4458.00   0.64562821   0.01807862
4460.00   0.64608043   0.01802146
4462.00   0.66759568   0.01805924
4464.00   0.61784339   0.01763271
4466.00   0.62538940   0.01777039
4468.00   0.62782210   0.01784580
4470.00   0.68222952   0.01808424
4472.00   0.65680575   0.01788768
4474.00   0.63999313   0.01780803
4476.00   0.62025112   0.01772965
4478.00   0.64450592   0.01786729
4480.00   0.62921363   0.01782077
4482.00   0.65094852   0.01800731
4484.00   0.66423357   0.01810497
4486.00   0.66939306   0.01807185
4488.00   0.69589055   0.01828089
4490.00   0.66981494   0.01810583
4492.00   0.61912686   0.01782719
4494.00   0.63595217   0.01814586
4496.00   0.61889976   0.01787778
4498.00   0.63023990   0.01801761
4500.00   0.62795657   0.01794174
4502.00   0.64413351   0.01785197
4504.00   0.64094067   0.01785265
4506.00   0.61588031   0.01760154
4508.00   0.63262117   0.01767927
4510.00   0.63034397   0.01759194
4512.00   0.62707853   0.01750800
4514.00   0.59281105   0.01724696
4516.00   0.63103783   0.01738619
4518.00   0.59573227   0.01704532
4520.00   0.55972099   0.01696286
4522.00   0.57573634   0.01698092
4524.00   0.58213031   0.01695332
4526.00   0.55862176   0.01671868
4528.00   0.55982620   0.01673880
4530.00   0.52430367   0.01652624
4532.00   0.52438062   0.01649731
4534.00   0.64336908   0.01739191
4536.00   0.72123379   0.01823840
4538.00   0.64493173   0.01808086
4540.00   0.53802782   0.01648283
4542.00   0.50604254   0.01649291
4544.00   0.50867659   0.01670696
4546.00   0.53929460   0.01670068
4548.00   0.50189829   0.01630445
4550.00   0.53874016   0.01624944
4552.00   0.53759092   0.01630383
4554.00   0.52952218   0.01624202
4556.00   0.55274493   0.01658035
4558.00   0.53474545   0.01634717
4560.00   0.56398547   0.01638208
4562.00   0.55173850   0.01625418
4564.00   0.55960703   0.01620676
4566.00   0.54184180   0.01606169
4568.00   0.55887187   0.01618657
4570.00   0.49544063   0.01572129
4572.00   0.50729859   0.01583388
4574.00   0.54050493   0.01618049
4576.00   0.54677266   0.01608732
4578.00   0.53064346   0.01591224
4580.00   0.49163210   0.01559426
4582.00   0.48300081   0.01536928
4584.00   0.49929971   0.01529802
4586.00   0.52841526   0.01557844
4588.00   0.51638681   0.01558342
4590.00   0.54621297   0.01577717
4592.00   0.54351270   0.01564317
4594.00   0.53873706   0.01576170
4596.00   0.56716967   0.01586190
4598.00   0.54006809   0.01562009
4600.00   0.48651487   0.01514377
4602.00   0.46822453   0.01496647
4604.00   0.51019120   0.01532837
4606.00   0.51882154   0.01533765
4608.00   0.50897586   0.01551968
4610.00   0.51939642   0.01556491
4612.00   0.50264412   0.01526265
4614.00   0.53019738   0.01532083
4616.00   0.51726216   0.01513728
4618.00   0.53706235   0.01528097
4620.00   0.56173337   0.01545596
4622.00   0.53376508   0.01529437
4624.00   0.58132464   0.01555167
4626.00   0.51062942   0.01514745
4628.00   0.50279129   0.01501702
4630.00   0.54315895   0.01528231
4632.00   0.51360148   0.01512252
4634.00   0.51565456   0.01506881
4636.00   0.52184761   0.01512420
4638.00   0.55692500   0.01526209
4640.00   0.54443377   0.01540118
4642.00   0.52016765   0.01510581
4644.00   0.53053147   0.01511970
4646.00   0.59173065   0.01556895
4648.00   0.57710910   0.01545888
4650.00   0.53621274   0.01527275
4652.00   0.52385402   0.01525661
4654.00   0.53492171   0.01536205
4656.00   0.54175627   0.01554765
4658.00   0.56160551   0.01587937
4660.00   0.57108128   0.01609395
4662.00   0.54282439   0.01598094
4664.00   0.58760035   0.01657444
4666.00   0.59331471   0.01685933
4668.00   0.55277359   0.01687701
4670.00   0.51837856   0.01681859
4672.00   0.58290964   0.01697120
4674.00   0.57682395   0.01667386
4676.00   0.58400917   0.01656636
4678.00   0.59858668   0.01634520
4680.00   0.60777706   0.01625233
4682.00   0.59158134   0.01594138
4684.00   0.57400858   0.01576536
4686.00   0.60147059   0.01590816
4688.00   0.62432611   0.01602370
4690.00   0.59356731   0.01574277
4692.00   0.57725388   0.01550285
4694.00   0.63125128   0.01577036
4696.00   0.62174827   0.01567740
4698.00   0.58446056   0.01537806
4700.00   0.62824160   0.01555803
4702.00   0.61208242   0.01547779
4704.00   0.62062395   0.01564580
4706.00   0.64633453   0.01588962
4708.00   0.66264194   0.01618074
4710.00   0.63630772   0.01602011
4712.00   0.64293158   0.01587975
4714.00   0.67589241   0.01608134
4716.00   0.67247647   0.01590306
4718.00   0.66835046   0.01579027
4720.00   0.68400079   0.01587303
4722.00   0.72661632   0.01617828
4724.00   0.71771681   0.01600548
4726.00   0.70938659   0.01634426
4728.00   0.72724587   0.01712496
4730.00   0.68364125   0.01697196
4732.00   0.67846400   0.01684640
4734.00   0.69262946   0.01713423
4736.00   0.73474431   0.01751986
4738.00   0.72702229   0.01777386
4740.00   0.78292668   0.01834367
4742.00   0.75021416   0.01858486
4744.00   0.75209147   0.01822472
4746.00   0.79657280   0.01741619
4748.00   0.76497054   0.01652969
4750.00   0.75876504   0.01656833
4752.00   0.75648898   0.01682492
4754.00   0.78941220   0.01687500
4756.00   0.76641369   0.01633323
4758.00   0.74912220   0.01592327
4760.00   0.82661623   0.01629445
4762.00   0.81456572   0.01622828
4764.00   0.82218480   0.01620680
4766.00   0.79437661   0.01593602
4768.00   0.84445453   0.01638031
4770.00   0.81968141   0.01598366
4772.00   0.85864711   0.01618430
4774.00   0.84993136   0.01623042
4776.00   0.85807413   0.01636768
4778.00   0.87917989   0.01687554
4780.00   0.89559245   0.01702094
4782.00   0.88118154   0.01652608
4784.00   0.85549641   0.01620617
4786.00   0.84301412   0.01606157
4788.00   0.84385496   0.01611746
4790.00   0.87147021   0.01639249
4792.00   0.88507688   0.01647650
4794.00   0.89572787   0.01636134
4796.00   0.86547184   0.01614744
4798.00   0.89248896   0.01621806
4800.00   0.86214286   0.01601684
4802.00   0.90120262   0.01623451
4804.00   0.94095647   0.01651054
4806.00   0.91493821   0.01635739
4808.00   0.92765349   0.01654027
4810.00   0.90819329   0.01637414
4812.00   0.92898130   0.01654040
4814.00   0.93496698   0.01656114
4816.00   0.91112709   0.01642187
4818.00   0.92432332   0.01653096
4820.00   0.92446083   0.01660930
4822.00   0.90379685   0.01662600
4824.00   0.89968687   0.01657728
4826.00   0.91091865   0.01669279
4828.00   0.91006041   0.01674047
4830.00   0.86756104   0.01641021
4832.00   0.88432348   0.01655882
4834.00   0.88903636   0.01661409
4836.00   0.85191584   0.01630573
4838.00   0.85499477   0.01653848
4840.00   0.87110442   0.01678564
4842.00   0.86169726   0.01647119
4844.00   0.85593981   0.01624470
4846.00   0.81929344   0.01603092
4848.00   0.79239172   0.01594742
4850.00   0.79203320   0.01592322
4852.00   0.80227900   0.01595134
4854.00   0.75830543   0.01563061
4856.00   0.78620577   0.01558002
4858.00   0.78539634   0.01561663
4860.00   0.74144500   0.01540013
4862.00   0.73121178   0.01540824
4864.00   0.70588261   0.01526970
4866.00   0.73971021   0.01535503
4868.00   0.74996018   0.01538231
4870.00   0.74889392   0.01534469
4872.00   0.71936381   0.01522856
4874.00   0.69263357   0.01502564
4876.00   0.64489317   0.01472497
4878.00   0.66153175   0.01496951
4880.00   0.66450924   0.01493417
4882.00   0.67137396   0.01492714
4884.00   0.68150276   0.01487960
4886.00   0.64079589   0.01452034
4888.00   0.64674902   0.01458612
4890.00   0.67224145   0.01473528
4892.00   0.67011881   0.01476994
4894.00   0.65102112   0.01457295
4896.00   0.66210115   0.01460325
4898.00   0.65250349   0.01447107
4900.00   0.63057780   0.01440204
4902.00   0.62016171   0.01427687
4904.00   0.63075984   0.01438052
4906.00   0.61595154   0.01432037
4908.00   0.65683573   0.01461517
4910.00   0.65135300   0.01467203
4912.00   0.64455086   0.01453909
4914.00   0.61511040   0.01441457
4916.00   0.58376700   0.01422773
4918.00   0.61407477   0.01439723
4920.00   0.62574470   0.01442823
4922.00   0.59937829   0.01420440
4924.00   0.62019235   0.01429141
4926.00   0.60704112   0.01404029
4928.00   0.62288994   0.01408434
4930.00   0.63523901   0.01403174
4932.00   0.63059050   0.01414296
4934.00   0.60004324   0.01400298
4936.00   0.60605311   0.01402091
4938.00   0.58446282   0.01393471
4940.00   0.58002621   0.01396038
4942.00   0.56083983   0.01378806
4944.00   0.56797945   0.01362579
4946.00   0.56949854   0.01359593
4948.00   0.55539262   0.01348768
4950.00   0.54338199   0.01360965
4952.00   0.55781782   0.01391378
4954.00   0.59348387   0.01426671
4956.00   0.58257747   0.01404619
4958.00   0.55434334   0.01367429
4960.00   0.54828537   0.01371640
4962.00   0.56033212   0.01390992
4964.00   0.57322192   0.01403109
4966.00   0.57348329   0.01411729
4968.00   0.57807535   0.01429051
4970.00   0.57693577   0.01466999
4972.00   0.55979365   0.01487912
4974.00   0.56222284   0.01538542
4976.00   0.56636733   0.01583295
4978.00   0.61332887   0.01681231
4980.00   0.58639228   0.01742925
4982.00   0.57684100   0.01788201
4984.00   0.55507606   0.01759425
4986.00   0.58474737   0.01725889
4988.00   0.59936434   0.01675635
4990.00   0.58297479   0.01620558
4992.00   0.61115795   0.01586123
4994.00   0.60812306   0.01530855
4996.00   0.60694015   0.01493013
4998.00   0.60270530   0.01458835
5000.00   0.60178649   0.01430591
5002.00   0.60206276   0.01419241
5004.00   0.61492676   0.01418669
5006.00   0.61218208   0.01402565
5008.00   0.60303396   0.01395814
5010.00   0.62689263   0.01399747
5012.00   0.62454033   0.01402741
5014.00   0.61374056   0.01395288
5016.00   0.64107352   0.01419696
5018.00   0.59449065   0.01403327
5020.00   0.60659623   0.01421009
5022.00   0.61267710   0.01406194
5024.00   0.62985909   0.01390324
5026.00   0.59670001   0.01367550
5028.00   0.59037864   0.01370590
5030.00   0.58387905   0.01396862
5032.00   0.60812950   0.01404243
5034.00   0.55285895   0.01347704
5036.00   0.58828318   0.01354972
5038.00   0.55315816   0.01324668
5040.00   0.55957907   0.01326253
5042.00   0.56173253   0.01322728
5044.00   0.54362011   0.01324678
5046.00   0.55274904   0.01333452
5048.00   0.57012528   0.01333115
5050.00   0.57296973   0.01330843
5052.00   0.54833794   0.01328053
5054.00   0.57492918   0.01344671
5056.00   0.58792621   0.01355076
5058.00   0.55003750   0.01317339
5060.00   0.55715877   0.01329784
5062.00   0.55270374   0.01354627
5064.00   0.53968394   0.01381032
5066.00   0.54745138   0.01398871
5068.00   0.55305284   0.01434156
5070.00   0.55740291   0.01462867
5072.00   0.52734381   0.01406494
5074.00   0.52051556   0.01378766
5076.00   0.54564130   0.01378635
5078.00   0.79816800   0.01604777
5080.00   1.05529165   0.01921814
5082.00   0.93726945   0.02092903
5084.00   0.75461745   0.01935729
5086.00   0.61601251   0.01766661
5088.00   0.55714804   0.01621286
5090.00   0.54258406   0.01483027
5092.00   0.56456828   0.01422705
5094.00   0.54346681   0.01386876
5096.00   0.59538138   0.01462537
5098.00   0.64755809   0.01542159
5100.00   0.58091903   0.01505162
5102.00   0.58442742   0.01463856
5104.00   0.61750042   0.01427569
5106.00   0.60056669   0.01400105
5108.00   0.60235280   0.01394901
5110.00   0.61902982   0.01415798
5112.00   0.61651272   0.01418822
5114.00   0.65244007   0.01453610
5116.00   0.62617743   0.01454561
5118.00   0.62619036   0.01440692
5120.00   0.63747156   0.01427151
5122.00   0.63972509   0.01413704
5124.00   0.65116078   0.01423595
5126.00   0.64663303   0.01425855
5128.00   0.68443298   0.01443096
5130.00   0.70087802   0.01465287
5132.00   0.64907295   0.01435803
5134.00   0.63769919   0.01423326
5136.00   0.66756928   0.01448740
5138.00   0.67682910   0.01461289
5140.00   0.63122350   0.01421868
5142.00   0.65824640   0.01449065
5144.00   0.67713481   0.01471771
5146.00   0.64553326   0.01467637
5148.00   0.66107982   0.01517513
5150.00   0.64606476   0.01545042
5152.00   0.70165282   0.01622010
5154.00   0.70365089   0.01628545
5156.00   0.68651974   0.01597351
5158.00   0.64657021   0.01527530
5160.00   0.65491146   0.01502362
5162.00   0.63278699   0.01464898
5164.00   0.63712263   0.01455161
5166.00   0.65778482   0.01470132
5168.00   0.65818131   0.01461399
5170.00   0.63457859   0.01448322
5172.00   0.61856908   0.01427692
5174.00   0.62558168   0.01438668
5176.00   0.62523413   0.01447541
5178.00   0.64286375   0.01466485
5180.00   0.65723288   0.01471831
5182.00   0.67801070   0.01476245
5184.00   0.70445985   0.01546084
5186.00   0.67022479   0.01508912
5188.00   0.64469200   0.01491382
5190.00   0.60929900   0.01461272
5192.00   0.58222580   0.01431555
5194.00   0.56753045   0.01430729
5196.00   0.57269484   0.01456350
5198.00   0.59672177   0.01495433
5200.00   0.59371561   0.01494234
5202.00   0.57554352   0.01477119
5204.00   0.57006890   0.01452743
5206.00   0.53342891   0.01425874
5208.00   0.52785748   0.01436885
5210.00   0.55194890   0.01478850
5212.00   0.56212062   0.01482880
5214.00   0.54254377   0.01443337
5216.00   0.55867910   0.01455459
5218.00   0.54283661   0.01475331
5220.00   0.52442145   0.01461901
5222.00   0.54655713   0.01472917
5224.00   0.55274683   0.01473381
5226.00   0.54246235   0.01444419
5228.00   0.55434847   0.01451459
5230.00   0.65360647   0.01558172
5232.00   0.78123671   0.01716580
5234.00   0.84166592   0.01901398
5236.00   0.73482549   0.01764780
5238.00   0.64230925   0.01591423
5240.00   0.56540829   0.01510165
5242.00   0.54630840   0.01480179
5244.00   0.51846379   0.01446426
5246.00   0.54640621   0.01466527
5248.00   0.55230731   0.01479389
5250.00   0.52005607   0.01462540
5252.00   0.54002529   0.01481177
5254.00   0.52770352   0.01495403
5256.00   0.51591009   0.01533032
5258.00   0.50717682   0.01529561
5260.00   0.56700492   0.01550872
5262.00   0.54139268   0.01514497
5264.00   0.55141944   0.01503760
5266.00   0.55325532   0.01510206
5268.00   0.56142479   0.01517759
5270.00   0.53490347   0.01500574
5272.00   0.52514225   0.01514238
5274.00   0.54132497   0.01532428
5276.00   0.53459609   0.01529351
5278.00   0.53708416   0.01537700
5280.00   0.56076783   0.01556491
5282.00   0.54014605   0.01534913
5284.00   0.53838700   0.01559200
5286.00   0.57405794   0.01586870
5288.00   0.51353759   0.01545546
5290.00   0.52740961   0.01547179
5292.00   0.56719238   0.01571339
5294.00   0.51909184   0.01547160
5296.00   0.53272599   0.01558837
5298.00   0.55590767   0.01592715
5300.00   0.52204859   0.01573987
5302.00   0.54172164   0.01580860
5304.00   0.56756264   0.01603993
5306.00   0.52596211   0.01570720
5308.00   0.55978531   0.01597150
5310.00   0.50350344   0.01561969
5312.00   0.50842923   0.01576355
5314.00   0.55012953   0.01617862
5316.00   0.54216599   0.01604867
5318.00   0.52970260   0.01600854
5320.00   0.52493078   0.01597079
5322.00   0.53578752   0.01608787
5324.00   0.56193584   0.01633776
5326.00   0.58461273   0.01665643
5328.00   0.53940219   0.01637253
5330.00   0.51209974   0.01633437
5332.00   0.52135807   0.01641650
5334.00   0.53289068   0.01644108
5336.00   0.51712275   0.01639431
5338.00   0.56782669   0.01693551
5340.00   0.51599067   0.01686174
5342.00   0.50671333   0.01688556
5344.00   0.49805084   0.01664041
5346.00   0.54122120   0.01725053
5348.00   0.53487551   0.01771517
5350.00   0.51289034   0.01774430
5352.00   0.50901550   0.01744515
5354.00   0.55435503   0.01816173
5356.00   0.54497588   0.01834569
5358.00   0.51805317   0.01775966
5360.00   0.51013917   0.01728747
5362.00   0.50545287   0.01705732
5364.00   0.56872320   0.01737826
5366.00   0.56357902   0.01757019
5368.00   0.54298019   0.01740105
5370.00   0.57869440   0.01770583
5372.00   0.57422018   0.01782328
5374.00   0.53092510   0.01783296
5376.00   0.55174273   0.01827425
5378.00   0.58363420   0.01840489
5380.00   0.56208700   0.01804607
5382.00   0.59557742   0.01822590
5384.00   0.55616719   0.01798210
5386.00   0.56750274   0.01823685
5388.00   0.54801983   0.01821659
5390.00   0.61177671   0.01931987
5392.00   0.60182285   0.01942370
5394.00   0.60268307   0.01930542
5396.00   0.63906860   0.01966614
5398.00   0.59601390   0.01926843
5400.00   0.56841630   0.01907993
5402.00   0.54210532   0.01892249
5404.00   0.57978654   0.01945789
5406.00   0.59459442   0.01961070
5408.00   0.60262018   0.02006127
5410.00   0.57844496   0.02005038
5412.00   0.60740072   0.02077076
5414.00   0.63082486   0.02117996
5416.00   0.61857426   0.02157534
5418.00   0.59980255   0.02169680
5420.00   0.64913005   0.02214534
5422.00   0.67230958   0.02222117
5424.00   0.60097754   0.02168351
5426.00   0.63096762   0.02173369
5428.00   0.68336940   0.02236126
5430.00   0.69256610   0.02226868
5432.00   0.66596311   0.02220772
5434.00   0.66168916   0.00775118
5436.00   0.66849965   0.00775981
5438.00   0.67549759   0.00777598
5440.00   0.67624331   0.00775354
5442.00   0.67019230   0.00753430
5444.00   0.67054701   0.00787801
5446.00   0.67167741   0.00886837
5448.00   0.67819542   0.00939767
5450.00   0.69494462   0.00934042
5452.00   0.71182674   0.00918685
5454.00   0.71577126   0.00945064
5456.00   0.71171188   0.00993646
5458.00   0.70450592   0.01032866
5460.00   0.68727624   0.01075073
5462.00   0.67647713   0.01113135
5464.00   0.66687167   0.01177445
5466.00   0.66519308   0.01199894
5468.00   0.68114561   0.01109428
5470.00   0.71087730   0.00911424
5472.00   0.72092712   0.00821993
5474.00   0.71333969   0.00814077
5476.00   0.71880430   0.00800493
5478.00   0.73504555   0.00807690
5480.00   0.74942523   0.00823760
5482.00   0.75828594   0.00852070
5484.00   0.76352012   0.00884458
5486.00   0.76056683   0.00874173
5488.00   0.74476421   0.00810730
5490.00   0.73855329   0.00787914
5492.00   0.73983508   0.00781812
5494.00   0.73579276   0.00786005
5496.00   0.71829873   0.00811091
5498.00   0.70034724   0.00836803
5500.00   0.70641476   0.00818756
5502.00   0.73720336   0.00749099
5504.00   0.74111468   0.00744416
5506.00   0.72543317   0.00793721
5508.00   0.71647990   0.00823047
5510.00   0.71299660   0.00840770
5512.00   0.71365190   0.00844415
5514.00   0.72164762   0.00814613
5516.00   0.73787963   0.00744779
5518.00   0.74047858   0.00747129
5520.00   0.73119289   0.00823388
5522.00   0.72719294   0.00850634
5524.00   0.72608525   0.00847583
5526.00   0.72641855   0.00828392
5528.00   0.72865045   0.00788649
5530.00   0.73247635   0.00727576
5532.00   0.73218322   0.00711213
5534.00   0.72641647   0.00740845
5536.00   0.72627473   0.00744294
5538.00   0.73098642   0.00725795
5540.00   0.73496658   0.00724085
5542.00   0.73699087   0.00759237
5544.00   0.73770243   0.00807795
5546.00   0.73539180   0.00829625
5548.00   0.73074460   0.00840769
5550.00   0.72359300   0.00843812
5552.00   0.70997518   0.00841744
5554.00   0.70137781   0.00824212
5556.00   0.70085520   0.00772590
5558.00   0.70287925   0.00716015
5560.00   0.70056301   0.00717310
5562.00   0.69562340   0.00766519
5564.00   0.69451833   0.00780469
5566.00   0.69231981   0.00737699
5568.00   0.69778353   0.00785911
5570.00   0.71726590   0.00934783
5572.00   0.73446530   0.01076973
5574.00   0.73365045   0.01172775
5576.00   0.72106212   0.01258155
5578.00   0.71275353   0.01251202
5580.00   0.69670534   0.01137258
5582.00   0.69420147   0.01046316
5584.00   0.70936662   0.00940633
5586.00   0.72101319   0.00842144
5588.00   0.71543467   0.00775961
5590.00   0.70176160   0.00736306
5592.00   0.70378906   0.00703898
5594.00   0.71912396   0.00697059
5596.00   0.72723949   0.00688472
5598.00   0.73588324   0.00690004
5600.00   0.73973435   0.00691412
5602.00   0.73566371   0.00691279
5604.00   0.72773045   0.00690209
5606.00   0.72404873   0.00684351
5608.00   0.72225696   0.00672103
5610.00   0.71904165   0.00666212
5612.00   0.71301490   0.00663536
5614.00   0.71120155   0.00662134
5616.00   0.71645218   0.00662171
5618.00   0.72262120   0.00663454
5620.00   0.72134507   0.00665557
5622.00   0.71374750   0.00668994
5624.00   0.71699196   0.00671370
5626.00   0.73336136   0.00675688
5628.00   0.73865336   0.00675064
5630.00   0.73236930   0.00668155
5632.00   0.72357225   0.00660219
5634.00   0.71738148   0.00651364
5636.00   0.71113467   0.00640426
5638.00   0.70860499   0.00658725
5640.00   0.71203202   0.00718280
5642.00   0.70992488   0.00738239
5644.00   0.70157474   0.00734830
5646.00   0.69565398   0.00719970
5648.00   0.69699532   0.00689619
5650.00   0.70171553   0.00647934
5652.00   0.70106852   0.00637571
5654.00   0.69372159   0.00641980
5656.00   0.69559222   0.00669368
5658.00   0.70462978   0.00740192
5660.00   0.71335423   0.00779883
5662.00   0.72112209   0.00774690
5664.00   0.72831452   0.00750665
5666.00   0.73350227   0.00738629
5668.00   0.73883313   0.00722245
5670.00   0.73662901   0.00721442
5672.00   0.72193259   0.00732496
5674.00   0.71664137   0.00748100
5676.00   0.72170413   0.00751134
5678.00   0.73195696   0.00778426
5680.00   0.74758428   0.00880809
5682.00   0.77325147   0.01036062
5684.00   0.76577848   0.01064856
5686.00   0.71851647   0.00999121
5688.00   0.69702607   0.00956360
5690.00   0.69745350   0.00917129
5692.00   0.70197821   0.00881129
5694.00   0.70234346   0.00855575
5696.00   0.70288408   0.00837650
5698.00   0.69981343   0.00808866
5700.00   0.69083703   0.00765790
5702.00   0.68791008   0.00738394
5704.00   0.69049817   0.00720531
5706.00   0.69189268   0.00711846
5708.00   0.68865228   0.00717576
5710.00   0.68419576   0.00730761
5712.00   0.68570739   0.00726767
5714.00   0.69284016   0.00698294
5716.00   0.69659817   0.00708172
5718.00   0.70059645   0.00767954
5720.00   0.70225585   0.00786579
5722.00   0.70085675   0.00738509
5724.00   0.69767475   0.00668231
5726.00   0.69442660   0.00651960
5728.00   0.69098306   0.00674318
5730.00   0.68408674   0.00666904
5732.00   0.67021805   0.00640754
5734.00   0.66319031   0.00626693
5736.00   0.66390955   0.00627714
5738.00   0.66717917   0.00631647
5740.00   0.66956466   0.00629051
5742.00   0.67289978   0.00623829
5744.00   0.67410415   0.00622385
5746.00   0.67526305   0.00623246
5748.00   0.67300028   0.00624332
5750.00   0.66385394   0.00626375
5752.00   0.65816754   0.00628572
5754.00   0.66360533   0.00629481
5756.00   0.67500514   0.00630239
5758.00   0.67594272   0.00637208
5760.00   0.66777498   0.00644278
5762.00   0.66559464   0.00663644
5764.00   0.66661054   0.00701035
5766.00   0.66690946   0.00728189
5768.00   0.66545582   0.00741567
5770.00   0.66324157   0.00745052
5772.00   0.66097909   0.00733154
5774.00   0.65813977   0.00696223
5776.00   0.65580446   0.00680524
5778.00   0.65312862   0.00673072
5780.00   0.65161002   0.00672683
5782.00   0.65121907   0.00682131
5784.00   0.65193719   0.00695718
5786.00   0.65455467   0.00706365
5788.00   0.66001004   0.00718450
5790.00   0.65957761   0.00722742
5792.00   0.65336490   0.00722889
5794.00   0.64972192   0.00717242
5796.00   0.64648759   0.00702873
5798.00   0.64602524   0.00686455
5800.00   0.65188134   0.00672720
5802.00   0.66273206   0.00659182
5804.00   0.66722828   0.00651658
5806.00   0.67012012   0.00643605
5808.00   0.66854376   0.00650604
5810.00   0.65953225   0.00682088
5812.00   0.65240908   0.00702702
5814.00   0.65155643   0.00695109
5816.00   0.65387797   0.00673290
5818.00   0.65549916   0.00667914
5820.00   0.66040552   0.00672369
5822.00   0.65962875   0.00671554
5824.00   0.65338367   0.00669450
5826.00   0.64848673   0.00667436
5828.00   0.64663422   0.00663206
5830.00   0.64563233   0.00660846
5832.00   0.64297485   0.00671039
5834.00   0.63854259   0.00696816
5836.00   0.63767296   0.00701139
5838.00   0.64084786   0.00688728
5840.00   0.64169723   0.00680639
5842.00   0.64016205   0.00676650
5844.00   0.63722885   0.00674682
5846.00   0.63251668   0.00674825
5848.00   0.62510622   0.00677026
5850.00   0.62459689   0.00681429
5852.00   0.63325679   0.00685056
5854.00   0.63407117   0.00696896
5856.00   0.62507033   0.00722766
5858.00   0.61789280   0.00743547
5860.00   0.62147552   0.00746013
5862.00   0.63109112   0.00737739
5864.00   0.63004375   0.00740379
5866.00   0.61919463   0.00747303
5868.00   0.61488158   0.00755342
5870.00   0.61639047   0.00772812
5872.00   0.61464381   0.00779522
5874.00   0.60312796   0.00755789
5876.00   0.58886147   0.00723126
5878.00   0.58990979   0.00748052
5880.00   0.59444386   0.00746719
5882.00   0.62175512   0.00921522
5884.00   0.70017976   0.01244759
5886.00   0.73239028   0.01430144
5888.00   0.69284236   0.01495188
5890.00   0.62557495   0.01512293
5892.00   0.58145714   0.01531888
5894.00   0.53462249   0.01544847
5896.00   0.51306671   0.01492475
5898.00   0.51168358   0.01354847
5900.00   0.51912850   0.01218656
5902.00   0.54331976   0.01055873
5904.00   0.56922823   0.00894199
5906.00   0.58168632   0.00802413
5908.00   0.58768308   0.00780293
5910.00   0.58794534   0.00755189
5912.00   0.57740635   0.00779568
5914.00   0.57147813   0.00774359
5916.00   0.56711006   0.00743174
5918.00   0.56431818   0.00714059
5920.00   0.56370032   0.00701945
5922.00   0.56484526   0.00699417
5924.00   0.56608957   0.00704158
5926.00   0.56990546   0.00719835
5928.00   0.56998712   0.00736125
5930.00   0.56597155   0.00766279
5932.00   0.56360340   0.00781015
5934.00   0.56498021   0.00770312
5936.00   0.56782967   0.00745628
5938.00   0.56871247   0.00724443
5940.00   0.56738633   0.00692775
5942.00   0.57041663   0.00679482
5944.00   0.57902032   0.00682577
5946.00   0.58381468   0.00684717
5948.00   0.58280355   0.00686072
5950.00   0.58035553   0.00687082
5952.00   0.58136344   0.00685035
5954.00   0.58453637   0.00680230
5956.00   0.58461386   0.00678239
5958.00   0.58431649   0.00679872
5960.00   0.58046973   0.00677146
5962.00   0.56948960   0.00663720
5964.00   0.56064093   0.00656468
5966.00   0.56247526   0.00673390
5968.00   0.57135612   0.00706287
5970.00   0.57388395   0.00713524
5972.00   0.57371390   0.00708466
5974.00   0.57378078   0.00695732
5976.00   0.57216847   0.00660530
5978.00   0.57210183   0.00635629
5980.00   0.57530880   0.00644788
5982.00   0.58053553   0.00670036
5984.00   0.58569509   0.00668895
5986.00   0.59556913   0.00644858
5988.00   0.59624809   0.00639318
5990.00   0.58925503   0.00645249
5992.00   0.58181036   0.00648741
5994.00   0.57327402   0.00646135
5996.00   0.56553060   0.00642171
5998.00   0.56571424   0.00642958
6000.00   0.57329518   0.00649889
6002.00   0.57743496   0.00644919
6004.00   0.58408779   0.00629191
6006.00   0.58557147   0.00615171
6008.00   0.57805824   0.00600249
6010.00   0.57055813   0.00588481
6012.00   0.57371473   0.00588197
6014.00   0.58444190   0.00598309
6016.00   0.58890289   0.00598064
6018.00   0.59069300   0.00591754
6020.00   0.59273487   0.00587193
6022.00   0.59601498   0.00583281
6024.00   0.59700686   0.00579595
6026.00   0.59218562   0.00575131
6028.00   0.58336985   0.00570388
6030.00   0.58099836   0.00573191
6032.00   0.58805180   0.00575417
6034.00   0.58275306   0.00594498
6036.00   0.55972469   0.00645217
6038.00   0.54760575   0.00671786
6040.00   0.56137556   0.00651175
6042.00   0.58685178   0.00605298
6044.00   0.59442288   0.00583111
6046.00   0.59025794   0.00555285
6048.00   0.59269083   0.00567941
6050.00   0.59687263   0.00640156
6052.00   0.60092163   0.00670157
6054.00   0.60276467   0.00633194
6056.00   0.60614055   0.00577095
6058.00   0.61834466   0.00583539
6060.00   0.64080375   0.00638619
6062.00   0.64943057   0.00638519
6064.00   0.65095317   0.00592821
6066.00   0.64801568   0.00571253
6068.00   0.63765955   0.00578321
6070.00   0.62584633   0.00593868
6072.00   0.61771208   0.00605416
6074.00   0.61016560   0.00618937
6076.00   0.61194670   0.00630544
6078.00   0.62846386   0.00621429
6080.00   0.63317907   0.00655753
6082.00   0.62584442   0.00763303
6084.00   0.61990303   0.00819671
6086.00   0.62379676   0.00754509
6088.00   0.63225943   0.00597906
6090.00   0.63185894   0.00550547
6092.00   0.62488449   0.00555085
6094.00   0.61962199   0.00619693
6096.00   0.60680568   0.00785690
6098.00   0.60536253   0.00874635
6100.00   0.62827241   0.00858729
6102.00   0.65909648   0.00793166
6104.00   0.66051573   0.00757881
6106.00   0.63487428   0.00719010
6108.00   0.63180411   0.00690645
6110.00   0.64119047   0.00669340
6112.00   0.64841390   0.00656398
6114.00   0.65363991   0.00659844
6116.00   0.65706074   0.00664925
6118.00   0.65615946   0.00646313
6120.00   0.65155232   0.00602612
6122.00   0.64617610   0.00603733
6124.00   0.63468224   0.00635724
6126.00   0.63063508   0.00671788
6128.00   0.63433361   0.00742141
6130.00   0.64102101   0.00780144
6132.00   0.64775211   0.00721517
6134.00   0.65598357   0.00571065
6136.00   0.66521549   0.00525926
6138.00   0.68299592   0.00578676
6140.00   0.68541151   0.00587117
6142.00   0.67365676   0.00564154
6144.00   0.65829098   0.00559819
6146.00   0.64221376   0.00599327
6148.00   0.62420970   0.00659181
6150.00   0.61104739   0.00706859
6152.00   0.59806263   0.00792888
6154.00   0.59283036   0.00785415
6156.00   0.59776986   0.00672363
6158.00   0.59995055   0.00579719
6160.00   0.59538680   0.00566974
6162.00   0.58926767   0.00586026
6164.00   0.58839202   0.00575237
6166.00   0.59045994   0.00546721
6168.00   0.59370005   0.00555032
6170.00   0.60098380   0.00598518
6172.00   0.60543209   0.00627813
6174.00   0.60754502   0.00651324
6176.00   0.60709137   0.00661410
6178.00   0.60220432   0.00638208
6180.00   0.59256053   0.00578879
6182.00   0.58768511   0.00554005
6184.00   0.58365035   0.00552974
6186.00   0.58301514   0.00544834
6188.00   0.58866835   0.00524238
6190.00   0.59270877   0.00515623
6192.00   0.58841693   0.00542906
6194.00   0.57919586   0.00590800
6196.00   0.57784343   0.00599278
6198.00   0.58029372   0.00584169
6200.00   0.58533496   0.00566885
6202.00   0.59883356   0.00522446
6204.00   0.60613000   0.00498841
6206.00   0.59903336   0.00528628
6208.00   0.58525848   0.00579553
6210.00   0.58171058   0.00594748
6212.00   0.58331311   0.00598836
6214.00   0.58555436   0.00586758
6216.00   0.59265834   0.00543685
6218.00   0.59647930   0.00510787
6220.00   0.59537011   0.00495857
6222.00   0.59193939   0.00492495
6224.00   0.58813983   0.00500746
6226.00   0.58080804   0.00525425
6228.00   0.58269584   0.00537340
6230.00   0.59556991   0.00542210
6232.00   0.60196912   0.00551644
6234.00   0.60253495   0.00569929
6236.00   0.59942037   0.00584569
6238.00   0.59191090   0.00584149
6240.00   0.57912511   0.00573098
6242.00   0.57519281   0.00563855
6244.00   0.57964623   0.00547092
6246.00   0.57901239   0.00538734
6248.00   0.57304454   0.00540188
6250.00   0.56874800   0.00541218
6252.00   0.57065719   0.00535531
6254.00   0.57598329   0.00526793
6256.00   0.57719660   0.00523184
6258.00   0.57887465   0.00524112
6260.00   0.57462418   0.00522147
6262.00   0.56273115   0.00519430
6264.00   0.55254692   0.00515619
6266.00   0.54659760   0.00510585
6268.00   0.54272085   0.00504378
6270.00   0.53983021   0.00496732
6272.00   0.53736836   0.00485010
6274.00   0.53933203   0.00480099
6276.00   0.54661798   0.00471146
6278.00   0.55309713   0.00480486
6280.00   0.56219232   0.00514081
6282.00   0.56736696   0.00554699
6284.00   0.55544585   0.00589379
6286.00   0.52577049   0.00631359
6288.00   0.51822448   0.00632678
6290.00   0.52194029   0.00579868
6292.00   0.53104430   0.00562377
6294.00   0.55618680   0.00581689
6296.00   0.57465959   0.00612471
6298.00   0.56236029   0.00646628
6300.00   0.52855903   0.00688981
6302.00   0.52239817   0.00691787
6304.00   0.53575087   0.00660930
6306.00   0.54102033   0.00631847
6308.00   0.54346782   0.00588678
6310.00   0.54513705   0.00547693
6312.00   0.54509842   0.00519365
6314.00   0.54455703   0.00499432
6316.00   0.55170709   0.00486035
6318.00   0.56878823   0.00480283
6320.00   0.57808012   0.00484143
6322.00   0.58764780   0.00502557
6324.00   0.58964342   0.00519171
6326.00   0.57872152   0.00535059
6328.00   0.56281853   0.00547063
6330.00   0.55703437   0.00541687
6332.00   0.55548906   0.00518580
6334.00   0.55794209   0.00502197
6336.00   0.56874931   0.00480102
6338.00   0.57525265   0.00466210
6340.00   0.57643598   0.00460446
6342.00   0.57579803   0.00463198
6344.00   0.57614189   0.00479884
6346.00   0.57659018   0.00512424
6348.00   0.57430547   0.00515159
6350.00   0.56841439   0.00487193
6352.00   0.56453973   0.00479237
6354.00   0.56399626   0.00487997
6356.00   0.56152159   0.00503348
6358.00   0.55233938   0.00523008
6360.00   0.53878993   0.00547524
6362.00   0.53257126   0.00559333
6364.00   0.53282499   0.00571653
6366.00   0.52907842   0.00563310
6368.00   0.52047867   0.00521576
6370.00   0.51603043   0.00489100
6372.00   0.52174336   0.00490106
6374.00   0.53168905   0.00507257
6376.00   0.53040433   0.00513579
6378.00   0.52282327   0.00521473
6380.00   0.51190776   0.00522307
6382.00   0.49095070   0.00516942
6384.00   0.47643316   0.00510331
6386.00   0.47210288   0.00501236
6388.00   0.47209579   0.00492021
6390.00   0.46975777   0.00488996
6392.00   0.46633571   0.00490566
6394.00   0.46951565   0.00492355
6396.00   0.48443735   0.00502103
6398.00   0.48833048   0.00500553
6400.00   0.47622412   0.00476039
6402.00   0.46342218   0.00456470
6404.00   0.46466619   0.00470789
6406.00   0.47468796   0.00504108
6408.00   0.47688922   0.00557976
6410.00   0.47464454   0.00656897
6412.00   0.47474071   0.00698051
6414.00   0.47593069   0.00695708
6416.00   0.47812936   0.00683936
6418.00   0.48106581   0.00674972
6420.00   0.48497292   0.00662632
6422.00   0.49251273   0.00671191
6424.00   0.50686586   0.00705360
6426.00   0.51427978   0.00718675
6428.00   0.51798487   0.00715119
6430.00   0.51930434   0.00719638
6432.00   0.52190095   0.00755174
6434.00   0.52056658   0.00789970
6436.00   0.49891230   0.00748713
6438.00   0.44500548   0.00591368
6440.00   0.43277967   0.00545675
6442.00   0.45688578   0.00613593
6444.00   0.46772996   0.00630855
6446.00   0.45212752   0.00543949
6448.00   0.43669578   0.00450461
6450.00   0.45523223   0.00548810
6452.00   0.50251985   0.00751620
6454.00   0.52208853   0.00821687
6456.00   0.53752631   0.00879086
6458.00   0.53188139   0.00859400
6460.00   0.48948836   0.00685976
6462.00   0.45089996   0.00484948
6464.00   0.45386881   0.00532440
6466.00   0.48282528   0.00716590
6468.00   0.48820329   0.00752580
6470.00   0.47931004   0.00718697
6472.00   0.48024252   0.00718112
6474.00   0.49170789   0.00744336
6476.00   0.49859959   0.00756826
6478.00   0.49395588   0.00738272
6480.00   0.48227057   0.00698901
6482.00   0.46775779   0.00650562
6484.00   0.43355313   0.00550229
6486.00   0.43163288   0.00510086
6488.00   0.46507043   0.00537847
6490.00   0.48317942   0.00547002
6492.00   0.46850881   0.00510870
6494.00   0.44330716   0.00459047
6496.00   0.43978995   0.00444212
6498.00   0.44980010   0.00457527
6500.00   0.45301908   0.00460089
6502.00   0.45539558   0.00463753
6504.00   0.45790586   0.00468954
6506.00   0.46025902   0.00481699
6508.00   0.46295711   0.00489276
6510.00   0.46694654   0.00473489
6512.00   0.47215062   0.00434755
6514.00   0.47591937   0.00418029
6516.00   0.47955093   0.00412338
6518.00   0.48168513   0.00410868
6520.00   0.48111117   0.00417460
6522.00   0.48120689   0.00425606
6524.00   0.48517844   0.00431255
6526.00   0.49149501   0.00436567
6528.00   0.49246457   0.00438037
6530.00   0.48559824   0.00425761
6532.00   0.48777369   0.00436336
6534.00   0.49759895   0.00470371
6536.00   0.50796312   0.00498406
6538.00   0.51842988   0.00515804
6540.00   0.52817070   0.00525798
6542.00   0.52736223   0.00515050
6544.00   0.51333785   0.00470176
6546.00   0.50918585   0.00452958
6548.00   0.50938332   0.00446965
6550.00   0.51001686   0.00450960
6552.00   0.51053399   0.00469381
6554.00   0.51167923   0.00492594
6556.00   0.51371735   0.00506275
6558.00   0.51641792   0.00522512
6560.00   0.52042562   0.00511171
6562.00   0.52735108   0.00455834
6564.00   0.53174186   0.00427068
6566.00   0.53204793   0.00436230
6568.00   0.53265578   0.00455178
6570.00   0.53782398   0.00463813
6572.00   0.54592556   0.00471780
6574.00   0.55358040   0.00475721
6576.00   0.56479335   0.00478809
6578.00   0.57040828   0.00474882
6580.00   0.56943959   0.00461230
6582.00   0.56849611   0.00446515
6584.00   0.57189912   0.00433719
6586.00   0.57711685   0.00421692
6588.00   0.57800472   0.00425750
6590.00   0.57780230   0.00450508
6592.00   0.57292891   0.00461348
6594.00   0.55864048   0.00469354
6596.00   0.55027890   0.00470930
6598.00   0.55424297   0.00461337
6600.00   0.56397432   0.00446388
6602.00   0.56891006   0.00443189
6604.00   0.57399660   0.00445633
6606.00   0.57546544   0.00453083
6608.00   0.57372189   0.00472539
6610.00   0.57090062   0.00483170
6612.00   0.56529593   0.00485441
6614.00   0.56018138   0.00479924
6616.00   0.56138456   0.00460048
6618.00   0.56755584   0.00417761
6620.00   0.57198083   0.00406707
6622.00   0.58041751   0.00418748
6624.00   0.58179903   0.00431681
6626.00   0.57403499   0.00450651
6628.00   0.56490469   0.00468875
6630.00   0.55944914   0.00482275
6632.00   0.55482972   0.00494256
6634.00   0.55855769   0.00486395
6636.00   0.57796198   0.00438315
6638.00   0.58122414   0.00432247
6640.00   0.56974071   0.00458924
6642.00   0.55726165   0.00497854
6644.00   0.54743898   0.00552212
6646.00   0.53892416   0.00610778
6648.00   0.54355317   0.00616579
6650.00   0.56571120   0.00575946
6652.00   0.57613844   0.00545111
6654.00   0.58251321   0.00494028
6656.00   0.58718705   0.00453815
6658.00   0.59082299   0.00437661
6660.00   0.59264946   0.00437153
6662.00   0.59160906   0.00442245
6664.00   0.58684540   0.00458293
6666.00   0.58406919   0.00477083
6668.00   0.58345509   0.00495439
6670.00   0.57929939   0.00527448
6672.00   0.56986248   0.00583354
6674.00   0.55924666   0.00632997
6676.00   0.55137342   0.00648964
6678.00   0.54373509   0.00645197
6680.00   0.54250801   0.00633722
6682.00   0.54686624   0.00598314
6684.00   0.55313194   0.00573878
6686.00   0.56594294   0.00550335
6688.00   0.57565665   0.00541297
6690.00   0.57327759   0.00566920
6692.00   0.56305957   0.00615202
6694.00   0.56240171   0.00620760
6696.00   0.56678528   0.00595650
6698.00   0.57138622   0.00577865
6700.00   0.58365321   0.00539181
6702.00   0.58716100   0.00528378
6704.00   0.57036841   0.00582337
6706.00   0.54421288   0.00657587
6708.00   0.53841674   0.00673312
6710.00   0.54839081   0.00651391
6712.00   0.55096310   0.00636910
6714.00   0.55401194   0.00607146
6716.00   0.55484194   0.00586063
6718.00   0.55200279   0.00578759
6720.00   0.54789209   0.00580278
6722.00   0.54563725   0.00590489
6724.00   0.54090989   0.00621029
6726.00   0.54948497   0.00609540
6728.00   0.57804579   0.00542528
6730.00   0.59168476   0.00511437
6732.00   0.58772874   0.00532746
6734.00   0.57816666   0.00564866
6736.00   0.57073283   0.00580191
6738.00   0.56046546   0.00594226
6740.00   0.56245714   0.00583406
6742.00   0.58284146   0.00528001
6744.00   0.58636945   0.00509917
6746.00   0.57478857   0.00527178
6748.00   0.55961931   0.00553573
6750.00   0.54480654   0.00582007
6752.00   0.52846301   0.00614539
6754.00   0.52174395   0.00621286
6756.00   0.52343351   0.00600197
6758.00   0.52452737   0.00596327
6760.00   0.52781653   0.00599627
6762.00   0.53223193   0.00605296
6764.00   0.53872246   0.00616459
6766.00   0.54569948   0.00627600
6768.00   0.54695255   0.00619068
6770.00   0.53867084   0.00588549
6772.00   0.54541630   0.00572262
6774.00   0.57115161   0.00552248
6776.00   0.58300328   0.00549866
6778.00   0.57161087   0.00580444
6780.00   0.55506378   0.00612657
6782.00   0.55619770   0.00604605
6784.00   0.56937599   0.00561276
6786.00   0.57109809   0.00556598
6788.00   0.57077265   0.00578979
6790.00   0.56253856   0.00593495
6792.00   0.53935790   0.00608239
6794.00   0.51871550   0.00614909
6796.00   0.51588255   0.00601321
6798.00   0.52396584   0.00570467
6800.00   0.53662366   0.00552558
6802.00   0.56335223   0.00541304
6804.00   0.58045179   0.00525674
6806.00   0.59424973   0.00504841
6808.00   0.60141206   0.00485994
6810.00   0.59743750   0.00471195
6812.00   0.58599699   0.00460401
6814.00   0.58265859   0.00464069
6816.00   0.58448780   0.00483380
6818.00   0.58249354   0.00500595
6820.00   0.57829100   0.00528789
6822.00   0.57459050   0.00544705
6824.00   0.57140404   0.00540921
6826.00   0.56908983   0.00528091
6828.00   0.56951725   0.00523065
6830.00   0.57060248   0.00520261
6832.00   0.57837260   0.00515636
6834.00   0.59092790   0.00498648
6836.00   0.60839456   0.00503867
6838.00   0.63609350   0.00548191
6840.00   0.66314679   0.00589002
6842.00   0.67090076   0.00583385
6844.00   0.65852463   0.00543378
6846.00   0.69271296   0.00523554
6848.00   0.70865786   0.00391173
6850.00   0.84067559   0.00504302
6852.00   1.16890466   0.00825300
6854.00   1.45719802   0.01037761
6856.00   1.53836262   0.01093685
6858.00   1.49557722   0.01077556
6860.00   1.38059998   0.01019276
6862.00   1.08279109   0.00808345
6864.00   0.90591925   0.00710920
6866.00   0.77717054   0.00735046
6868.00   0.69780523   0.00767888
6870.00   0.68085796   0.00774508
6872.00   0.71221995   0.00777359
6874.00   0.74081832   0.00766169
6876.00   0.81290233   0.00722659
6878.00   0.82962412   0.00723871
6880.00   0.81432098   0.00773245
6882.00   0.78428781   0.00795269
6884.00   0.73524326   0.00780781
6886.00   0.67611510   0.00743366
6888.00   0.62876165   0.00684045
6890.00   0.58014405   0.00573820
6892.00   0.55186421   0.00506635
6894.00   0.54280990   0.00469502
6896.00   0.53605437   0.00443828
6898.00   0.53393763   0.00439474
6900.00   0.53428352   0.00445223
6902.00   0.53299832   0.00445808
6904.00   0.53184086   0.00448339
6906.00   0.53170657   0.00450422
6908.00   0.53366506   0.00451489
6910.00   0.53339773   0.00455812
6912.00   0.53100401   0.00465578
6914.00   0.52813923   0.00473253
6916.00   0.52550995   0.00473716
6918.00   0.52275187   0.00470007
6920.00   0.52075046   0.00470474
6922.00   0.52070910   0.00478094
6924.00   0.51759803   0.00473224
6926.00   0.51119381   0.00454538
6928.00   0.50563735   0.00438129
6930.00   0.50150514   0.00429505
6932.00   0.49874729   0.00425031
6934.00   0.50024766   0.00423029
6936.00   0.50959951   0.00418775
6938.00   0.50832653   0.00433601
6940.00   0.49465263   0.00472038
6942.00   0.48976675   0.00496918
6944.00   0.50056428   0.00488197
6946.00   0.51398605   0.00488728
6948.00   0.51301455   0.00566960
6950.00   0.50256205   0.00704426
6952.00   0.49543548   0.00723020
6954.00   0.48372471   0.00663749
6956.00   0.47913009   0.00602137
6958.00   0.48305637   0.00507319
6960.00   0.48934352   0.00408498
6962.00   0.49419716   0.00377347
6964.00   0.49990386   0.00404808
6966.00   0.49882925   0.00405866
6968.00   0.48956028   0.00405818
6970.00   0.48489466   0.00415117
6972.00   0.48199198   0.00437936
6974.00   0.48128316   0.00456162
6976.00   0.48407200   0.00463635
6978.00   0.48926947   0.00464581
6980.00   0.49151066   0.00454973
6982.00   0.49333587   0.00422717
6984.00   0.49266729   0.00410272
6986.00   0.48865804   0.00411353
6988.00   0.48526639   0.00412611
6990.00   0.48300934   0.00412090
6992.00   0.48163611   0.00410981
6994.00   0.48257989   0.00405723
6996.00   0.48741242   0.00393717
6998.00   0.48678601   0.00391788
7000.00   0.48099923   0.00398134
7002.00   0.47761014   0.00403153
7004.00   0.47420296   0.00405388
7006.00   0.47510907   0.00408642
7008.00   0.48553801   0.00410785
7010.00   0.50009394   0.00401555
7012.00   0.54181832   0.00459463
7014.00   0.63799483   0.00586720
7016.00   0.68074292   0.00642821
7018.00   0.66938895   0.00649254
7020.00   0.64255482   0.00641564
7022.00   0.62067252   0.00637614
7024.00   0.59299403   0.00628224
7026.00   0.57918638   0.00617031
7028.00   0.55974323   0.00581124
7030.00   0.57634884   0.00590375
7032.00   0.65236503   0.00656907
7034.00   0.70160508   0.00698865
7036.00   0.68499649   0.00692072
7038.00   0.63189393   0.00657021
7040.00   0.58166742   0.00608428
7042.00   0.49599540   0.00502118
7044.00   0.46009195   0.00444720
7046.00   0.46107385   0.00426116
7048.00   0.46386442   0.00418009
7050.00   0.46453121   0.00422790
7052.00   0.46700433   0.00434223
7054.00   0.46827239   0.00429395
7056.00   0.47027236   0.00414462
7058.00   0.46934927   0.00403177
7060.00   0.46483347   0.00386981
7062.00   0.46214315   0.00378315
7064.00   0.46166819   0.00380593
7066.00   0.46170431   0.00385586
7068.00   0.46081334   0.00384158
7070.00   0.45943704   0.00378337
7072.00   0.45955512   0.00388018
7074.00   0.46150324   0.00411968
7076.00   0.46216142   0.00430317
7078.00   0.46167982   0.00453263
7080.00   0.46103689   0.00465242
7082.00   0.46093836   0.00453125
7084.00   0.46098334   0.00423522
7086.00   0.45957792   0.00409563
7088.00   0.45646831   0.00402428
7090.00   0.45434722   0.00395345
7092.00   0.45384532   0.00389805
7094.00   0.45140541   0.00387000
7096.00   0.44270313   0.00380740
7098.00   0.43313390   0.00380023
7100.00   0.43862805   0.00416351
7102.00   0.46083540   0.00500584
7104.00   0.46986708   0.00515218
7106.00   0.47575915   0.00486177
7108.00   0.47564822   0.00454406
7110.00   0.46525645   0.00415774
7112.00   0.45265245   0.00376297
7114.00   0.45113674   0.00365467
7116.00   0.45774233   0.00380431
7118.00   0.45765403   0.00384963
7120.00   0.45452815   0.00391151
7122.00   0.45156384   0.00397067
7124.00   0.44769576   0.00405547
7126.00   0.44452459   0.00410681
7128.00   0.44352338   0.00405280
7130.00   0.44387215   0.00391113
7132.00   0.44742537   0.00388645
7134.00   0.45723554   0.00395505
7136.00   0.46150634   0.00397756
7138.00   0.46208346   0.00397683
7140.00   0.46043015   0.00396850
7142.00   0.45644996   0.00395833
7144.00   0.45040151   0.00394262
7146.00   0.44586220   0.00391569
7148.00   0.44004247   0.00386680
7150.00   0.43802530   0.00383795
7152.00   0.43987474   0.00381727
7154.00   0.44145688   0.00380532
7156.00   0.44146115   0.00380281
7158.00   0.44134092   0.00380887
7160.00   0.44294268   0.00381892
7162.00   0.44591081   0.00381315
7164.00   0.44868609   0.00388465
7166.00   0.45402700   0.00404409
7168.00   0.45525989   0.00416421
7170.00   0.44994879   0.00425763
7172.00   0.44346261   0.00431538
7174.00   0.44233805   0.00430168
7176.00   0.44461191   0.00422149
7178.00   0.44426543   0.00414931
7180.00   0.44308078   0.00402131
7182.00   0.44156229   0.00395633
7184.00   0.43844149   0.00396769
7186.00   0.43651581   0.00399094
7188.00   0.43881169   0.00398673
7190.00   0.44405952   0.00397518
7192.00   0.44426778   0.00393855
7194.00   0.43859875   0.00382442
7196.00   0.43870381   0.00382079
7198.00   0.44382310   0.00390248
7200.00   0.44889727   0.00401977
7202.00   0.45322388   0.00419665
7204.00   0.45665953   0.00438844
7206.00   0.45317370   0.00438313
7208.00   0.44026741   0.00419634
7210.00   0.43461144   0.00405116
7212.00   0.43125129   0.00378618
7214.00   0.43017823   0.00365285
7216.00   0.43226567   0.00377137
7218.00   0.43599227   0.00397301
7220.00   0.43821046   0.00402027
7222.00   0.44004181   0.00396972
7224.00   0.44214526   0.00403186
7226.00   0.44476518   0.00408173
7228.00   0.44655856   0.00428614
7230.00   0.44715190   0.00466354
7232.00   0.44754511   0.00508047
7234.00   0.44941443   0.00540537
7236.00   0.45294309   0.00566013
7238.00   0.44939339   0.00626488
7240.00   0.43900383   0.00740664
7242.00   0.43008259   0.00781498
7244.00   0.41889569   0.00771199
7246.00   0.41099408   0.00733061
7248.00   0.41135550   0.00662952
7250.00   0.41723162   0.00549401
7252.00   0.41867563   0.00487735
7254.00   0.41778448   0.00477625
7256.00   0.41912141   0.00453726
7258.00   0.42288125   0.00427004
7260.00   0.42540798   0.00416544
7262.00   0.42470786   0.00432460
7264.00   0.42284241   0.00463926
7266.00   0.42418811   0.00493076
7268.00   0.42628208   0.00529023
7270.00   0.43229309   0.00558426
7272.00   0.44815046   0.00588884
7274.00   0.45414475   0.00611813
7276.00   0.44457170   0.00632052
7278.00   0.42976868   0.00642332
7280.00   0.42199361   0.00626195
7282.00   0.41485152   0.00580617
7284.00   0.41604942   0.00551356
7286.00   0.42936036   0.00524413
7288.00   0.43588215   0.00499705
7290.00   0.43436325   0.00474699
7292.00   0.43210328   0.00456234
7294.00   0.43537992   0.00452024
7296.00   0.44201568   0.00459738
7298.00   0.44126916   0.00472990
7300.00   0.43485945   0.00503961
7302.00   0.42880949   0.00517476
7304.00   0.41697413   0.00513677
7306.00   0.41169301   0.00512723
7308.00   0.42307699   0.00524803
7310.00   0.44401568   0.00543152
7312.00   0.44958296   0.00560734
7314.00   0.44798636   0.00593740
7316.00   0.44155154   0.00595433
7318.00   0.42259592   0.00566646
7320.00   0.41029775   0.00541001
7322.00   0.41150144   0.00528154
7324.00   0.41848692   0.00520668
7326.00   0.41990653   0.00515027
7328.00   0.41675594   0.00509450
7330.00   0.42356113   0.00518119
7332.00   0.44176999   0.00536692
7334.00   0.45413995   0.00562885
7336.00   0.46123254   0.00608737
7338.00   0.46294397   0.00646348
7340.00   0.45483655   0.00641949
7342.00   0.43552625   0.00605152
7344.00   0.42792347   0.00574597
7346.00   0.42753240   0.00528119
7348.00   0.42539644   0.00489879
7350.00   0.42049450   0.00450553
7352.00   0.41812190   0.00427986
7354.00   0.42273697   0.00444020
7356.00   0.43240494   0.00487659
7358.00   0.43902799   0.00521675
7360.00   0.44787291   0.00571304
7362.00   0.45079666   0.00593144
7364.00   0.45164311   0.00592438
7366.00   0.44532561   0.00588455
7368.00   0.42560053   0.00589803
7370.00   0.39858392   0.00590177
7372.00   0.38707510   0.00580473
7374.00   0.38092095   0.00569772
7376.00   0.38651949   0.00535674
7378.00   0.41221091   0.00450002
7380.00   0.42938226   0.00388954
7382.00   0.43098032   0.00394605
7384.00   0.42636755   0.00430065
7386.00   0.42537540   0.00449779
7388.00   0.42355165   0.00476096
7390.00   0.42353350   0.00486895
7392.00   0.42559046   0.00480394
7394.00   0.42647249   0.00485163
7396.00   0.42565322   0.00507430
7398.00   0.42471409   0.00528327
7400.00   0.42563227   0.00531735
7402.00   0.42830130   0.00524802
7404.00   0.42569810   0.00513633
7406.00   0.41707534   0.00493221
7408.00   0.41204190   0.00470754
7410.00   0.40911147   0.00438247
7412.00   0.40790653   0.00409609
7414.00   0.40883264   0.00398961
7416.00   0.41166118   0.00400809
7418.00   0.41404384   0.00396364
7420.00   0.41619512   0.00386645
7422.00   0.42011273   0.00389967
7424.00   0.42814112   0.00402534
7426.00   0.43269974   0.00420893
7428.00   0.43042961   0.00447102
7430.00   0.42442447   0.00475936
7432.00   0.41978869   0.00492471
7434.00   0.41392305   0.00506808
7436.00   0.40945992   0.00506065
7438.00   0.40405566   0.00485332
7440.00   0.40213749   0.00469263
7442.00   0.40566406   0.00465127
7444.00   0.41109931   0.00461466
7446.00   0.41336828   0.00441801
7448.00   0.41411510   0.00402313
7450.00   0.41582716   0.00392610
7452.00   0.41694888   0.00411888
7454.00   0.41981077   0.00419619
7456.00   0.42609704   0.00413118
7458.00   0.43152636   0.00408614
7460.00   0.43199509   0.00419396
7462.00   0.42917356   0.00439354
7464.00   0.42632082   0.00457575
7466.00   0.41888055   0.00471364
7468.00   0.41794398   0.00499857
7470.00   0.42591754   0.00554032
7472.00   0.43124190   0.00589822
7474.00   0.42684469   0.00587309
7476.00   0.41722083   0.00561707
7478.00   0.41212392   0.00542086
7480.00   0.40650886   0.00508623
7482.00   0.40564901   0.00490399
7484.00   0.40858373   0.00485373
7486.00   0.41390917   0.00480330
7488.00   0.42477921   0.00473776
7490.00   0.43608731   0.00465742
7492.00   0.43265501   0.00447993
7494.00   0.41393048   0.00411864
7496.00   0.40704909   0.00402469
7498.00   0.40596280   0.00406069
7500.00   0.40408537   0.00426248
7502.00   0.40039828   0.00476771
7504.00   0.39726964   0.00521330
7506.00   0.39684051   0.00520371
7508.00   0.39809173   0.00485638
7510.00   0.40175590   0.00465969
7512.00   0.40928903   0.00433309
7514.00   0.41546482   0.00425277
7516.00   0.42257169   0.00445460
7518.00   0.42695647   0.00474715
7520.00   0.42490783   0.00505402
7522.00   0.41804242   0.00541207
7524.00   0.41195425   0.00553257
7526.00   0.40005207   0.00550461
7528.00   0.39756432   0.00541028
7530.00   0.40454546   0.00516273
7532.00   0.41193187   0.00491423
7534.00   0.41746920   0.00474618
7536.00   0.42196921   0.00461133
7538.00   0.41880774   0.00446381
7540.00   0.40461755   0.00431757
7542.00   0.39953908   0.00418453
7544.00   0.39870355   0.00403925
7546.00   0.39903688   0.00394711
7548.00   0.39986071   0.00392421
7550.00   0.40201348   0.00395780
7552.00   0.40659013   0.00404763
7554.00   0.41526571   0.00423153
7556.00   0.41793692   0.00430609
7558.00   0.41551811   0.00431455
7560.00   0.41463318   0.00432762
7562.00   0.41517627   0.00429399
7564.00   0.41647950   0.00431260
7566.00   0.41904315   0.00452730
7568.00   0.42334491   0.00488932
7570.00   0.42323092   0.00507894
7572.00   0.41888639   0.00529832
7574.00   0.41606584   0.00527908
7576.00   0.41355535   0.00492490
7578.00   0.41195175   0.00454203
7580.00   0.41197664   0.00437253
7582.00   0.41324952   0.00431359
7584.00   0.41466966   0.00429215
7586.00   0.41629136   0.00429132
7588.00   0.41919956   0.00445566
7590.00   0.42432496   0.00468662
7592.00   0.42847577   0.00509318
7594.00   0.43043932   0.00559057
7596.00   0.43121290   0.00623352
7598.00   0.43181214   0.00730592
7600.00   0.43024963   0.00883150
7602.00   0.43262997   0.00969874
7604.00   0.43855765   0.01061947
7606.00   0.44392321   0.01087353
7608.00   0.45172772   0.01017908
7610.00   0.45626298   0.00900137
7612.00   0.44504461   0.00821498
7614.00   0.41745210   0.00747332
7616.00   0.40530285   0.00686402
7618.00   0.40057558   0.00625712
7620.00   0.39710227   0.00611970
7622.00   0.39238530   0.00672805
7624.00   0.39331648   0.00736079
7626.00   0.40928268   0.00751421
7628.00   0.43870911   0.00745129
7630.00   0.44623366   0.00732521
7632.00   0.43596414   0.00701201
7634.00   0.43247750   0.00671158
7636.00   0.43228164   0.00630111
7638.00   0.43199915   0.00596851
7640.00   0.43011734   0.00590131
7642.00   0.42758128   0.00599773
7644.00   0.42647147   0.00588038
7646.00   0.42377001   0.00558161
7648.00   0.42711481   0.00541600
7650.00   0.43913171   0.00530475
7652.00   0.44693026   0.00524248
7654.00   0.44633812   0.00524552
7656.00   0.44161543   0.00529066
7658.00   0.43749216   0.00531451
7660.00   0.42937717   0.00538230
7662.00   0.42892101   0.00532195
7664.00   0.43850476   0.00511599
7666.00   0.44083831   0.00495434
7668.00   0.43133241   0.00484834
7670.00   0.41982654   0.00477877
7672.00   0.41786313   0.00475983
7674.00   0.42195299   0.00480657
7676.00   0.42268577   0.00478657
7678.00   0.42287704   0.00474613
7680.00   0.42317262   0.00467212
7682.00   0.42266309   0.00449565
7684.00   0.42325097   0.00437225
7686.00   0.42739606   0.00447661
7688.00   0.43424061   0.00473156
7690.00   0.43544111   0.00477915
7692.00   0.43219393   0.00465864
7694.00   0.42982876   0.00465304
7696.00   0.42805907   0.00467660
7698.00   0.42454356   0.00478604
7700.00   0.41537654   0.00502761
7702.00   0.40444139   0.00534163
7704.00   0.40876907   0.00558361
7706.00   0.43121371   0.00566894
7708.00   0.44051191   0.00608250
7710.00   0.45025226   0.00683624
7712.00   0.44838220   0.00735065
7714.00   0.42563865   0.00759241
7716.00   0.39638528   0.00767269
7718.00   0.38853416   0.00760724
7720.00   0.39591581   0.00738040
7722.00   0.39555526   0.00701365
7724.00   0.39351776   0.00628641
7726.00   0.39297420   0.00569511
7728.00   0.39449227   0.00528231
7730.00   0.39648122   0.00501172
7732.00   0.39677098   0.00493704
7734.00   0.39527002   0.00511176
7736.00   0.40094543   0.00503696
7738.00   0.41724259   0.00456017
7740.00   0.42415306   0.00465089
7742.00   0.42259729   0.00533542
7744.00   0.41828045   0.00601993
7746.00   0.41370776   0.00652773
7748.00   0.40756875   0.00698625
7750.00   0.40307331   0.00710591
7752.00   0.39896244   0.00690838
7754.00   0.39571333   0.00672906
7756.00   0.39278874   0.00645190
7758.00   0.39129126   0.00613550
7760.00   0.39164522   0.00576921
7762.00   0.39351270   0.00536706
7764.00   0.39667678   0.00509642
7766.00   0.40384969   0.00492532
7768.00   0.40513331   0.00481450
7770.00   0.39955860   0.00472177
7772.00   0.39834079   0.00482384
7774.00   0.40556452   0.00519871
7776.00   0.41419041   0.00565123
7778.00   0.41428158   0.00598448
7780.00   0.40858591   0.00637043
7782.00   0.40423718   0.00637234
7784.00   0.39776337   0.00580620
7786.00   0.39285561   0.00564363
7788.00   0.39005253   0.00599688
7790.00   0.38738477   0.00643764
7792.00   0.38193193   0.00672273
7794.00   0.37387145   0.00699578
7796.00   0.37743437   0.00700989
7798.00   0.39203787   0.00669380
7800.00   0.40442264   0.00654501
7802.00   0.42340720   0.00656301
7804.00   0.43349686   0.00652510
7806.00   0.42130652   0.00627709
7808.00   0.39562902   0.00589800
7810.00   0.38931602   0.00569972
7812.00   0.39338881   0.00551282
7814.00   0.39890587   0.00557765
7816.00   0.41071296   0.00573574
7818.00   0.42234728   0.00620795
7820.00   0.43454883   0.00724723
7822.00   0.44508243   0.00827810
7824.00   0.44380277   0.00835765
7826.00   0.43236488   0.00773245
7828.00   0.42001894   0.00715507
7830.00   0.39698797   0.00597124
7832.00   0.38346580   0.00511886
7834.00   0.38382789   0.00503864
7836.00   0.38875258   0.00526604
7838.00   0.38757271   0.00523336
7840.00   0.38278195   0.00511687
7842.00   0.38756830   0.00532397
7844.00   0.40165862   0.00574013
7846.00   0.41286677   0.00621824
7848.00   0.42634046   0.00686923
7850.00   0.43387875   0.00741741
7852.00   0.42655990   0.00770397
7854.00   0.40803087   0.00784670
7856.00   0.39362022   0.00782918
7858.00   0.37121075   0.00753859
7860.00   0.36320373   0.00735466
7862.00   0.36706993   0.00714159
7864.00   0.37654486   0.00703655
7866.00   0.39255264   0.00718488
7868.00   0.41300446   0.00745573
7870.00   0.41936752   0.00742257
7872.00   0.41349250   0.00715184
7874.00   0.41208452   0.00693929
7876.00   0.40799400   0.00653309
7878.00   0.40735796   0.00637440
7880.00   0.41479281   0.00671796
7882.00   0.42326519   0.00718499
7884.00   0.41861656   0.00721192
7886.00   0.40203848   0.00697703
7888.00   0.39399746   0.00673703
7890.00   0.39018613   0.00629718
7892.00   0.38457039   0.00594813
7894.00   0.37459236   0.00571757
7896.00   0.36629960   0.00555562
7898.00   0.36581433   0.00540217
7900.00   0.36995420   0.00523510
7902.00   0.38278905   0.00549124
7904.00   0.41127512   0.00593462
7906.00   0.42946765   0.00669239
7908.00   0.44105500   0.00791663
7910.00   0.44725123   0.00888314
7912.00   0.44887605   0.00934740
7914.00   0.44555309   0.00955225
7916.00   0.42948443   0.00939051
7918.00   0.38854265   0.00868066
7920.00   0.37153631   0.00804633
7922.00   0.37204176   0.00712420
7924.00   0.37507138   0.00634761
7926.00   0.37650573   0.00609266
7928.00   0.37887311   0.00614688
7930.00   0.37979409   0.00593090
7932.00   0.37886035   0.00557867
7934.00   0.38089100   0.00535372
7936.00   0.38519254   0.00513137
7938.00   0.38962933   0.00506963
7940.00   0.39547423   0.00527674
7942.00   0.40029582   0.00555717
7944.00   0.39855245   0.00563911
7946.00   0.39018804   0.00562645
7948.00   0.38761500   0.00559859
7950.00   0.38576898   0.00543619
7952.00   0.38813210   0.00542085
7954.00   0.39818072   0.00552303
7956.00   0.40758029   0.00574661
7958.00   0.40849978   0.00615959
7960.00   0.40458804   0.00673546
7962.00   0.39528811   0.00697687
7964.00   0.37677515   0.00707246
7966.00   0.36181635   0.00704048
7968.00   0.34185457   0.00677277
7970.00   0.33201537   0.00651441
7972.00   0.34628004   0.00642252
7974.00   0.37556335   0.00641719
7976.00   0.38244170   0.00644477
7978.00   0.37351343   0.00668820
7980.00   0.37098217   0.00659627
7982.00   0.36619750   0.00599763
7984.00   0.36616963   0.00570978
7986.00   0.37577718   0.00616050
7988.00   0.38898465   0.00685823
7990.00   0.39240023   0.00716760
7992.00   0.39169562   0.00743046
7994.00   0.38456896   0.00737645
7996.00   0.36433488   0.00701079
7998.00   0.35239941   0.00652466
8000.00   0.35121933   0.00572155
8002.00   0.35541466   0.00483235
8004.00   0.36176240   0.00455285
8006.00   0.37350288   0.00478454
8008.00   0.37856027   0.00504620
8010.00   0.37811416   0.00569917
8012.00   0.38042670   0.00598760
8014.00   0.38442189   0.00581560
8016.00   0.39016691   0.00572380
8018.00   0.40048346   0.00619404
8020.00   0.41503125   0.00695223
8022.00   0.41296712   0.00730879
8024.00   0.39363289   0.00761464
8026.00   0.38200921   0.00761905
8028.00   0.37405923   0.00733011
8030.00   0.36609662   0.00685342
8032.00   0.35463339   0.00609219
8034.00   0.34280238   0.00502046
8036.00   0.34368497   0.00441540
8038.00   0.35919067   0.00428353
8040.00   0.36671969   0.00414401
8042.00   0.37469789   0.00421307
8044.00   0.37826562   0.00434731
8046.00   0.37354255   0.00453954
8048.00   0.36638474   0.00476976
8050.00   0.36912215   0.00495720
8052.00   0.38211668   0.00513098
8054.00   0.38139087   0.00531272
8056.00   0.36913577   0.00543680
8058.00   0.36081183   0.00567700
8060.00   0.35615623   0.00621125
8062.00   0.35403064   0.00659816
8064.00   0.35546026   0.00635095
8066.00   0.36063918   0.00552518
8068.00   0.36437449   0.00504969
8070.00   0.36673629   0.00458595
8072.00   0.37279680   0.00432563
8074.00   0.38533166   0.00439815
8076.00   0.39581159   0.00451810
8078.00   0.39765617   0.00448423
8080.00   0.39415860   0.00439814
8082.00   0.39388445   0.00443393
8084.00   0.39444211   0.00459649
8086.00   0.39396033   0.00466518
8088.00   0.39250815   0.00466657
8090.00   0.39111143   0.00467960
8092.00   0.38914740   0.00470547
8094.00   0.38761631   0.00475713
8096.00   0.39154869   0.00495356
8098.00   0.40472969   0.00539671
8100.00   0.40628597   0.00548883
8102.00   0.40187868   0.00531812
8104.00   0.39318603   0.00517864
8106.00   0.37383655   0.00513652
8108.00   0.35547355   0.00509784
8110.00   0.36199355   0.00496167
8112.00   0.39177686   0.00473320
8114.00   0.40215051   0.00456429
8116.00   0.40632683   0.00438943
8118.00   0.40493739   0.00426870
8120.00   0.39319995   0.00421329
8122.00   0.38143438   0.00419964
8124.00   0.38076842   0.00419992
8126.00   0.38683856   0.00421955
8128.00   0.39150390   0.00434036
8130.00   0.39890319   0.00456780
8132.00   0.40446883   0.00476932
8134.00   0.40926972   0.00499863
8136.00   0.41279376   0.00518392
8138.00   0.41601479   0.00528500
8140.00   0.41810992   0.00533249
8142.00   0.40984342   0.00536574
8144.00   0.38722250   0.00539982
8146.00   0.37445208   0.00534089
8148.00   0.36216664   0.00518457
8150.00   0.35797223   0.00499928
8152.00   0.36844206   0.00475016
8154.00   0.38526902   0.00449142
8156.00   0.38792726   0.00448297
8158.00   0.37969804   0.00475387
8160.00   0.37900028   0.00480497
8162.00   0.38012257   0.00474460
8164.00   0.38337731   0.00470806
8166.00   0.39016166   0.00465112
8168.00   0.39775243   0.00465859
8170.00   0.40196893   0.00490159
8172.00   0.40417427   0.00533710
8174.00   0.40682554   0.00560926
8176.00   0.41024655   0.00586073
8178.00   0.41103384   0.00603625
8180.00   0.40863419   0.00613121
8182.00   0.40526828   0.00619062
8184.00   0.40305907   0.00619925
8186.00   0.40123078   0.00614193
8188.00   0.39514086   0.00644993
8190.00   0.37990329   0.00723078
8192.00   0.37637272   0.00753031
8194.00   0.38397220   0.00759954
8196.00   0.39267027   0.00743528
8198.00   0.39920571   0.00688503
8200.00   0.40518233   0.00599634
8202.00   0.40579751   0.00552560
8204.00   0.39904645   0.00534534
8206.00   0.39759412   0.00519769
8208.00   0.39858285   0.00523233
8210.00   0.39963296   0.00528726
8212.00   0.40046069   0.00536833
8214.00   0.40122646   0.00544370
8216.00   0.40158859   0.00537058
8218.00   0.40334475   0.00515035
8220.00   0.39892480   0.00500946
8222.00   0.38435563   0.00486610
8224.00   0.37826028   0.00475884
8226.00   0.38384634   0.00469849
8228.00   0.39262116   0.00466568
8230.00   0.39695787   0.00464573
8232.00   0.40079924   0.00465534
8234.00   0.39929363   0.00461686
8236.00   0.38896856   0.00450057
8238.00   0.38558725   0.00447515
8240.00   0.39006719   0.00454243
8242.00   0.39441314   0.00463701
8244.00   0.39405584   0.00471010
8246.00   0.39135197   0.00478514
8248.00   0.38456547   0.00495928
8250.00   0.36751634   0.00526130
8252.00   0.36244801   0.00545399
8254.00   0.36552712   0.00570569
8256.00   0.37263256   0.00574611
8258.00   0.38529462   0.00537384
8260.00   0.40084031   0.00472635
8262.00   0.40499282   0.00439961
8264.00   0.40105763   0.00409255
8266.00   0.39626673   0.00425482
8268.00   0.38735947   0.00466935
8270.00   0.37743556   0.00542070
8272.00   0.36241174   0.00665180
8274.00   0.34982994   0.00777024
8276.00   0.35601589   0.00812069
8278.00   0.37968895   0.00785619
8280.00   0.39315918   0.00828279
8282.00   0.41191897   0.00935524
8284.00   0.41553012   0.00979599
8286.00   0.39499900   0.00954962
8288.00   0.37366596   0.00912898
8290.00   0.37630865   0.00899857
8292.00   0.39465666   0.00897708
8294.00   0.39632103   0.00882833
8296.00   0.39076224   0.00861543
8298.00   0.38200611   0.00837291
8300.00   0.36135468   0.00808379
8302.00   0.34835202   0.00776022
8304.00   0.35904327   0.00739483
8306.00   0.38372093   0.00698547
8308.00   0.38754967   0.00663290
8310.00   0.37620196   0.00630583
8312.00   0.37166730   0.00601129
8314.00   0.36873087   0.00576335
8316.00   0.36557248   0.00554073
8318.00   0.35996932   0.00533801
8320.00   0.35487950   0.00516510
8322.00   0.35882971   0.00502581
8324.00   0.37388784   0.00486753
8326.00   0.37871435   0.00491470
8328.00   0.37794960   0.00520152
8330.00   0.37690786   0.00541304
8332.00   0.37666169   0.00498072
8334.00   0.37508208   0.00503596
8336.00   0.36892390   0.00719417
8338.00   0.35663530   0.01022888
8340.00   0.35614941   0.01124532
8342.00   0.37658164   0.01147329
8344.00   0.37249315   0.01150275
8346.00   0.33150363   0.01117549
8348.00   0.29414114   0.01068798
8350.00   0.29510272   0.01028575
8352.00   0.31964213   0.00986300
8354.00   0.33493802   0.00912306
8356.00   0.35563135   0.00765606
8358.00   0.37023306   0.00675317
8360.00   0.38301659   0.00650013
8362.00   0.38937470   0.00643933
8364.00   0.38433677   0.00640917
8366.00   0.37198147   0.00648900
8368.00   0.36852255   0.00637520
8370.00   0.36763802   0.00599910
8372.00   0.37095502   0.00593843
8374.00   0.38287279   0.00610131
8376.00   0.38996303   0.00629168
8378.00   0.38753358   0.00649995
8380.00   0.38142413   0.00671287
8382.00   0.38001433   0.00684245
8384.00   0.38021347   0.00699266
8386.00   0.38120916   0.00687154
8388.00   0.38164759   0.00605626
8390.00   0.38625303   0.00600076
8392.00   0.39687195   0.00701744
8394.00   0.40927905   0.00814738
8396.00   0.42091230   0.00886245
8398.00   0.43669713   0.00957140
8400.00   0.42740971   0.00949043
8402.00   0.38307619   0.00847243
8404.00   0.36434010   0.00768717
8406.00   0.37093213   0.00680400
8408.00   0.38164324   0.00623149
8410.00   0.38447055   0.00660972
8412.00   0.38551584   0.00759295
8414.00   0.38397858   0.00791307
8416.00   0.37495980   0.00804231
8418.00   0.37541199   0.00801760
8420.00   0.38123909   0.00747729
8422.00   0.39249125   0.00732746
8424.00   0.41421044   0.00805681
8426.00   0.44023693   0.00913465
8428.00   0.44519198   0.00988904
8430.00   0.43600813   0.01111373
8432.00   0.42150867   0.01093410
8434.00   0.38857272   0.00922309
8436.00   0.36675823   0.00754986
8438.00   0.36021844   0.00624159
8440.00   0.36365953   0.00521177
8442.00   0.37797555   0.00508789
8444.00   0.41352686   0.00603529
8446.00   0.41527966   0.00658038
8448.00   0.38841933   0.00747461
8450.00   0.36916265   0.00778590
8452.00   0.34962538   0.00722887
8454.00   0.34044847   0.00668013
8456.00   0.36268356   0.00713385
8458.00   0.41391703   0.00807339
8460.00   0.42036229   0.00930335
8462.00   0.39173296   0.01146290
8464.00   0.37454838   0.01219744
8466.00   0.35966918   0.01198940
8468.00   0.34866622   0.01125685
8470.00   0.34382135   0.00987963
8472.00   0.34387985   0.00756175
8474.00   0.34812856   0.00610667
8476.00   0.36146960   0.00550709
8478.00   0.36842868   0.00493587
8480.00   0.37500301   0.00492484
8482.00   0.37612650   0.00504622
8484.00   0.36792174   0.00513603
8486.00   0.35499430   0.00533389
8488.00   0.34849077   0.00578262
8490.00   0.34471020   0.00658297
8492.00   0.34158704   0.00689613
8494.00   0.33793765   0.00689814
8496.00   0.33897483   0.00695661
8498.00   0.34855002   0.00710435
8500.00   0.35925674   0.00727133
8502.00   0.36071327   0.00745207
8504.00   0.35764813   0.00772112
8506.00   0.34761313   0.00763246
8508.00   0.32150218   0.00720735
8510.00   0.30953062   0.00677201
8512.00   0.31227306   0.00624535
8514.00   0.32045624   0.00567986
8516.00   0.32978168   0.00515035
8518.00   0.34325448   0.00460995
8520.00   0.34505257   0.00429507
8522.00   0.33350328   0.00426405
8524.00   0.33115497   0.00424917
8526.00   0.33605233   0.00429113
8528.00   0.34109864   0.00443432
8530.00   0.34370846   0.00472619
8532.00   0.34529176   0.00509598
8534.00   0.34410661   0.00531274
8536.00   0.33798474   0.00537455
8538.00   0.33636308   0.00561479
8540.00   0.33809638   0.00596102
8542.00   0.33883393   0.00630479
8544.00   0.33823344   0.00674955
8546.00   0.33623800   0.00711053
8548.00   0.33072811   0.00692680
8550.00   0.32189909   0.00612309
8552.00   0.31254709   0.00568011
8554.00   0.29641762   0.00537314
8556.00   0.28935927   0.00504534
8558.00   0.29473773   0.00460326
8560.00   0.30435777   0.00423319
8562.00   0.30977729   0.00424312
8564.00   0.31425476   0.00457255
8566.00   0.32072762   0.00479576
8568.00   0.33540547   0.00525587
8570.00   0.33601394   0.00529504
8572.00   0.31793991   0.00475609
8574.00   0.29987752   0.00419008
8576.00   0.29422176   0.00416968
8578.00   0.29475528   0.00446155
8580.00   0.30014524   0.00461506
8582.00   0.31953913   0.00479918
8584.00   0.32451335   0.00495970
8586.00   0.31404808   0.00491613
8588.00   0.30840871   0.00517895
8590.00   0.31890342   0.00607826
8592.00   0.33577526   0.00708777
8594.00   0.33677489   0.00729668
8596.00   0.32583350   0.00696643
8598.00   0.31827077   0.00668373
8600.00   0.30349746   0.00599386
8602.00   0.29844651   0.00558993
8604.00   0.31200558   0.00582998
8606.00   0.32978022   0.00623863
8608.00   0.32746527   0.00616031
8610.00   0.30938751   0.00564003
8612.00   0.30300149   0.00576351
8614.00   0.29953697   0.00645735
8616.00   0.29952523   0.00683759
8618.00   0.30528781   0.00687538
8620.00   0.31173909   0.00688575
8622.00   0.31357720   0.00713042
8624.00   0.31324154   0.00750144
8626.00   0.31026635   0.00774925
8628.00   0.29951590   0.00808611
8630.00   0.29771963   0.00812085
8632.00   0.30898175   0.00782806
8634.00   0.31594127   0.00743495
8636.00   0.30443507   0.00702638
8638.00   0.28268889   0.00654763
8640.00   0.28313026   0.00635631
8642.00   0.30117226   0.00606044
8644.00   0.31426850   0.00662236
8646.00   0.33425152   0.00823107
8648.00   0.34533262   0.00916520
8650.00   0.33996099   0.00911564
8652.00   0.32581946   0.00859995
8654.00   0.31665406   0.00831296
8656.00   0.30285910   0.00788401
8658.00   0.30184442   0.00772199
8660.00   0.31628928   0.00782088
8662.00   0.32334352   0.00788147
8664.00   0.31906998   0.00793071
8666.00   0.31085742   0.00791778
8668.00   0.30564573   0.00766694
8670.00   0.30062410   0.00714032
8672.00   0.29538098   0.00686298
8674.00   0.28977257   0.00672527
8676.00   0.28463709   0.00660290
8678.00   0.27664632   0.00652594
8680.00   0.27308616   0.00646474
8682.00   0.28343025   0.00640010
8684.00   0.30510020   0.00635262
8686.00   0.30841094   0.00614384
8688.00   0.29352352   0.00558774
8690.00   0.29200655   0.00541655
8692.00   0.30360645   0.00573181
8694.00   0.31237632   0.00594638
8696.00   0.30982533   0.00575341
8698.00   0.30149603   0.00534865
8700.00   0.29704615   0.00523563
8702.00   0.29124483   0.00532427
8704.00   0.29005301   0.00535298
8706.00   0.29018265   0.00535220
8708.00   0.29596311   0.00544353
8710.00   0.31273770   0.00575337
8712.00   0.33260110   0.00607152
8714.00   0.33693478   0.00597399
8716.00   0.32743770   0.00540277
8718.00   0.32836288   0.00528885
8720.00   0.33400550   0.00540158
8722.00   0.33922169   0.00562327
8724.00   0.34748206   0.00614162
8726.00   0.35212952   0.00653140
8728.00   0.34176263   0.00624139
8730.00   0.31752399   0.00527749
8732.00   0.30691797   0.00487794
8734.00   0.30164897   0.00481940
8736.00   0.29983497   0.00476165
8738.00   0.30393696   0.00478537
8740.00   0.30882451   0.00482702
8742.00   0.31072661   0.00481147
8744.00   0.31153712   0.00477344
8746.00   0.31106743   0.00482020
8748.00   0.31361490   0.00448332
8750.00   0.30535614   0.00515640
8752.00   0.28273481   0.00644617
8754.00   0.26343256   0.00773967
8756.00   0.25260550   0.00892846
8758.00   0.24763806   0.01011532
8760.00   0.25561637   0.01134736
8762.00   0.28494248   0.01300137
8764.00   0.29635507   0.01364242
8766.00   0.29740638   0.01378004
8768.00   0.29971367   0.01354813
8770.00   0.30615512   0.01268717
8772.00   0.31267312   0.01153990
8774.00   0.31499380   0.01116220
8776.00   0.31585437   0.01146655
8778.00   0.31013045   0.01112855
8780.00   0.28943861   0.01040533
8782.00   0.28363144   0.00964772
8784.00   0.29796371   0.00869579
8786.00   0.31641755   0.00776104
8788.00   0.32506570   0.00731064
8790.00   0.33047950   0.00731301
8792.00   0.32962498   0.00701344
8794.00   0.31602773   0.00663211
8796.00   0.31328684   0.00621973
8798.00   0.32079095   0.00566146
8800.00   0.32988068   0.00517155
8802.00   0.33639756   0.00495162
8804.00   0.34254122   0.00494148
8806.00   0.34656540   0.00503085
8808.00   0.35001159   0.00539381
8810.00   0.34979445   0.00554810
8812.00   0.34174803   0.00535682
8814.00   0.33913279   0.00554817
8816.00   0.34785634   0.00600233
8818.00   0.36217853   0.00688261
8820.00   0.37283593   0.00900545
8822.00   0.39232525   0.01213341
8824.00   0.38547823   0.01351741
8826.00   0.35205123   0.01455841
8828.00   0.32323542   0.01482276
8830.00   0.29754654   0.01401197
8832.00   0.27819657   0.01264720
8834.00   0.27889162   0.01167846
8836.00   0.29891038   0.01066307
8838.00   0.30938831   0.00996219
8840.00   0.31814063   0.00982861
8842.00   0.32928896   0.00936753
8844.00   0.34618449   0.00835777
8846.00   0.36029387   0.00732912
8848.00   0.36232951   0.00700408
8850.00   0.35533753   0.00722655
8852.00   0.35887438   0.00704345
8854.00   0.36652014   0.00655341
8856.00   0.37781566   0.00642948
8858.00   0.40055293   0.00654289
8860.00   0.41538090   0.00690065
8862.00   0.40968001   0.00763247
8864.00   0.39192188   0.00851530
8866.00   0.38286841   0.00876174
8868.00   0.37683299   0.00863398
8870.00   0.36795279   0.00839066
8872.00   0.35021508   0.00761084
8874.00   0.34463039   0.00714944
8876.00   0.35915241   0.00712217
8878.00   0.38438269   0.00759561
8880.00   0.40705779   0.00910690
8882.00   0.44098949   0.01173860
8884.00   0.44853777   0.01244005
8886.00   0.43585992   0.01223713
8888.00   0.41876209   0.01169700
8890.00   0.38902357   0.01039820
8892.00   0.36217400   0.00886307
8894.00   0.36404428   0.00846654
8896.00   0.38894692   0.00896756
8898.00   0.39841509   0.00912206
8900.00   0.41014504   0.00951121
8902.00   0.40780911   0.00956684
8904.00   0.38222024   0.00925329
8906.00   0.36030269   0.00883848
8908.00   0.36256367   0.00829746
8910.00   0.37916899   0.00754826
8912.00   0.39763388   0.00853813
8914.00   0.45122460   0.01062211
8916.00   0.44539902   0.01245813
8918.00   0.37006581   0.01511165
8920.00   0.30830979   0.01648967
8922.00   0.29601851   0.01594293
8924.00   0.30752221   0.01413784
8926.00   0.31473702   0.01242006
8928.00   0.33188188   0.00900361
8930.00   0.34503758   0.00706647
8932.00   0.35582331   0.00701768
8934.00   0.37129414   0.00731871
8936.00   0.39744872   0.00785360
8938.00   0.42450199   0.00856403
8940.00   0.43467477   0.00894062
8942.00   0.43509215   0.00927692
8944.00   0.42557925   0.00927231
8946.00   0.38753545   0.00856998
8948.00   0.37663084   0.00850995
8950.00   0.40312293   0.00922970
8952.00   0.43675169   0.01016162
8954.00   0.45185176   0.01102965
8956.00   0.46200967   0.01203721
8958.00   0.44754732   0.01231036
8960.00   0.39217201   0.01222023
8962.00   0.36764002   0.01166695
8964.00   0.37201357   0.01017292
8966.00   0.37976894   0.00852846
8968.00   0.37578201   0.00759862
8970.00   0.36823058   0.00714486
8972.00   0.37168637   0.00668269
8974.00   0.38530269   0.00651040
8976.00   0.39502963   0.00639108
8978.00   0.40587857   0.00624069
8980.00   0.41416278   0.00647468
8982.00   0.42066008   0.00722612
8984.00   0.42353103   0.00821357
8986.00   0.41276366   0.00915484
8988.00   0.37729302   0.01051544
8990.00   0.37443423   0.01083220
8992.00   0.39662501   0.01000344
8994.00   0.41599357   0.00982728
8996.00   0.43535078   0.01077890
8998.00   0.44883871   0.01192223
9000.00   0.43835208   0.01250930
9002.00   0.40486428   0.01306827
9004.00   0.38557446   0.01269418
9006.00   0.36097807   0.01097433
9008.00   0.35450611   0.00966301
9010.00   0.37052611   0.00886527
9012.00   0.39371905   0.00827768
9014.00   0.41373688   0.00774665
9016.00   0.43676820   0.00740374
9018.00   0.44416848   0.00700541
9020.00   0.43760648   0.00656234
9022.00   0.43174586   0.00632843
9024.00   0.42109758   0.00634691
9026.00   0.41196787   0.00643990
9028.00   0.40850139   0.00652121
9030.00   0.40806812   0.00663930
9032.00   0.40581572   0.00680654
9034.00   0.40386057   0.00705349
9036.00   0.40091059   0.00724589
9038.00   0.39679632   0.00740690
9040.00   0.39297491   0.00758201
9042.00   0.39051953   0.00778142
9044.00   0.38797832   0.00799268
9046.00   0.38215065   0.00822426
9048.00   0.37358660   0.00861664
9050.00   0.36522338   0.00854600
9052.00   0.35318857   0.00801026
9054.00   0.34616351   0.00753117
9056.00   0.34474677   0.00710209
9058.00   0.34722912   0.00673142
9060.00   0.35340503   0.00656692
9062.00   0.36492959   0.00662230
9064.00   0.37088230   0.00650610
9066.00   0.37393782   0.00625057
9068.00   0.37671810   0.00613391
9070.00   0.37847331   0.00620734
9072.00   0.38009763   0.00627592
9074.00   0.38193205   0.00615781
9076.00   0.38367167   0.00592117
9078.00   0.38931423   0.00603506
9080.00   0.39864373   0.00636893
9082.00   0.40791881   0.00677770
9084.00   0.42355874   0.00749211
9086.00   0.43120915   0.00792468
9088.00   0.42118183   0.00781669
9090.00   0.40168881   0.00740957
9092.00   0.39486447   0.00726494
9094.00   0.39123902   0.00709702
9096.00   0.39566675   0.00721061
9098.00   0.41669118   0.00769409
9100.00   0.42641833   0.00800528
9102.00   0.41565183   0.00811482
9104.00   0.39749509   0.00806807
9106.00   0.38997135   0.00774145
9108.00   0.38583139   0.00697666
9110.00   0.38548729   0.00656760
9112.00   0.39288145   0.00633216
9114.00   0.39588937   0.00617871
9116.00   0.39304262   0.00618395
9118.00   0.38917992   0.00621688
9120.00   0.38901055   0.00606947
9122.00   0.39131558   0.00576041
9124.00   0.38815296   0.00588354
9126.00   0.37929091   0.00646604
9128.00   0.37366253   0.00674472
9130.00   0.36790562   0.00687773
9132.00   0.36646023   0.00686300
9134.00   0.37429053   0.00660006
9136.00   0.38869521   0.00611726
9138.00   0.39542195   0.00595882
9140.00   0.40063268   0.00603180
9142.00   0.40037778   0.00607734
9144.00   0.39057225   0.00615392
9146.00   0.38473746   0.00627871
9148.00   0.38971037   0.00645800
9150.00   0.39883208   0.00667805
9152.00   0.39873293   0.00691623
9154.00   0.39122361   0.00723345
9156.00   0.38854688   0.00741452
9158.00   0.39023149   0.00761724
9160.00   0.38708586   0.00759933
9162.00   0.37520334   0.00722885
9164.00   0.36161590   0.00670710
9166.00   0.35633484   0.00639341
9168.00   0.35611486   0.00614849
9170.00   0.35607490   0.00602566
9172.00   0.35566676   0.00609055
9174.00   0.36124235   0.00612417
9176.00   0.37735763   0.00615204
9178.00   0.39242947   0.00616815
9180.00   0.39528108   0.00614807
9182.00   0.39041224   0.00610146
9184.00   0.38728833   0.00604833
9186.00   0.38063341   0.00593856
9188.00   0.37720230   0.00590933
9190.00   0.37462333   0.00597137
9192.00   0.37544841   0.00603116
9194.00   0.38294715   0.00604698
9196.00   0.39469540   0.00604282
9198.00   0.39886123   0.00601303
9200.00   0.39700294   0.00588462
9202.00   0.39803508   0.00590759
9204.00   0.40280667   0.00600686
9206.00   0.40221819   0.00619124
9208.00   0.39108348   0.00650461
9210.00   0.37596640   0.00685709
9212.00   0.36990461   0.00706173
9214.00   0.36682481   0.00721365
9216.00   0.37120602   0.00726253
9218.00   0.39040530   0.00708554
9220.00   0.39897889   0.00709379
9222.00   0.38976327   0.00742734
9224.00   0.37832084   0.00776606
9226.00   0.38314366   0.00776484
9228.00   0.39886484   0.00753319
9230.00   0.40840209   0.00737339
9232.00   0.42547688   0.00710007
9234.00   0.42469674   0.00697640
9236.00   0.39811206   0.00708948
9238.00   0.37218475   0.00716911
9240.00   0.36763498   0.00696424
9242.00   0.37486348   0.00656069
9244.00   0.37816599   0.00653337
9246.00   0.38619471   0.00691296
9248.00   0.38822341   0.00697790
9250.00   0.38432631   0.00677762
9252.00   0.38058937   0.00661635
9254.00   0.38104671   0.00664503
9256.00   0.38231209   0.00675888
9258.00   0.37470663   0.00680939
9260.00   0.35426873   0.00692763
9262.00   0.34706649   0.00684696
9264.00   0.34715292   0.00652124
9266.00   0.34956419   0.00627536
9268.00   0.35557055   0.00617740
9270.00   0.36247796   0.00617312
9272.00   0.36236247   0.00626406
9274.00   0.35616252   0.00648072
9276.00   0.35441208   0.00665007
9278.00   0.35317901   0.00683967
9280.00   0.35441491   0.00700614
9282.00   0.36096054   0.00715302
9284.00   0.36656475   0.00728289
9286.00   0.36245218   0.00738487
9288.00   0.34987098   0.00745285
9290.00   0.35200313   0.00759550
9292.00   0.36505949   0.00768020
9294.00   0.37708151   0.00800049
9296.00   0.38678509   0.00783328
9298.00   0.40208799   0.00875427
9300.00   0.43282744   0.01132949
9302.00   0.47378290   0.01438028
9304.00   0.48541844   0.01717443
9306.00   0.48187748   0.02083614
9308.00   0.46186242   0.02252907
9310.00   0.41658044   0.02307559
9312.00   0.37017584   0.02326816
9314.00   0.32606724   0.02328130
9316.00   0.28448483   0.02302315
9318.00   0.26518705   0.02266989
9320.00   0.25910753   0.02205194
9322.00   0.27263784   0.02151747
9324.00   0.32533363   0.02111185
9326.00   0.35599080   0.02039943
9328.00   0.34938103   0.01913042
9330.00   0.33153021   0.01760564
9332.00   0.33331230   0.01636723
9334.00   0.34504518   0.01506847
9336.00   0.35035890   0.01459310
9338.00   0.36115122   0.01525575
9340.00   0.35705757   0.01550303
9342.00   0.33006424   0.01551453
9344.00   0.30238768   0.01526552
9346.00   0.29421198   0.01451759
9348.00   0.29683954   0.01323565
9350.00   0.30178693   0.01218341
9352.00   0.31917951   0.01079737
9354.00   0.32571971   0.01002738
9356.00   0.32119188   0.01012175
9358.00   0.31756166   0.01033186
9360.00   0.32028374   0.00986696
9362.00   0.32632431   0.00926109
9364.00   0.33668512   0.01129801
9366.00   0.35425329   0.01318434
9368.00   0.36815867   0.01796640
9370.00   0.39066407   0.02513999
9372.00   0.39665565   0.02951692
9374.00   0.37706459   0.03145166
9376.00   0.34157357   0.03203359
9378.00   0.30132860   0.03112824
9380.00   0.22898896   0.02812998
9382.00   0.22126579   0.02499535
9384.00   0.27304301   0.01929220
9386.00   0.31321979   0.01411700
9388.00   0.34265468   0.01141356
9390.00   0.36264488   0.01049725
9392.00   0.36159393   0.00953277
9394.00   0.34181619   0.00975325
9396.00   0.32068291   0.01034901
9398.00   0.27298671   0.01221529
9400.00   0.25923026   0.01296405
9402.00   0.28039292   0.01262477
9404.00   0.31562486   0.01222500
9406.00   0.35911840   0.01264471
9408.00   0.41636714   0.01347677
9410.00   0.42398012   0.01336843
9412.00   0.38055909   0.01181963
9414.00   0.36061490   0.01189335
9416.00   0.35046765   0.01354177
9418.00   0.34227464   0.01492172
9420.00   0.33161378   0.01565370
9422.00   0.32225659   0.01606851
9424.00   0.32626742   0.01577549
9426.00   0.33957174   0.01388946
9428.00   0.36109269   0.01379573
9430.00   0.38916618   0.01455099
9432.00   0.42930627   0.01601471
9434.00   0.50914347   0.01818353
9436.00   0.58249098   0.02058721
9438.00   0.54350334   0.02280351
9440.00   0.39601099   0.02582340
9442.00   0.31936342   0.02586606
9444.00   0.24657661   0.02316347
9446.00   0.21118905   0.02048861
9448.00   0.22555651   0.01691782
9450.00   0.25956339   0.01361146
9452.00   0.28284898   0.01427990
9454.00   0.30994120   0.01789268
9456.00   0.33125073   0.01985816
9458.00   0.34994611   0.02280486
9460.00   0.36592606   0.02339036
9462.00   0.37887517   0.02146358
9464.00   0.38958997   0.01885708
9466.00   0.39509383   0.01650324
9468.00   0.39687231   0.01377076
9470.00   0.42143360   0.01483792
9472.00   0.48342773   0.01961157
9474.00   0.50424075   0.02204281
9476.00   0.51006895   0.02469201
9478.00   0.48375028   0.02569272
9480.00   0.39614534   0.02407878
9482.00   0.28202963   0.02060257
9484.00   0.25677511   0.01784183
9486.00   0.31017473   0.01396626
9488.00   0.31900945   0.01140243
9490.00   0.31685147   0.00995596
9492.00   0.31351942   0.01031813
9494.00   0.30616382   0.01305710
9496.00   0.30044949   0.01604525
9498.00   0.31117907   0.01760265
9500.00   0.34084934   0.01886267
9502.00   0.34291807   0.01923334
9504.00   0.31873143   0.01897715
9506.00   0.30861485   0.01807494
9508.00   0.32009673   0.01554534
9510.00   0.32807553   0.01290665
9512.00   0.30694970   0.01288886
9514.00   0.26431850   0.01466281
9516.00   0.25128824   0.01605817
9518.00   0.24947703   0.01869296
9520.00   0.26322240   0.01933987
9522.00   0.30238464   0.01809327
9524.00   0.34040108   0.01660888
9526.00   0.36190289   0.01594812
9528.00   0.37590033   0.01557590
9530.00   0.39288217   0.01490690
9532.00   0.42023039   0.01406475
9534.00   0.42079398   0.01325586
9536.00   0.39275888   0.01229187
9538.00   0.36870998   0.01150283
9540.00   0.35024709   0.01071829
9542.00   0.34046483   0.01034667
9544.00   0.36901748   0.01173290
9546.00   0.45656261   0.01424121
9548.00   0.47034892   0.01651943
9550.00   0.42977175   0.02007674
9552.00   0.39612260   0.02143375
9554.00   0.36385781   0.02008938
9556.00   0.34180686   0.01776445
9558.00   0.35810623   0.01691456
9560.00   0.41159371   0.01656818
9562.00   0.43219545   0.01720410
9564.00   0.43712291   0.01949049
9566.00   0.44260153   0.02051511
9568.00   0.45059869   0.02078544
9570.00   0.45174700   0.02036437
9572.00   0.43841752   0.01884763
9574.00   0.41386709   0.01602134
9576.00   0.38803700   0.01404248
9578.00   0.34407327   0.01207338
9580.00   0.32565010   0.01081120
9582.00   0.32900840   0.01084550
9584.00   0.33896494   0.01102885
9586.00   0.35157245   0.01076645
9588.00   0.36838788   0.01046043
9590.00   0.37893754   0.01069830
9592.00   0.38362023   0.01154978
9594.00   0.39408433   0.01194994
9596.00   0.41185760   0.01230610
9598.00   0.42314965   0.01241762
9600.00   0.42582297   0.01205855
9602.00   0.42183813   0.01157482
9604.00   0.40985715   0.01178905
9606.00   0.38723707   0.01261998
9608.00   0.36875242   0.01285329
9610.00   0.34434262   0.01272705
9612.00   0.33023879   0.01270671
9614.00   0.33067805   0.01267783
9616.00   0.33492684   0.01282576
9618.00   0.33292940   0.01354337
9620.00   0.33018735   0.01477776
9622.00   0.31774509   0.01494295
9624.00   0.28730574   0.01445293
9626.00   0.27400115   0.01373555
9628.00   0.27744120   0.01229080
9630.00   0.28499985   0.01088631
9632.00   0.29037231   0.01044319
9634.00   0.29684770   0.01065474
9636.00   0.29960626   0.01048224
9638.00   0.29626933   0.01023437
9640.00   0.30015895   0.01007144
9642.00   0.30655754   0.00974918
9644.00   0.31918755   0.00981485
9646.00   0.34216470   0.01056412
9648.00   0.37094164   0.01161180
9650.00   0.39180195   0.01234961
9652.00   0.41576514   0.01323030
9654.00   0.42077693   0.01350497
9656.00   0.40876114   0.01326532
9658.00   0.39303240   0.01299239
9660.00   0.37007591   0.01245377
9662.00   0.34698039   0.01208613
9664.00   0.34105110   0.01297270
9666.00   0.34902355   0.01490044
9668.00   0.35066336   0.01574323
9670.00   0.35263860   0.01608581
9672.00   0.35406175   0.01649360
9674.00   0.35598502   0.01673133
9676.00   0.35628045   0.01720418
9678.00   0.35244012   0.01859110
9680.00   0.34530115   0.02066728
9682.00   0.33852148   0.02061674
9684.00   0.33210033   0.01825998
9686.00   0.32216913   0.01712800
9688.00   0.29745468   0.01696037
9690.00   0.28767523   0.01709194
9692.00   0.31839806   0.01719077
9694.00   0.37315208   0.01744995
9696.00   0.38657326   0.01819447
9698.00   0.36735499   0.02013643
9700.00   0.36371881   0.02030469
9702.00   0.36236867   0.01888717
9704.00   0.36371723   0.01759686
9706.00   0.36350173   0.01698102
9708.00   0.36824614   0.01670931
9710.00   0.40089679   0.01681300
9712.00   0.49020833   0.01739681
9714.00   0.48224342   0.01795783
9716.00   0.37890199   0.01871549
9718.00   0.31055796   0.01942305
9720.00   0.28571430   0.02046192
9722.00   0.28435290   0.02109421
9724.00   0.30576575   0.02008190
9726.00   0.36203805   0.01722337
9728.00   0.37771717   0.01575120
9730.00   0.36805028   0.01475162
9732.00   0.36044344   0.01439095
9734.00   0.34779912   0.01500366
9736.00   0.33844259   0.01585920
9738.00   0.34400716   0.01651085
9740.00   0.36033255   0.01720965
9742.00   0.35779518   0.01729068
9744.00   0.33677524   0.01677360
9746.00   0.32851008   0.01635970
9748.00   0.32703239   0.01599424
9750.00   0.33009931   0.01540826
9752.00   0.34055048   0.01431960
9754.00   0.35515743   0.01284668
9756.00   0.35445487   0.01187836
9758.00   0.33561277   0.01114299
9760.00   0.33219329   0.01076405
9762.00   0.33559161   0.01101446
9764.00   0.34220949   0.01118104
9766.00   0.35100275   0.01100552
9768.00   0.36326090   0.01083569
9770.00   0.38275689   0.01122136
9772.00   0.42237476   0.01198484
9774.00   0.41600683   0.01275365
9776.00   0.34740415   0.01363885
9778.00   0.32505462   0.01455912
9780.00   0.37445012   0.01500690
9782.00   0.43096194   0.01605201
9784.00   0.42430595   0.01893041
9786.00   0.37534103   0.02287304
9788.00   0.36387902   0.02474643
9790.00   0.37594619   0.02576144
9792.00   0.37392068   0.02648746
9794.00   0.35443899   0.02715939
9796.00   0.33969897   0.02711554
9798.00   0.34783185   0.02559786
9800.00   0.36992517   0.02272549
9802.00   0.36833760   0.02103560
9804.00   0.34301695   0.01995558
9806.00   0.33688390   0.01894134
9808.00   0.34894833   0.01810144
9810.00   0.35415232   0.01765419
9812.00   0.34134933   0.01798365
9814.00   0.31988731   0.01865492
9816.00   0.30480823   0.01821495
9818.00   0.28609380   0.01668853
9820.00   0.28013939   0.01573962
9822.00   0.28876734   0.01463862
9824.00   0.29291469   0.01410466
9826.00   0.28804722   0.01466041
9828.00   0.28127319   0.01547513
9830.00   0.28027117   0.01532625
9832.00   0.28101286   0.01452354
9834.00   0.28834632   0.01402595
9836.00   0.30534437   0.01321840
9838.00   0.31816000   0.01304593
9840.00   0.33166930   0.01356469
9842.00   0.33791050   0.01446937
9844.00   0.32931790   0.01541810
9846.00   0.31102628   0.01639926
9848.00   0.26440760   0.01865652
9850.00   0.13589297   0.02319344
9852.00   0.11537513   0.02431799
9854.00   0.21814199   0.02253698
9856.00   0.31832990   0.02008567
9858.00   0.34443399   0.01796274
9860.00   0.33743528   0.01560335
9862.00   0.34952131   0.01574725
9864.00   0.37115192   0.01752022
9866.00   0.37269285   0.02052386
9868.00   0.35090342   0.02522649
9870.00   0.33609465   0.02879125
9872.00   0.34278858   0.03171417
9874.00   0.35492399   0.03368465
9876.00   0.34151915   0.03217839
9878.00   0.30529866   0.02568231
9880.00   0.28307483   0.02196956
9882.00   0.25262478   0.01893834
9884.00   0.24582751   0.01707376
9886.00   0.27854803   0.01712482
9888.00   0.31937638   0.01845058
9890.00   0.32501319   0.02014445
9892.00   0.30787009   0.02281967
9894.00   0.30402148   0.02366620
9896.00   0.31209219   0.02364861
9898.00   0.30092460   0.02307365
9900.00   0.25555995   0.02121813
9902.00   0.21887365   0.01937926
9904.00   0.23219565   0.01892779
9906.00   0.27950454   0.01930807
9908.00   0.28839722   0.02117252
9910.00   0.27929983   0.02482591
9912.00   0.26531252   0.02725757
9914.00   0.24456704   0.02983103
9916.00   0.21460308   0.03120809
9918.00   0.16266215   0.03069024
9920.00   0.10150023   0.02884475
9922.00   0.10082258   0.02704019
9924.00   0.15814619   0.02392772
9926.00   0.19665258   0.02182234
9928.00   0.24717778   0.01998513
9930.00   0.28682226   0.01905194
9932.00   0.30751804   0.01898613
9934.00   0.31956500   0.02013072
9936.00   0.33892876   0.02323028
9938.00   0.36693022   0.02763230
9940.00   0.36916190   0.03165726
9942.00   0.35504285   0.03701264
9944.00   0.32814747   0.03996943
9946.00   0.27646887   0.04049709
9948.00   0.22442700   0.04021279
9950.00   0.19689894   0.04047493
9952.00   0.17286386   0.04064136
9954.00   0.23217121   0.04109842
9956.00   0.41355112   0.04245466
9958.00   0.51509905   0.04239251
9960.00   0.56541938   0.04083848
9962.00   0.57099962   0.03871718
9964.00   0.51589131   0.03651126
9966.00   0.40684065   0.03387537
9968.00   0.33930477   0.03164297
9970.00   0.26040551   0.02948570
9972.00   0.23560734   0.02769375
9974.00   0.26821539   0.02637258
9976.00   0.30794919   0.02532416
9978.00   0.34565043   0.02458215
9980.00   0.38285008   0.02411927
9982.00   0.37919015   0.02344975
9984.00   0.32373130   0.02255596
9986.00   0.31109717   0.02214603
9988.00   0.31535417   0.02212484
9990.00   0.32980916   0.02222926
9992.00   0.36892933   0.02239241
9994.00   0.40628371   0.02271186
9996.00   0.38554195   0.02328628
9998.00   0.30990297   0.02403784
10000.00   0.28109404   0.02504385
10002.00   0.25804073   0.02453084
10004.00   0.26820630   0.02763204
10006.00   0.32939139   0.03436405
10008.00   0.39784941   0.04070406
10010.00   0.43562379   0.04533319
10012.00   0.46440023   0.04980328
10014.00   0.43703395   0.04976327
10016.00   0.32345697   0.04434466
10018.00   0.26861390   0.04090675
10020.00   0.25797477   0.03857989
10022.00   0.26121783   0.03673530
10024.00   0.27353466   0.03541499
10026.00   0.29606479   0.03466349
10028.00   0.27237251   0.03319698
10030.00   0.17728335   0.03124042
10032.00   0.16088596   0.02933731
10034.00   0.20411915   0.02660785
10036.00   0.25020432   0.02491127
10038.00   0.28559613   0.02551107
10040.00   0.31997162   0.02722621
10042.00   0.35010603   0.02795240
10044.00   0.39122617   0.02893412
10046.00   0.38705048   0.02848833
10048.00   0.32611802   0.02598904
10050.00   0.29081786   0.02445227
10052.00   0.29579213   0.02421873
10054.00   0.31194648   0.02500286
10056.00   0.31079704   0.02707709
10058.00   0.30358347   0.03052993
10060.00   0.29438654   0.03224491
10062.00   0.27940160   0.03366075
10064.00   0.26628798   0.03397893
10066.00   0.24649647   0.03276519
10068.00   0.23736754   0.03123261
10070.00   0.25738004   0.03032542
10072.00   0.29950085   0.02954129
10074.00   0.33206785   0.03035468
10076.00   0.38962474   0.03249040
10078.00   0.39523813   0.03483817
10080.00   0.34595081   0.03861036
10082.00   0.29096186   0.04097435
10084.00   0.24562530   0.04079669
10086.00   0.20307560   0.03902234
10088.00   0.19605650   0.03701425
10090.00   0.22397484   0.03248485
10092.00   0.24895421   0.03078671
10094.00   0.29574239   0.03162511
10096.00   0.32654449   0.03235679
10098.00   0.33811608   0.03239905
10100.00   0.33060551   0.03238621
10102.00   0.28495848   0.03280581
10104.00   0.18451369   0.03388180
10106.00   0.13745379   0.03370023
10108.00   0.09523351   0.03227923
10110.00   0.10252339   0.03123870
10112.00   0.18007496   0.02997370
10114.00   0.28123105   0.02966019
10116.00   0.35480613   0.03203049
10118.00   0.42568502   0.03598944
10120.00   0.47349462   0.04068401
10122.00   0.51756012   0.04811964
10124.00   0.51829267   0.05153384
10126.00   0.47080046   0.05263237
10128.00   0.40087706   0.05156523
10130.00   0.31064561   0.04682487
10132.00   0.19691277   0.03769867
10134.00   0.17372172   0.03430302
10136.00   0.24128878   0.03708409
10138.00   0.27032062   0.03679074
10140.00   0.29853386   0.03430723
10142.00   0.30855620   0.03303125
10144.00   0.28358957   0.03466451
10146.00   0.24023478   0.03774717
10148.00   0.22801311   0.04046627
10150.00   0.22695363   0.04460995
10152.00   0.24323678   0.04584489
10154.00   0.28544006   0.04474911
10156.00   0.32418627   0.04391532
10158.00   0.34801570   0.04329192
10160.00   0.37523496   0.04320582
10162.00   0.43879542   0.04500528
10164.00   0.55382413   0.04783494
10166.00   0.57477063   0.05222726
10168.00   0.52546263   0.06069772
10170.00   0.47130114   0.06378383
10172.00   0.39222357   0.06097214
10174.00   0.32007509   0.05634988
10176.00   0.30027756   0.05382099
10178.00   0.31871200   0.05167749
10180.00   0.30868912   0.05047406
10182.00   0.28974253   0.05026432
10184.00   0.26983395   0.05058152
10186.00   0.24133462   0.05217653
10188.00   0.21937163   0.05335703
10190.00   0.21023226   0.05304245
10192.00   0.21089655   0.05186023
10194.00   0.23899038   0.05113449
10196.00   0.31016695   0.04904136
10198.00   0.35175276   0.05009696
10200.00   0.36958271   0.05402648
10202.00   0.39970514   0.05778664
10204.00   0.48427665   0.06106779
10206.00   0.56918746   0.06399399
10208.00   0.50063193   0.06535136
10210.00   0.25917169   0.06557792
10212.00   0.15374166   0.06525150
10214.00   0.06497062   0.06431684
10216.00   0.06683549   0.06237231
10218.00   0.21385875   0.05805438
10220.00   0.40130574   0.05349223
10222.00   0.48533222   0.05322455
10224.00   0.54083747   0.05642741
10226.00   0.47715613   0.05781260
10228.00   0.21303310   0.05993559
10230.00   0.08505535   0.06018097
10232.00   0.09790803   0.05832263
10234.00   0.15244110   0.05549588
10236.00   0.18574820   0.05227027
10238.00   0.22763412   0.04800566
10240.00   0.28032544   0.04577024
10242.00   0.39342275   0.04594120
10244.00   0.40482754   0.04477604
10246.00   0.29247397   0.04233240
10248.00   0.19861455   0.04026099
10250.00   0.18979990   0.03956681
10252.00   0.22529894   0.03972235
10254.00   0.28099743   0.03986687
10256.00   0.44653478   0.04000161
10258.00   0.44848499   0.04114674
10260.00   0.28938490   0.04277057
10262.00   0.17933211   0.04527484
10264.00   0.16365153   0.04977864
10266.00   0.19880809   0.05403991
10268.00   0.27810493   0.05370906
10270.00   0.46783710   0.04801521
10272.00   0.48551744   0.04819833
10274.00   0.30516559   0.05102920
10276.00   0.25873733   0.05564373
10278.00   0.40965614   0.06165022
10280.00   0.60101998   0.06870187
10282.00   0.68835604   0.07720952
10284.00   0.75174308   0.08770225
10286.00   0.65978914   0.09121262
10288.00   0.31245905   0.09085634
10290.00   0.15326925   0.08847686
10292.00   0.16010731   0.08166850
10294.00   0.22954078   0.07439411
10296.00   0.33503908   0.07107773
10298.00   0.49492979   0.07014236
10300.00   0.48917192   0.06698166
10302.00   0.32292515   0.06170583
10304.00   0.22651951   0.05859009
10306.00   0.10907250   0.05706896
10308.00   0.06469887   0.05668981
10310.00   0.17173395   0.05838159
10312.00   0.35541064   0.06084754
10314.00   0.39370087   0.05857682
10316.00   0.33658651   0.04882802
10318.00   0.29810297   0.04688334
10320.00   0.22467856   0.05036248
10322.00   0.17133437   0.05452305
10324.00   0.13604207   0.06034319
10326.00   0.12674212   0.06535418
10328.00   0.18486056   0.06442700
10330.00   0.33589551   0.05780919
10332.00   0.36705044   0.05454734
10334.00   0.31502411   0.05117683
10336.00   0.26934880   0.05007517
10338.00   0.21904281   0.05200367
10340.00   0.17272907   0.05507728
10342.00   0.14950024   0.05790830
10344.00   0.14170039   0.06126514
10346.00   0.13980338   0.06307811
10348.00   0.14693317   0.06437133
10350.00   0.16315155   0.06444562
10352.00   0.19404225   0.06318354
10354.00   0.22594938   0.06115117
10356.00   0.24939017   0.05779689
10358.00   0.26966885   0.05326405
10360.00   0.29781762   0.05403954
10362.00   0.33434916   0.05847498
10364.00   0.36471093   0.06400415
10366.00   0.41560724   0.07363895
10368.00   0.42584604   0.07940857
10370.00   0.34847790   0.07944522
10372.00   0.23851427   0.07647599
10374.00   0.23668930   0.07417516
10376.00   0.34384876   0.07081436
10378.00   0.34741735   0.06729856
10380.00   0.25911459   0.06201974
10382.00   0.23019393   0.05842969
10384.00   0.31600615   0.05797792
10386.00   0.41197741   0.05868871
10388.00   0.37268969   0.05786978
10390.00   0.22634485   0.05610415
10392.00   0.16350341   0.05641340
10394.00   0.15778416   0.05804422
10396.00   0.10473796   0.06027179
10398.00   -0.03541842   0.06397835
10400.00   -0.14651562   0.06707700
10402.00   -0.12303898   0.06808141
10404.00   -0.00806245   0.06789045
10406.00   0.09194232   0.06574441
10408.00   0.26541719   0.05704328
10410.00   0.34314001   0.05643525
10412.00   0.34078935   0.06446780
10414.00   0.30761871   0.07162590
10416.00   0.25961068   0.07570010
10418.00   0.18896662   0.07840832
10420.00   0.12100212   0.07683527
10422.00   -0.02120731   0.06870772
10424.00   -0.00890158   0.06412613
10426.00   0.16290410   0.06072424
10428.00   0.30082345   0.05769244
10430.00   0.36776674   0.05477790
10432.00   0.39469114   0.05236969
10434.00   0.36630312   0.05102893
10436.00   0.24515505   0.05094770
10438.00   0.22140032   0.05084607
10440.00   0.27004769   0.05090425
10442.00   0.29292354   0.05175981
10444.00   0.28680336   0.05378676
10446.00   0.26553962   0.05602260
10448.00   0.22565831   0.05766627
10450.00   0.15501305   0.05950052
10452.00   0.15294956   0.05860797
10454.00   0.22573328   0.05303334
10456.00   0.25411952   0.05131777
10458.00   0.22974855   0.05361075
10460.00   0.21298654   0.05711180
10462.00   0.24972986   0.06100144
10464.00   0.31873879   0.06562793
10466.00   0.35451376   0.06617758
10468.00   0.38424361   0.06293373
10470.00   0.39246684   0.06078257
10472.00   0.37835768   0.05859828
10474.00   0.35349494   0.05628420
10476.00   0.32325396   0.05365440
10478.00   0.28350747   0.05088617
10480.00   0.22700839   0.04909110
10482.00   0.12116782   0.04832472
10484.00   0.09166183   0.04732293
10486.00   0.11996278   0.04643605
10488.00   0.15306051   0.04578370
10490.00   0.19445099   0.04514836
10492.00   0.23344567   0.04494449
10494.00   0.23037609   0.04606847
10496.00   0.19446357   0.04826732
10498.00   0.15879063   0.05057474
10500.00   0.09324234   0.05434507
10502.00   0.05694484   0.05618134
10504.00   0.04324551   0.05593426
10506.00   0.05698996   0.05485346
10508.00   0.12105905   0.05379631
10510.00   0.23928526   0.05216962
10512.00   0.27595392   0.05170429
10514.00   0.25965971   0.05203979
10516.00   0.24125518   0.05259662
10518.00   0.19172387   0.05366042
10520.00   0.15982027   0.05474213
10522.00   0.18749954   0.05568559
10524.00   0.25119504   0.05656687
10526.00   0.26825997   0.05647746
10528.00   0.26111686   0.05541588
10530.00   0.25131956   0.05443078
10532.00   0.21773346   0.05275280
10534.00   0.20176741   0.05165131
10536.00   0.23408619   0.05188000
10538.00   0.27978501   0.05269863
10540.00   0.24932645   0.05256179
10542.00   0.13713241   0.05157188
10544.00   0.09643001   0.05158946
10546.00   0.08219778   0.05186875
10548.00   0.09071252   0.05293090
10550.00   0.13623334   0.05545451
10552.00   0.19173186   0.05797175
10554.00   0.21043919   0.05841145
10556.00   0.20599087   0.05734320
10558.00   0.21158960   0.05688879
10560.00   0.21785471   0.05595255
10562.00   0.22124086   0.05581162
10564.00   0.22939454   0.05669213
10566.00   0.22603776   0.05776446
10568.00   0.19059204   0.05840665
10570.00   0.12882613   0.05891652
10572.00   0.09814104   0.05935619
10574.00   0.05033926   0.05913331
10576.00   0.07828096   0.06009125
10578.00   0.22635978   0.06274414
10580.00   0.33509564   0.06467465
10582.00   0.30614552   0.06463780
10584.00   0.20456347   0.06351001
10586.00   0.17679071   0.06298631
10588.00   0.17505111   0.06218234
10590.00   0.18384275   0.06203519
10592.00   0.23711275   0.06272562
10594.00   0.25406358   0.06303938
10596.00   0.19824976   0.06255675
10598.00   0.11496323   0.06175867
10600.00   0.08397656   0.06134807
10602.00   0.08366467   0.06104450
10604.00   0.07399736   0.06090330
10606.00   0.04567121   0.06075885
10608.00   0.06187703   0.06105085
10610.00   0.15955000   0.06220078
10612.00   0.26002550   0.06329588
10614.00   0.25784323   0.06309174
10616.00   0.17745185   0.06180137
10618.00   0.16672933   0.06172173
10620.00   0.19572033   0.06266470
10622.00   0.20922090   0.06292283
10624.00   0.21562436   0.06267145
10626.00   0.21369749   0.06208009
10628.00   0.19343391   0.06103563
10630.00   0.15816312   0.05952728
10632.00   0.16202150   0.05885023
10634.00   0.21179861   0.05882116
10636.00   0.22497511   0.05866699
10638.00   0.21374854   0.05876718
10640.00   0.19618560   0.05860740
10642.00   0.17939918   0.05788439
10644.00   0.15828761   0.05682442
10646.00   0.12647969   0.05593370
10648.00   0.05479402   0.05469851
10650.00   0.05465589   0.05427838
10652.00   0.11861341   0.05479851
10654.00   0.17478910   0.05498853
10656.00   0.22649747   0.05468903
10658.00   0.26130933   0.05406013
10660.00   0.22333825   0.05295508
10662.00   0.10046654   0.05108607
10664.00   0.06161757   0.04996492
10666.00   0.06294326   0.04917156
10668.00   0.07805941   0.04864335
10670.00   0.12552936   0.04863983
10672.00   0.16978499   0.04864294
10674.00   0.16272953   0.04796979
10676.00   0.11814195   0.04677887
10678.00   0.10792689   0.04624940
10680.00   0.10005030   0.04625260
10682.00   0.12096464   0.04602113
10684.00   0.19321503   0.04573154
10686.00   0.25103241   0.04527327
10688.00   0.25062761   0.04451274
10690.00   0.21558279   0.04350649
10692.00   0.18132059   0.04250930
10694.00   0.09578905   0.04106254
10696.00   0.09037745   0.04036077
10698.00   0.16981037   0.04049929
10700.00   0.23137864   0.04049341
10702.00   0.23629478   0.04003607
10704.00   0.21845819   0.03935034
10706.00   0.22153829   0.03851089
10708.00   0.24516788   0.03740081
10710.00   0.22743012   0.03628763
10712.00   0.15832911   0.03472486
10714.00   0.11993551   0.03371737
10716.00   0.12615947   0.03359038
10718.00   0.15261427   0.03386950
10720.00   0.18094987   0.03401389
10722.00   0.23009509   0.03435792
10724.00   0.23495857   0.03425394
10726.00   0.18775725   0.03415738
10728.00   0.17487019   0.03329615
10730.00   0.20400712   0.03099632
10732.00   0.23751061   0.02865177
10734.00   0.24894626   0.02801033
10736.00   0.25171721   0.02853863
10738.00   0.23172428   0.02840720
10740.00   0.16892226   0.02806191
10742.00   0.14265962   0.02803378
10744.00   0.15356243   0.02848343
10746.00   0.15981439   0.02873674
10748.00   0.13521715   0.02837984
10750.00   0.09714863   0.02767356
10752.00   0.09132848   0.02728727
10754.00   0.12211593   0.02737695
10756.00   0.12001029   0.02663342
10758.00   0.08719575   0.02456442
10760.00   0.07116258   0.02330167
10762.00   0.08562598   0.02404111
10764.00   0.11655076   0.02545104
10766.00   0.15314902   0.02540449
10768.00   0.22737625   0.02457570
10770.00   0.22018197   0.02363112
10772.00   0.11286344   0.02168211
10774.00   0.06662022   0.02051021
10776.00   0.10923439   0.02057689
10778.00   0.17568517   0.02114048
10780.00   0.20406488   0.02154605
10782.00   0.22253740   0.02219829
10784.00   0.21919079   0.02217026
10786.00   0.19079237   0.02173202
10788.00   0.15922491   0.02096425
10790.00   0.10977610   0.01937057
10792.00   0.06959765   0.01788283
10794.00   0.06200444   0.01751576
10796.00   0.07598497   0.01790283
10798.00   0.09636706   0.01831156
10800.00   0.13544200   0.01950159
10802.00   0.17006259   0.01972896
10804.00   0.21977505   0.01930165
10806.00   0.24784672   0.01850743
10808.00   0.22796145   0.01717018
10810.00   0.18275988   0.01537847
10812.00   0.17649905   0.01461649
10814.00   0.19452254   0.01469575
10816.00   0.20592225   0.01484988
10818.00   0.24428545   0.01547522
10820.00   0.24142705   0.01605818
10822.00   0.14924142   0.01647775
10824.00   0.04384747   0.01691442
10826.00   0.06913055   0.01762711
10828.00   0.20547003   0.01881861
10830.00   0.27093509   0.01887738
10832.00   0.33743915   0.01804791
10834.00   0.35954690   0.01711727
10836.00   0.31794393   0.01577581
10838.00   0.25998494   0.01444663
10840.00   0.23457852   0.01401853
10842.00   0.22097698   0.01435559
10844.00   0.20996358   0.01404126
10846.00   0.20344114   0.01312943
10848.00   0.20494007   0.01284528
10850.00   0.23455486   0.01284422
10852.00   0.24229528   0.01352297
10854.00   0.17722110   0.01553307
10856.00   0.06699918   0.01810198
10858.00   0.06096860   0.01820997
10860.00   0.14966480   0.01577913
