# File created by shivutils (I.Shivvers)
# wl(A)   flm    er(optional)
3614.00   2.03874516   0.05400382
3616.00   2.10464501   0.05430988
3618.00   2.14529371   0.05407357
3620.00   1.97911620   0.05240027
3622.00   1.99595547   0.05258884
3624.00   2.01711774   0.05265479
3626.00   2.03803921   0.05273950
3628.00   2.02893806   0.05274258
3630.00   2.04756331   0.05281658
3632.00   2.00453138   0.05214309
3634.00   2.06867194   0.05279496
3636.00   2.02417278   0.05236145
3638.00   2.00976610   0.05169460
3640.00   2.02852821   0.05237916
3642.00   1.95225441   0.05192751
3644.00   2.04270506   0.05211534
3646.00   2.07837820   0.05412296
3648.00   2.06064343   0.05820947
3650.00   2.05377054   0.05795867
3652.00   2.06308413   0.05528781
3654.00   2.02385998   0.05389614
3656.00   2.00615907   0.05165678
3658.00   2.15509129   0.05211683
3660.00   2.06756520   0.05261387
3662.00   2.06992602   0.05286953
3664.00   2.04587722   0.05107101
3666.00   2.02961493   0.04925933
3668.00   2.05009317   0.04902361
3670.00   2.00833678   0.04870999
3672.00   2.00795865   0.04824746
3674.00   2.06146765   0.04833465
3676.00   2.07488132   0.04823267
3678.00   2.05221224   0.04797784
3680.00   2.07026029   0.04798397
3682.00   2.07701397   0.04780234
3684.00   2.09763288   0.04764149
3686.00   2.07984185   0.04726598
3688.00   2.02890158   0.04704725
3690.00   2.02497363   0.04694200
3692.00   1.98424101   0.04612043
3694.00   2.01162386   0.04638153
3696.00   1.98822474   0.04642655
3698.00   2.04557037   0.04703331
3700.00   1.96840453   0.04616872
3702.00   2.01919127   0.04623621
3704.00   1.99665534   0.04556416
3706.00   1.97554040   0.04508096
3708.00   2.03994179   0.04550854
3710.00   2.00079560   0.04530966
3712.00   2.02110124   0.04553222
3714.00   1.94079459   0.04462611
3716.00   1.98054552   0.04434049
3718.00   1.99524224   0.04412407
3720.00   1.86625683   0.04273717
3722.00   1.81326699   0.04232976
3724.00   1.87898159   0.04289404
3726.00   1.82758355   0.04258427
3728.00   1.78310716   0.04186636
3730.00   1.74510872   0.04172114
3732.00   1.70576394   0.04102837
3734.00   1.70502317   0.04046500
3736.00   1.64660299   0.04018816
3738.00   1.66035819   0.04057285
3740.00   1.54960155   0.03950271
3742.00   1.52981937   0.03881915
3744.00   1.55385327   0.03868135
3746.00   1.50262344   0.03771596
3748.00   1.54782510   0.03806318
3750.00   1.55883420   0.03814767
3752.00   1.51401174   0.03801463
3754.00   1.49115062   0.03768614
3756.00   1.35618317   0.03607924
3758.00   1.35480785   0.03582067
3760.00   1.38820696   0.03595136
3762.00   1.34412384   0.03514358
3764.00   1.34432960   0.03507012
3766.00   1.30370545   0.03452639
3768.00   1.33442128   0.03491455
3770.00   1.29880285   0.03470391
3772.00   1.23301911   0.03412298
3774.00   1.20755792   0.03369539
3776.00   1.24120450   0.03390896
3778.00   1.24516869   0.03370979
3780.00   1.21993852   0.03360366
3782.00   1.20049298   0.03306957
3784.00   1.20837772   0.03307921
3786.00   1.17929268   0.03246973
3788.00   1.18483210   0.03255811
3790.00   1.13769233   0.03216457
3792.00   1.09708571   0.03146890
3794.00   1.11025870   0.03108131
3796.00   1.08217573   0.03084825
3798.00   1.07001686   0.03061556
3800.00   1.07977128   0.03094285
3802.00   1.13173270   0.03138370
3804.00   1.09814429   0.03076088
3806.00   1.07301450   0.03028539
3808.00   1.09625065   0.03042984
3810.00   1.13310838   0.03082404
3812.00   1.05967534   0.03014917
3814.00   1.01554954   0.02936528
3816.00   1.10876441   0.03021709
3818.00   1.08971524   0.02992753
3820.00   1.07124686   0.02960164
3822.00   1.05038071   0.02928380
3824.00   1.04051268   0.02909258
3826.00   1.07484579   0.02948149
3828.00   1.06872511   0.02964650
3830.00   1.15474689   0.03018003
3832.00   1.16157591   0.03012889
3834.00   1.17295599   0.03000324
3836.00   1.17194712   0.02989373
3838.00   1.16603088   0.02964877
3840.00   1.16582167   0.02988672
3842.00   1.17850077   0.02989418
3844.00   1.20429611   0.03008593
3846.00   1.16503072   0.02956573
3848.00   1.16973567   0.02952222
3850.00   1.23356259   0.02993842
3852.00   1.24128115   0.02985804
3854.00   1.26278543   0.02990925
3856.00   1.29373789   0.02985580
3858.00   1.23797500   0.02939314
3860.00   1.31436276   0.03004610
3862.00   1.25809252   0.02978207
3864.00   1.22741354   0.02918118
3866.00   1.28081024   0.02939530
3868.00   1.24290776   0.02894680
3870.00   1.18429816   0.02829736
3872.00   1.18649411   0.02855279
3874.00   1.19967663   0.02889548
3876.00   1.20206130   0.02855170
3878.00   1.24159038   0.02852792
3880.00   1.16322267   0.02785467
3882.00   1.19598866   0.02794460
3884.00   1.21318066   0.02809813
3886.00   1.17976522   0.02774194
3888.00   1.22381568   0.02801264
3890.00   1.26728392   0.02839745
3892.00   1.21999121   0.02809712
3894.00   1.23598099   0.02812769
3896.00   1.20933461   0.02787279
3898.00   1.18060958   0.02761100
3900.00   1.18111813   0.02765305
3902.00   1.21995461   0.02800171
3904.00   1.20034742   0.02874823
3906.00   1.18076944   0.02900254
3908.00   1.21386611   0.02945505
3910.00   1.23360217   0.02959893
3912.00   1.22690117   0.02917562
3914.00   1.26703358   0.02878131
3916.00   1.30138624   0.02874344
3918.00   1.24892545   0.02783096
3920.00   1.30062997   0.02802125
3922.00   1.29680276   0.02790425
3924.00   1.30189967   0.02778691
3926.00   1.37844002   0.02804507
3928.00   1.38236952   0.02798298
3930.00   1.31848717   0.02759844
3932.00   1.28086782   0.02716724
3934.00   1.38127136   0.02771182
3936.00   1.44313312   0.02835793
3938.00   1.46941614   0.02850132
3940.00   1.49802577   0.02896727
3942.00   1.52673876   0.02944308
3944.00   1.55598712   0.02966735
3946.00   1.53190339   0.02920962
3948.00   1.57167470   0.02944226
3950.00   1.62221646   0.02969482
3952.00   1.62076795   0.02947706
3954.00   1.65253055   0.02973500
3956.00   1.72960901   0.03025244
3958.00   1.75731385   0.03042218
3960.00   1.82415378   0.03103783
3962.00   1.80326676   0.03051875
3964.00   1.78854322   0.02978617
3966.00   1.79103303   0.02964907
3968.00   1.92702985   0.03047416
3970.00   1.96318710   0.03075427
3972.00   1.94462574   0.03078049
3974.00   1.98890579   0.03110749
3976.00   1.96500802   0.03104603
3978.00   1.99130023   0.03134049
3980.00   1.98567080   0.03113520
3982.00   2.06597447   0.03145311
3984.00   1.99533069   0.03103367
3986.00   2.02494812   0.03123127
3988.00   2.03417087   0.03126699
3990.00   2.09618807   0.03145356
3992.00   2.02817464   0.03108494
3994.00   2.04444337   0.03132392
3996.00   1.97227848   0.03102500
3998.00   2.04151702   0.03109735
4000.00   2.06451845   0.03110606
4002.00   2.03036356   0.03072673
4004.00   2.04195857   0.03061984
4006.00   2.05812168   0.03090145
4008.00   2.07783914   0.03096350
4010.00   1.97740054   0.03041593
4012.00   2.06986499   0.03095389
4014.00   2.07781863   0.03082093
4016.00   2.07662487   0.03096536
4018.00   2.06867099   0.03164898
4020.00   2.06751752   0.03190017
4022.00   2.08114767   0.03189813
4024.00   2.06866121   0.03143483
4026.00   2.11292267   0.03116562
4028.00   2.13769054   0.03098783
4030.00   2.17343259   0.03112674
4032.00   2.14345527   0.03068796
4034.00   2.17072320   0.03081122
4036.00   2.14532566   0.03073839
4038.00   2.15156484   0.03077931
4040.00   2.15180230   0.03073776
4042.00   2.13155746   0.03258145
4044.00   2.10288835   0.03719296
4046.00   2.07101345   0.03782232
4048.00   2.14506006   0.03372411
4050.00   2.20432401   0.03132375
4052.00   2.20543599   0.03119282
4054.00   2.19860578   0.03102836
4056.00   2.14438987   0.03034455
4058.00   2.19011092   0.03031651
4060.00   2.09433889   0.02973370
4062.00   2.09588385   0.02975679
4064.00   2.13506389   0.02995217
4066.00   2.14413118   0.02986320
4068.00   2.08301044   0.02944681
4070.00   2.06902862   0.02927109
4072.00   2.11006069   0.02955772
4074.00   2.21114182   0.03058484
4076.00   2.24370432   0.03134523
4078.00   2.22847152   0.03107477
4080.00   2.14243960   0.03023097
4082.00   2.10109258   0.02985048
4084.00   2.03833771   0.02926093
4086.00   1.99258816   0.02894737
4088.00   1.98052371   0.02850530
4090.00   2.01179743   0.02846256
4092.00   2.06063843   0.02854308
4094.00   2.03955340   0.02835442
4096.00   1.99541008   0.02809387
4098.00   1.96561778   0.02785278
4100.00   1.96806300   0.02769235
4102.00   2.04186702   0.02794953
4104.00   2.02415109   0.02791740
4106.00   2.04834867   0.02804311
4108.00   2.02720690   0.02793869
4110.00   2.09126568   0.02816978
4112.00   2.02596354   0.02785513
4114.00   2.05562210   0.02794504
4116.00   2.01734900   0.02771029
4118.00   2.11685872   0.02813432
4120.00   2.09386683   0.02795251
4122.00   2.07981730   0.02795456
4124.00   2.04377770   0.02773898
4126.00   2.10348177   0.02799598
4128.00   2.10141134   0.02788209
4130.00   2.09482980   0.02804330
4132.00   2.14199662   0.02826942
4134.00   2.18056393   0.02835553
4136.00   2.20165038   0.02844886
4138.00   2.22215152   0.02863553
4140.00   2.22736907   0.02856717
4142.00   2.22584248   0.02823798
4144.00   2.19173169   0.02790283
4146.00   2.17779064   0.02785735
4148.00   2.23162651   0.02819534
4150.00   2.22399640   0.02832549
4152.00   2.23255038   0.02838231
4154.00   2.24159002   0.02820002
4156.00   2.24691772   0.02803707
4158.00   2.24870682   0.02805316
4160.00   2.26020575   0.02810936
4162.00   2.26760697   0.02846981
4164.00   2.26369119   0.02858493
4166.00   2.29093480   0.02839701
4168.00   2.28311372   0.02805207
4170.00   2.29209280   0.02796011
4172.00   2.26602817   0.02771992
4174.00   2.26821399   0.02767128
4176.00   2.26099777   0.02763950
4178.00   2.26856875   0.02762622
4180.00   2.28353834   0.02755131
4182.00   2.27329326   0.02741156
4184.00   2.25024343   0.02724616
4186.00   2.22796988   0.02705923
4188.00   2.25807309   0.02726585
4190.00   2.23748565   0.02718250
4192.00   2.27206230   0.02722100
4194.00   2.29100370   0.02720551
4196.00   2.25701284   0.02695139
4198.00   2.30162191   0.02707090
4200.00   2.21711707   0.02661281
4202.00   2.24937701   0.02689794
4204.00   2.19542742   0.02664272
4206.00   2.11994004   0.02626406
4208.00   2.14680839   0.02642667
4210.00   2.16299248   0.02642726
4212.00   2.11815190   0.02618766
4214.00   2.16540766   0.02630344
4216.00   2.07998610   0.02582397
4218.00   2.08687258   0.02588519
4220.00   2.03321695   0.02560658
4222.00   2.06413460   0.02561232
4224.00   2.06225157   0.02543896
4226.00   1.97171855   0.02502464
4228.00   1.96889186   0.02505959
4230.00   1.96779561   0.02511464
4232.00   1.95000339   0.02499337
4234.00   1.93308926   0.02486476
4236.00   1.94738615   0.02499124
4238.00   1.90170455   0.02479300
4240.00   1.91872382   0.02470164
4242.00   1.95773780   0.02493100
4244.00   1.90366769   0.02520576
4246.00   1.92159832   0.02552834
4248.00   1.93051445   0.02496666
4250.00   1.91416442   0.02455191
4252.00   1.90238571   0.02437104
4254.00   1.89994645   0.02435016
4256.00   1.88861740   0.02437267
4258.00   1.86482966   0.02408011
4260.00   1.86586058   0.02406031
4262.00   1.87131333   0.02413593
4264.00   1.89152932   0.02418106
4266.00   1.92130160   0.02427471
4268.00   1.94144917   0.02436754
4270.00   1.93843853   0.02419991
4272.00   1.90728891   0.02412244
4274.00   1.93149817   0.02417185
4276.00   1.98932803   0.02457522
4278.00   1.96862721   0.02448005
4280.00   1.97622144   0.02443160
4282.00   1.97523332   0.02446861
4284.00   1.96738803   0.02421325
4286.00   1.90818787   0.02394910
4288.00   1.88653862   0.02376890
4290.00   1.92796659   0.02401060
4292.00   1.87776482   0.02380279
4294.00   1.83344150   0.02351220
4296.00   1.83011341   0.02340494
4298.00   1.78187668   0.02308349
4300.00   1.76164567   0.02285047
4302.00   1.75697064   0.02290895
4304.00   1.74420691   0.02287325
4306.00   1.74871290   0.02279713
4308.00   1.72452462   0.02271118
4310.00   1.71487916   0.02287184
4312.00   1.66536319   0.02300536
4314.00   1.73907948   0.02341566
4316.00   1.69466805   0.02300800
4318.00   1.68533123   0.02298869
4320.00   1.65341258   0.02285798
4322.00   1.63740909   0.02267734
4324.00   1.62626755   0.02246239
4326.00   1.62007618   0.02230883
4328.00   1.59074211   0.02202623
4330.00   1.62010503   0.02211047
4332.00   1.59279668   0.02197087
4334.00   1.59245718   0.02193389
4336.00   1.55770099   0.02186192
4338.00   1.52826142   0.02175667
4340.00   1.53231549   0.02171225
4342.00   1.56217992   0.02191444
4344.00   1.54771304   0.02213857
4346.00   1.56274235   0.02239284
4348.00   1.54405582   0.02217514
4350.00   1.51845062   0.02191383
4352.00   1.54492557   0.02218298
4354.00   1.50899911   0.02560011
4356.00   1.52968812   0.03134386
4358.00   1.53818583   0.03218107
4360.00   1.49627578   0.02707178
4362.00   1.46867323   0.02323531
4364.00   1.43348432   0.02185653
4366.00   1.48219681   0.02182360
4368.00   1.47963202   0.02162985
4370.00   1.44406509   0.02144940
4372.00   1.42506301   0.02155556
4374.00   1.42555642   0.02152096
4376.00   1.42759466   0.02126336
4378.00   1.43722892   0.02112070
4380.00   1.38431752   0.02073946
4382.00   1.36030591   0.02053646
4384.00   1.34519744   0.02038793
4386.00   1.29530144   0.02015186
4388.00   1.35728192   0.02056219
4390.00   1.32687175   0.02031676
4392.00   1.30161893   0.02020175
4394.00   1.27392590   0.02002360
4396.00   1.24455488   0.01993174
4398.00   1.24520242   0.02009916
4400.00   1.25247777   0.02017213
4402.00   1.24683213   0.01999945
4404.00   1.20363510   0.01969136
4406.00   1.18397439   0.01956694
4408.00   1.15585530   0.01951689
4410.00   1.19238341   0.01969656
4412.00   1.17392004   0.01973030
4414.00   1.16916645   0.01968864
4416.00   1.14760399   0.01949791
4418.00   1.11945677   0.01934076
4420.00   1.15644252   0.01944404
4422.00   1.14432788   0.01940283
4424.00   1.13512003   0.01950414
4426.00   1.17334223   0.01939962
4428.00   1.21311271   0.01958576
4430.00   1.13682926   0.01924081
4432.00   1.16921091   0.01942382
4434.00   1.18563449   0.01945690
4436.00   1.15457916   0.01933936
4438.00   1.20550227   0.01959168
4440.00   1.20099652   0.01955080
4442.00   1.22175169   0.01962363
4444.00   1.19872415   0.01950478
4446.00   1.21844471   0.01955224
4448.00   1.25440919   0.01977639
4450.00   1.27780545   0.01983518
4452.00   1.22642255   0.01948422
4454.00   1.24023318   0.01958204
4456.00   1.23831272   0.01957587
4458.00   1.23414230   0.01949857
4460.00   1.22974718   0.01949559
4462.00   1.23783314   0.01949133
4464.00   1.29142034   0.01979327
4466.00   1.30232286   0.01982724
4468.00   1.29536033   0.01975453
4470.00   1.27623427   0.01963520
4472.00   1.31997561   0.01986638
4474.00   1.34182668   0.01994649
4476.00   1.31613588   0.01988060
4478.00   1.32895124   0.01988663
4480.00   1.38396478   0.02012685
4482.00   1.34900355   0.02001108
4484.00   1.38642764   0.02018897
4486.00   1.36931789   0.02013142
4488.00   1.38999498   0.02012664
4490.00   1.35890186   0.02007389
4492.00   1.41140831   0.02027396
4494.00   1.40996051   0.02022589
4496.00   1.41185522   0.02031083
4498.00   1.38348079   0.02018715
4500.00   1.38798809   0.02011198
4502.00   1.39537466   0.02005598
4504.00   1.38705206   0.02003379
4506.00   1.39260197   0.02000171
4508.00   1.35941303   0.01978624
4510.00   1.30797315   0.01951059
4512.00   1.33739996   0.01966013
4514.00   1.34635770   0.01962305
4516.00   1.36108696   0.01967566
4518.00   1.32199681   0.01943863
4520.00   1.29910421   0.01928791
4522.00   1.29698217   0.01925857
4524.00   1.26315248   0.01906021
4526.00   1.29365110   0.01915229
4528.00   1.23067808   0.01879810
4530.00   1.29496372   0.01901367
4532.00   1.23845136   0.01875127
4534.00   1.24077940   0.01874115
4536.00   1.21642268   0.01863642
4538.00   1.21754062   0.01862949
4540.00   1.20041418   0.01860870
4542.00   1.18532979   0.01850814
4544.00   1.19487488   0.01853403
4546.00   1.20787215   0.01854659
4548.00   1.22254467   0.01848498
4550.00   1.20780492   0.01837541
4552.00   1.23603809   0.01847986
4554.00   1.25840485   0.01856973
4556.00   1.23674011   0.01846300
4558.00   1.27490139   0.01866196
4560.00   1.27446473   0.01857661
4562.00   1.32973981   0.01880320
4564.00   1.34865499   0.01878843
4566.00   1.33898258   0.01879949
4568.00   1.30722356   0.01874322
4570.00   1.34002888   0.01882804
4572.00   1.32504404   0.01880923
4574.00   1.36427391   0.01893469
4576.00   1.37052798   0.01891652
4578.00   1.35577309   0.01881706
4580.00   1.36302531   0.01878997
4582.00   1.34889662   0.01868644
4584.00   1.39830303   0.01884123
4586.00   1.40290821   0.01887116
4588.00   1.40060568   0.01880650
4590.00   1.42717421   0.01888024
4592.00   1.42952609   0.01884298
4594.00   1.44873166   0.01896294
4596.00   1.45583427   0.01898302
4598.00   1.41933966   0.01878480
4600.00   1.44601309   0.01876481
4602.00   1.44306314   0.01880524
4604.00   1.44997108   0.01878710
4606.00   1.43200517   0.01873852
4608.00   1.44812810   0.01881073
4610.00   1.42699838   0.01867878
4612.00   1.44210660   0.01872830
4614.00   1.45465910   0.01869418
4616.00   1.45505238   0.01868418
4618.00   1.45551527   0.01869146
4620.00   1.42562544   0.01857133
4622.00   1.44584382   0.01861338
4624.00   1.44303727   0.01858137
4626.00   1.46728730   0.01870566
4628.00   1.45844007   0.01860935
4630.00   1.47171080   0.01862796
4632.00   1.44057381   0.01855716
4634.00   1.43123114   0.01844038
4636.00   1.44071233   0.01847304
4638.00   1.42711008   0.01841410
4640.00   1.42784035   0.01838928
4642.00   1.43294656   0.01840450
4644.00   1.42196536   0.01827896
4646.00   1.39630532   0.01814918
4648.00   1.41000450   0.01822889
4650.00   1.40201688   0.01825410
4652.00   1.39262772   0.01819594
4654.00   1.37220180   0.01815367
4656.00   1.37826526   0.01823270
4658.00   1.41190231   0.01835852
4660.00   1.40804160   0.01839750
4662.00   1.39275193   0.01837407
4664.00   1.40637493   0.01842877
4666.00   1.38629365   0.01835457
4668.00   1.37423682   0.01840816
4670.00   1.38939202   0.01853811
4672.00   1.40619981   0.01853624
4674.00   1.37841415   0.01827322
4676.00   1.36420059   0.01818993
4678.00   1.41109192   0.01829026
4680.00   1.38800311   0.01814166
4682.00   1.39262915   0.01813683
4684.00   1.38637376   0.01806461
4686.00   1.40800381   0.01817433
4688.00   1.41820979   0.01816728
4690.00   1.41952491   0.01814937
4692.00   1.41052151   0.01809001
4694.00   1.41222107   0.01808921
4696.00   1.40995800   0.01805929
4698.00   1.44666409   0.01816617
4700.00   1.41708684   0.01799356
4702.00   1.43092668   0.01810208
4704.00   1.43628979   0.01812381
4706.00   1.40332079   0.01804407
4708.00   1.44626904   0.01822933
4710.00   1.43379140   0.01820613
4712.00   1.41106391   0.01804521
4714.00   1.42071187   0.01804996
4716.00   1.42005122   0.01804484
4718.00   1.43957996   0.01807947
4720.00   1.41535258   0.01794193
4722.00   1.41069603   0.01788643
4724.00   1.40153420   0.01785600
4726.00   1.41091776   0.01808356
4728.00   1.40394127   0.01821280
4730.00   1.39683414   0.01824512
4732.00   1.37659717   0.01812693
4734.00   1.40298676   0.01833593
4736.00   1.39421105   0.01835830
4738.00   1.41296804   0.01852987
4740.00   1.42200351   0.01880555
4742.00   1.39892936   0.01870043
4744.00   1.38979518   0.01840353
4746.00   1.37653196   0.01797008
4748.00   1.35124230   0.01769495
4750.00   1.34335506   0.01775102
4752.00   1.32482576   0.01763704
4754.00   1.30251455   0.01736664
4756.00   1.30110538   0.01721513
4758.00   1.30996215   0.01717490
4760.00   1.25931835   0.01685084
4762.00   1.26331961   0.01682533
4764.00   1.26278389   0.01682915
4766.00   1.27379298   0.01683646
4768.00   1.25860250   0.01673722
4770.00   1.23242176   0.01662304
4772.00   1.21120393   0.01645198
4774.00   1.20628738   0.01651302
4776.00   1.25820398   0.01692949
4778.00   1.20179284   0.01664331
4780.00   1.20133698   0.01663276
4782.00   1.18943298   0.01643084
4784.00   1.18447900   0.01635924
4786.00   1.20285404   0.01638867
4788.00   1.18828547   0.01637476
4790.00   1.19135928   0.01638238
4792.00   1.18473005   0.01632397
4794.00   1.17511654   0.01628951
4796.00   1.17162883   0.01623095
4798.00   1.15005684   0.01608126
4800.00   1.19338524   0.01631325
4802.00   1.16412187   0.01617237
4804.00   1.20450139   0.01638680
4806.00   1.19434750   0.01631232
4808.00   1.16309929   0.01617538
4810.00   1.19297564   0.01629568
4812.00   1.18140757   0.01626780
4814.00   1.17176926   0.01622397
4816.00   1.18883622   0.01628560
4818.00   1.18973982   0.01629736
4820.00   1.15614557   0.01618469
4822.00   1.20815027   0.01645578
4824.00   1.18905652   0.01641262
4826.00   1.21092582   0.01652846
4828.00   1.19838822   0.01645921
4830.00   1.19296753   0.01644358
4832.00   1.21500814   0.01654192
4834.00   1.20442212   0.01646101
4836.00   1.18276680   0.01641160
4838.00   1.18973851   0.01650552
4840.00   1.19482005   0.01648719
4842.00   1.19388902   0.01641788
4844.00   1.17321587   0.01631558
4846.00   1.17579544   0.01629319
4848.00   1.17827463   0.01633274
4850.00   1.14375722   0.01617210
4852.00   1.13563025   0.01607917
4854.00   1.11321187   0.01586293
4856.00   1.11589468   0.01580426
4858.00   1.11546171   0.01579503
4860.00   1.12348402   0.01587300
4862.00   1.10583818   0.01578481
4864.00   1.13845599   0.01599473
4866.00   1.13047552   0.01595913
4868.00   1.12414408   0.01590510
4870.00   1.11109006   0.01582887
4872.00   1.10113180   0.01577536
4874.00   1.10945857   0.01584075
4876.00   1.11023235   0.01585237
4878.00   1.10457587   0.01584509
4880.00   1.10089707   0.01582782
4882.00   1.09001827   0.01575253
4884.00   1.09114146   0.01573120
4886.00   1.13615477   0.01593368
4888.00   1.08713377   0.01563412
4890.00   1.07903361   0.01561572
4892.00   1.07931626   0.01563716
4894.00   1.07666659   0.01564578
4896.00   1.08832419   0.01570023
4898.00   1.06540072   0.01554489
4900.00   1.10660505   0.01570225
4902.00   1.12224221   0.01577304
4904.00   1.12939107   0.01585205
4906.00   1.10625231   0.01578191
4908.00   1.14924490   0.01598898
4910.00   1.12646139   0.01585338
4912.00   1.11842597   0.01579680
4914.00   1.12143064   0.01581694
4916.00   1.11611962   0.01575842
4918.00   1.12931669   0.01580779
4920.00   1.11547923   0.01577795
4922.00   1.12359226   0.01578910
4924.00   1.10499895   0.01568820
4926.00   1.09972489   0.01560889
4928.00   1.09784591   0.01559340
4930.00   1.11451256   0.01564911
4932.00   1.07969987   0.01550560
4934.00   1.06272936   0.01544881
4936.00   1.06801414   0.01543882
4938.00   1.09235835   0.01560477
4940.00   1.07154560   0.01545973
4942.00   1.07556021   0.01549254
4944.00   1.05591905   0.01535896
4946.00   1.04515910   0.01526074
4948.00   1.03961074   0.01520318
4950.00   1.02936220   0.01525063
4952.00   1.02138138   0.01530310
4954.00   1.00841618   0.01518731
4956.00   1.00205564   0.01506041
4958.00   0.99814981   0.01504093
4960.00   0.92765820   0.01471289
4962.00   0.97977066   0.01498070
4964.00   0.92830628   0.01473830
4966.00   0.95260793   0.01487852
4968.00   0.91587222   0.01478725
4970.00   0.90615863   0.01476573
4972.00   0.92018950   0.01499118
4974.00   0.93141419   0.01519891
4976.00   0.90616536   0.01535146
4978.00   0.90341073   0.01556621
4980.00   0.91881621   0.01578581
4982.00   0.89458537   0.01574802
4984.00   0.86524510   0.01553532
4986.00   0.89951998   0.01557231
4988.00   0.87636369   0.01528222
4990.00   0.88630307   0.01513452
4992.00   0.86909753   0.01485093
4994.00   0.85971057   0.01460485
4996.00   0.86230367   0.01447306
4998.00   0.88932616   0.01457206
5000.00   0.89443123   0.01454928
5002.00   0.87443465   0.01438807
5004.00   0.90347505   0.01448061
5006.00   0.91228420   0.01448264
5008.00   0.90045816   0.01435280
5010.00   0.90579003   0.01436740
5012.00   0.89221042   0.01432939
5014.00   0.90137297   0.01435956
5016.00   0.90268695   0.01441571
5018.00   0.92224771   0.01457649
5020.00   0.92848212   0.01462955
5022.00   0.91165733   0.01444201
5024.00   0.94477367   0.01463128
5026.00   0.94965392   0.01460572
5028.00   0.92659402   0.01460127
5030.00   0.94858807   0.01473460
5032.00   0.93792117   0.01461955
5034.00   0.94690388   0.01458483
5036.00   0.94451904   0.01457162
5038.00   0.95239210   0.01454717
5040.00   0.95456374   0.01456164
5042.00   0.94725806   0.01455845
5044.00   0.95031905   0.01463655
5046.00   0.94493651   0.01459942
5048.00   0.94037002   0.01453509
5050.00   0.95695269   0.01465881
5052.00   0.96480590   0.01469289
5054.00   0.97820318   0.01477078
5056.00   0.97296333   0.01470089
5058.00   0.95051247   0.01463024
5060.00   0.94889492   0.01468562
5062.00   0.95492554   0.01487878
5064.00   0.98287404   0.01507630
5066.00   0.96087509   0.01505541
5068.00   0.97235447   0.01522654
5070.00   0.97473365   0.01523949
5072.00   0.99955678   0.01523539
5074.00   0.98569131   0.01517182
5076.00   0.98037845   0.01510133
5078.00   0.99170309   0.01534740
5080.00   0.97898549   0.01576069
5082.00   1.01215494   0.01633621
5084.00   1.01525486   0.01650259
5086.00   0.98982072   0.01627887
5088.00   0.99415517   0.01596623
5090.00   1.00938988   0.01564822
5092.00   1.03349960   0.01553542
5094.00   1.02627611   0.01550755
5096.00   0.99894661   0.01539650
5098.00   1.00284839   0.01553002
5100.00   0.98663563   0.01546585
5102.00   0.98860013   0.01521659
5104.00   1.00400352   0.01524653
5106.00   1.02294731   0.01526112
5108.00   0.98783726   0.01499907
5110.00   1.01185274   0.01516455
5112.00   1.00346112   0.01515156
5114.00   0.98887724   0.01514865
5116.00   1.02775037   0.01530824
5118.00   1.00604463   0.01514181
5120.00   0.99343663   0.01498999
5122.00   0.98452359   0.01486058
5124.00   0.95740962   0.01470200
5126.00   0.96626163   0.01477481
5128.00   0.96265566   0.01477500
5130.00   0.98506248   0.01484566
5132.00   0.97036088   0.01481555
5134.00   0.98806977   0.01487031
5136.00   0.99873984   0.01490900
5138.00   0.96922135   0.01477134
5140.00   1.00972915   0.01498450
5142.00   1.00409651   0.01496607
5144.00   0.99380934   0.01498332
5146.00   0.99745351   0.01507879
5148.00   1.01484489   0.01521783
5150.00   0.98157239   0.01516737
5152.00   0.99895269   0.01533721
5154.00   0.99991828   0.01529852
5156.00   0.99182338   0.01519620
5158.00   0.98231781   0.01507074
5160.00   0.99006301   0.01503972
5162.00   0.98484910   0.01487021
5164.00   0.99390239   0.01484479
5166.00   1.00676441   0.01484290
5168.00   1.01265717   0.01487268
5170.00   0.99548721   0.01471992
5172.00   0.98948383   0.01468632
5174.00   0.99572569   0.01477886
5176.00   1.00314534   0.01488391
5178.00   1.03866386   0.01507656
5180.00   1.01650107   0.01488757
5182.00   1.01971877   0.01489623
5184.00   1.02241194   0.01489736
5186.00   0.99534750   0.01480050
5188.00   1.02227211   0.01494494
5190.00   1.03489578   0.01500748
5192.00   1.01493466   0.01495894
5194.00   1.01357436   0.01490735
5196.00   1.03720152   0.01506565
5198.00   1.05502808   0.01525772
5200.00   1.03694212   0.01514561
5202.00   1.05133069   0.01517368
5204.00   1.06017458   0.01520497
5206.00   1.06543934   0.01523581
5208.00   1.07789898   0.01533965
5210.00   1.07001090   0.01527859
5212.00   1.07413459   0.01528046
5214.00   1.06076276   0.01519408
5216.00   1.07962048   0.01532643
5218.00   1.08399987   0.01534035
5220.00   1.06182826   0.01526228
5222.00   1.09971833   0.01535634
5224.00   1.10603809   0.01541122
5226.00   1.09011436   0.01521552
5228.00   1.09298754   0.01525753
5230.00   1.09579551   0.01525609
5232.00   1.10274518   0.01527537
5234.00   1.08582032   0.01526739
5236.00   1.10483861   0.01541391
5238.00   1.09537458   0.01535335
5240.00   1.10046875   0.01534400
5242.00   1.06352723   0.01513210
5244.00   1.10958803   0.01533044
5246.00   1.08503461   0.01519946
5248.00   1.11038423   0.01531042
5250.00   1.09722328   0.01521327
5252.00   1.09479594   0.01528204
5254.00   1.06504357   0.01514175
5256.00   1.06998789   0.01521397
5258.00   1.06853795   0.01520099
5260.00   1.09869683   0.01527783
5262.00   1.06248915   0.01500275
5264.00   1.07446110   0.01505906
5266.00   1.08907056   0.01507171
5268.00   1.07034194   0.01499795
5270.00   1.05478919   0.01491749
5272.00   1.04522502   0.01487106
5274.00   1.05056989   0.01495190
5276.00   1.02579975   0.01479420
5278.00   1.04179370   0.01488317
5280.00   1.02222002   0.01473817
5282.00   1.00729251   0.01469848
5284.00   1.04459655   0.01494833
5286.00   1.02342236   0.01480415
5288.00   1.03563142   0.01484898
5290.00   1.00591731   0.01470643
5292.00   1.00833082   0.01466469
5294.00   1.01286197   0.01473533
5296.00   1.01606274   0.01474311
5298.00   1.02806520   0.01475535
5300.00   1.01237690   0.01471577
5302.00   1.02371037   0.01478696
5304.00   1.01491821   0.01472663
5306.00   1.02657676   0.01478796
5308.00   0.99895453   0.01467654
5310.00   1.01378500   0.01472381
5312.00   1.01199758   0.01470952
5314.00   1.02735090   0.01478733
5316.00   1.01083398   0.01469904
5318.00   1.02306724   0.01476307
5320.00   1.04401815   0.01484061
5322.00   1.05025303   0.01488433
5324.00   1.03956401   0.01480929
5326.00   1.02554023   0.01472707
5328.00   1.02478623   0.01478069
5330.00   0.98705679   0.01459931
5332.00   0.99174267   0.01466102
5334.00   0.99808568   0.01468382
5336.00   0.99780536   0.01466170
5338.00   0.99351603   0.01470545
5340.00   1.02696538   0.01495220
5342.00   0.97345078   0.01466670
5344.00   0.97582513   0.01467687
5346.00   0.96991265   0.01477795
5348.00   0.95834506   0.01477437
5350.00   0.93919098   0.01466686
5352.00   0.94157928   0.01474992
5354.00   0.93494052   0.01475777
5356.00   0.94130421   0.01474599
5358.00   0.89087361   0.01439739
5360.00   0.90734577   0.01440494
5362.00   0.91862851   0.01438451
5364.00   0.90823466   0.01430209
5366.00   0.88381201   0.01414983
5368.00   0.89637518   0.01423280
5370.00   0.88068366   0.01416830
5372.00   0.85897499   0.01416803
5374.00   0.85909325   0.01425056
5376.00   0.82826102   0.01413069
5378.00   0.81553626   0.01405852
5380.00   0.80960089   0.01402213
5382.00   0.80444694   0.01405997
5384.00   0.77110440   0.01382950
5386.00   0.78561002   0.01400128
5388.00   0.79652894   0.01415303
5390.00   0.79736876   0.01425408
5392.00   0.78718293   0.01420641
5394.00   0.74672604   0.01402835
5396.00   0.74528879   0.01401733
5398.00   0.77781886   0.01425734
5400.00   0.78367007   0.01435415
5402.00   0.76843947   0.01432687
5404.00   0.76504046   0.01434838
5406.00   0.73486233   0.01425407
5408.00   0.75651824   0.01444580
5410.00   0.72973567   0.01457111
5412.00   0.69527990   0.01449324
5414.00   0.74630964   0.01493306
5416.00   0.71863794   0.01500231
5418.00   0.72143155   0.01507853
5420.00   0.69828182   0.01507886
5422.00   0.70352197   0.01516352
5424.00   0.69874221   0.01515895
5426.00   0.73178619   0.01538159
5428.00   0.71827227   0.01534096
5430.00   0.72119713   0.01543367
5432.00   0.69836468   0.01535392
5434.00   0.68081707   0.01534340
5436.00   0.70507318   0.01552243
5438.00   0.72812468   0.01575135
5440.00   0.71483898   0.01582808
5442.00   0.68469608   0.01580420
5444.00   0.70970219   0.01603092
5446.00   0.72556984   0.01616626
5448.00   0.71044993   0.01617778
5450.00   0.71518236   0.01625239
5452.00   0.72628242   0.01639368
5454.00   0.69305176   0.01637969
5456.00   0.70653427   0.01813732
5458.00   0.73254472   0.02118881
5460.00   0.72927755   0.02240132
5462.00   0.72904491   0.02142383
5464.00   0.72994608   0.02031824
5466.00   0.73285168   0.01935946
5468.00   0.76819038   0.01871666
5470.00   0.74330890   0.01788554
5472.00   0.73793280   0.01742403
5474.00   0.74913132   0.01723815
5476.00   0.76672900   0.01725581
5478.00   0.72383273   0.01712778
5480.00   0.76643831   0.01759297
5482.00   0.78658515   0.01795214
5484.00   0.75360221   0.01767571
5486.00   0.77622122   0.01757409
5488.00   0.74592286   0.01738053
5490.00   0.73559773   0.01721366
5492.00   0.77575564   0.01738446
5494.00   0.81586784   0.01751155
5496.00   0.80903792   0.01736883
5498.00   0.79137093   0.01731343
5500.00   0.77350301   0.01720986
5502.00   0.77587122   0.01716363
5504.00   0.79515517   0.01732463
5506.00   0.77738976   0.01725444
5508.00   0.77940106   0.01734124
5510.00   0.78393263   0.01749567
5512.00   0.78740233   0.01769071
5514.00   0.77782804   0.01762157
5516.00   0.80184674   0.01792615
5518.00   0.77899468   0.01786018
5520.00   0.75528002   0.01767589
5522.00   0.77077794   0.01773793
5524.00   0.75410604   0.01763123
5526.00   0.79465723   0.01785157
5528.00   0.75499678   0.01749208
5530.00   0.79341125   0.01769275
5532.00   0.77549618   0.01755367
5534.00   0.78538603   0.01755196
5536.00   0.76760799   0.01743975
5538.00   0.78879189   0.01760813
5540.00   0.76670754   0.01757074
5542.00   0.78606075   0.01777801
5544.00   0.76556498   0.01753957
5546.00   0.74715412   0.01748759
5548.00   0.74884713   0.01752956
5550.00   0.73496944   0.01746948
5552.00   0.74809718   0.01744651
5554.00   0.73573017   0.01744455
5556.00   0.72184283   0.01734103
5558.00   0.74637598   0.01753353
5560.00   0.75141042   0.02657409
5562.00   0.74717253   0.02666712
5564.00   0.72824931   0.02677936
5566.00   0.71697569   0.02709847
5568.00   0.71408868   0.02756214
5570.00   0.72345734   0.02820192
5572.00   0.70470268   0.02908405
5574.00   0.70574450   0.03056752
5576.00   0.69723248   0.03162638
5578.00   0.68627197   0.03164941
5580.00   0.69090915   0.03074205
5582.00   0.69373006   0.02924403
5584.00   0.69128609   0.02711820
5586.00   0.69092160   0.02479899
5588.00   0.69581896   0.02318618
5590.00   0.70081949   0.02278565
5592.00   0.69258529   0.02254028
5594.00   0.68124002   0.02230091
5596.00   0.67970377   0.02215513
5598.00   0.69497609   0.02217115
5600.00   0.68421167   0.02192218
5602.00   0.67296463   0.02167853
5604.00   0.68412560   0.02166247
5606.00   0.70703882   0.02174877
5608.00   0.70493174   0.02157673
5610.00   0.69369179   0.02130328
5612.00   0.68642282   0.02109449
5614.00   0.69078588   0.02101489
5616.00   0.69565058   0.02095690
5618.00   0.72748870   0.02113462
5620.00   0.72853661   0.02102308
5622.00   0.72844648   0.02086590
5624.00   0.73937875   0.02083050
5626.00   0.73885155   0.02076029
5628.00   0.71534806   0.02047950
5630.00   0.70861316   0.02032914
5632.00   0.73057127   0.02035382
5634.00   0.75780898   0.02053911
5636.00   0.77204233   0.02060762
5638.00   0.73656732   0.02011146
5640.00   0.73450392   0.01999317
5642.00   0.74317765   0.02002378
5644.00   0.75593495   0.02007709
5646.00   0.74855024   0.01991676
5648.00   0.74720508   0.01983508
5650.00   0.74786490   0.01980356
5652.00   0.75932240   0.01983734
5654.00   0.76543856   0.01980790
5656.00   0.75382811   0.01966933
5658.00   0.75397205   0.01969356
5660.00   0.76599050   0.01979117
5662.00   0.75870347   0.01989109
5664.00   0.74721628   0.01996141
5666.00   0.75583488   0.02007362
5668.00   0.77935123   0.02030517
5670.00   0.78725201   0.02050426
5672.00   0.78939837   0.02082033
5674.00   0.78200173   0.02101807
5676.00   0.78806239   0.02110360
5678.00   0.81062675   0.02143904
5680.00   0.81200337   0.02175350
5682.00   0.79992169   0.02203519
5684.00   0.80447596   0.02243354
5686.00   0.80452508   0.02264909
5688.00   0.80932921   0.02270014
5690.00   0.81141353   0.02249075
5692.00   0.81599587   0.02202372
5694.00   0.82139915   0.02140670
5696.00   0.83635253   0.02091562
5698.00   0.81911111   0.02029776
5700.00   0.79208636   0.01970396
5702.00   0.79661226   0.01940908
5704.00   0.82331532   0.01932371
5706.00   0.81716269   0.01911592
5708.00   0.81621224   0.01898574
5710.00   0.82308692   0.01894046
5712.00   0.82709497   0.01887854
5714.00   0.82808495   0.01876734
5716.00   0.82960695   0.01866905
5718.00   0.84333467   0.01864369
5720.00   0.85582262   0.01860499
5722.00   0.85025316   0.01844919
5724.00   0.85713696   0.01841495
5726.00   0.85533339   0.01836455
5728.00   0.84000468   0.01819330
5730.00   0.84121841   0.01809574
5732.00   0.87228721   0.01822871
5734.00   0.86840796   0.01813712
5736.00   0.86821705   0.01809040
5738.00   0.86732525   0.01804027
5740.00   0.86945015   0.01801967
5742.00   0.87485856   0.01805001
5744.00   0.88162583   0.01805343
5746.00   0.88643265   0.01809587
5748.00   0.87974936   0.01806902
5750.00   0.86623043   0.01797855
5752.00   0.88336116   0.01811009
5754.00   0.89031291   0.01809249
5756.00   0.87137294   0.01803586
5758.00   0.85997796   0.01809409
5760.00   0.85828418   0.01821761
5762.00   0.84689379   0.01832716
5764.00   0.85769218   0.01867096
5766.00   0.87122887   0.01902412
5768.00   0.87379986   0.01922512
5770.00   0.87274867   0.01923911
5772.00   0.88218874   0.01915069
5774.00   0.87710613   0.01888773
5776.00   0.86508530   0.01850389
5778.00   0.85764295   0.01815894
5780.00   0.86589909   0.01805636
5782.00   0.87262541   0.01811976
5784.00   0.87589377   0.01832619
5786.00   0.87372893   0.01859304
5788.00   0.86421806   0.01877813
5790.00   0.86055613   0.01887149
5792.00   0.86905676   0.01893568
5794.00   0.87069911   0.01880718
5796.00   0.86486417   0.01849520
5798.00   0.85881901   0.01810299
5800.00   0.87653571   0.01795513
5802.00   0.88048393   0.01786816
5804.00   0.87503272   0.01777394
5806.00   0.86282063   0.01766630
5808.00   0.86792517   0.01768747
5810.00   0.88643020   0.01777903
5812.00   0.88407344   0.01776312
5814.00   0.87317705   0.01770996
5816.00   0.87092996   0.01768489
5818.00   0.87438864   0.01764322
5820.00   0.88528711   0.01771572
5822.00   0.88860178   0.01775895
5824.00   0.88219267   0.01774516
5826.00   0.88035488   0.01774053
5828.00   0.89022756   0.01782439
5830.00   0.88554031   0.01784109
5832.00   0.87744159   0.01781125
5834.00   0.87748843   0.01779515
5836.00   0.88400006   0.01782473
5838.00   0.89033943   0.01791755
5840.00   0.88106561   0.01791433
5842.00   0.87180161   0.01790051
5844.00   0.87232894   0.01791731
5846.00   0.87478918   0.01793569
5848.00   0.87282658   0.01795248
5850.00   0.87588662   0.01800737
5852.00   0.88094759   0.01806498
5854.00   0.86896294   0.01802224
5856.00   0.86639601   0.01806170
5858.00   0.88454199   0.01831450
5860.00   0.88889313   0.01837951
5862.00   0.87780613   0.01846362
5864.00   0.88580292   0.01882662
#5866.00   0.91589266   0.01933499
5868.00   0.89374065   0.01909120
5870.00   0.87508535   0.01871450
5872.00   0.87152433   0.01850024
5874.00   0.87619060   0.01852636
5876.00   0.86703283   0.01864016
5878.00   0.82480639   0.01853430
5880.00   0.82843894   0.01911448
5882.00   0.82973737   0.02034325
5884.00   0.81337833   0.02223477
5886.00   0.79030460   0.02469041
5888.00   0.80690366   0.02730790
5890.00   0.80860561   0.02910511
5892.00   0.80160546   0.03016821
5894.00   0.80027324   0.03039200
5896.00   0.78905028   0.02916501
5898.00   0.77964669   0.02672251
5900.00   0.78690094   0.02423844
5902.00   0.79268426   0.02187994
5904.00   0.79721266   0.01962543
5906.00   0.80490130   0.01807256
5908.00   0.80359501   0.01764116
5910.00   0.80660552   0.01769942
5912.00   0.80513495   0.01779635
5914.00   0.79423982   0.01777914
5916.00   0.80401736   0.01781991
5918.00   0.80449891   0.01779215
5920.00   0.80402422   0.01780344
5922.00   0.79844862   0.01777963
5924.00   0.79490751   0.01774684
5926.00   0.80146939   0.01782502
5928.00   0.80730563   0.01791411
5930.00   0.80311871   0.01793120
5932.00   0.79886699   0.01790397
5934.00   0.78781766   0.01779975
5936.00   0.79311818   0.01773533
5938.00   0.79435831   0.01762022
5940.00   0.78369516   0.01743911
5942.00   0.78546220   0.01732875
5944.00   0.78770590   0.01729622
5946.00   0.79144192   0.01726542
5948.00   0.79059291   0.01725494
5950.00   0.79628390   0.01732441
5952.00   0.80313206   0.01740335
5954.00   0.80451202   0.01735239
5956.00   0.80125189   0.01729927
5958.00   0.79434007   0.01720607
5960.00   0.78720069   0.01709037
5962.00   0.78621387   0.01700026
5964.00   0.79356813   0.01697170
5966.00   0.79690790   0.01700213
5968.00   0.79339391   0.01699591
5970.00   0.79756188   0.01700686
5972.00   0.80206585   0.01701546
5974.00   0.79453462   0.01698928
5976.00   0.78916383   0.01694203
5978.00   0.78825861   0.01688947
5980.00   0.78328753   0.01678905
5982.00   0.77978879   0.01669751
5984.00   0.77624387   0.01662289
5986.00   0.77929503   0.01661152
5988.00   0.77673692   0.01658034
5990.00   0.78020507   0.01659669
5992.00   0.78725439   0.01660951
5994.00   0.78802544   0.01658738
5996.00   0.77825385   0.01649656
5998.00   0.76587766   0.01640697
6000.00   0.75857288   0.01635712
6002.00   0.76183629   0.01635729
6004.00   0.78492355   0.01643511
6006.00   0.78827399   0.01638821
6008.00   0.77918172   0.01629157
6010.00   0.77505165   0.01622820
6012.00   0.77843690   0.01618862
6014.00   0.78349972   0.01615925
6016.00   0.77858067   0.01608920
6018.00   0.77712220   0.01605782
6020.00   0.78186494   0.01608680
6022.00   0.78409642   0.01607982
6024.00   0.79544425   0.01614712
6026.00   0.79191607   0.01610975
6028.00   0.78485060   0.01603723
6030.00   0.77948356   0.01598905
6032.00   0.78583080   0.01602667
6034.00   0.79284126   0.01606147
6036.00   0.79957789   0.01606297
6038.00   0.79297894   0.01596235
6040.00   0.79711533   0.01594452
6042.00   0.79258585   0.01592652
6044.00   0.79327083   0.01590285
6046.00   0.79411054   0.01586526
6048.00   0.79552203   0.01586673
6050.00   0.79611850   0.01585667
6052.00   0.79341698   0.01579689
6054.00   0.78790927   0.01573410
6056.00   0.78969979   0.01573918
6058.00   0.78604108   0.01571027
6060.00   0.77499413   0.01561506
6062.00   0.77956194   0.01561603
6064.00   0.79310876   0.01569992
6066.00   0.79579544   0.01573408
6068.00   0.79143834   0.01568865
6070.00   0.78423125   0.01560296
6072.00   0.79137820   0.01564364
6074.00   0.79687709   0.01567649
6076.00   0.79347706   0.01562362
6078.00   0.77687293   0.01548413
6080.00   0.77565479   0.01549086
6082.00   0.78089231   0.01554823
6084.00   0.78349239   0.01553004
6086.00   0.78277779   0.01548751
6088.00   0.76982719   0.01543198
6090.00   0.75204277   0.01534280
6092.00   0.76140690   0.01541988
6094.00   0.77082539   0.01549850
6096.00   0.77098399   0.01551371
6098.00   0.75921839   0.01550366
6100.00   0.75771356   0.01557820
6102.00   0.76417971   0.01575300
6104.00   0.77738971   0.01597785
6106.00   0.77167493   0.01607489
6108.00   0.75678104   0.01621525
6110.00   0.76389951   0.01647112
6112.00   0.77198917   0.01665944
6114.00   0.77040523   0.01667120
6116.00   0.77008247   0.01658051
6118.00   0.77684498   0.01645010
6120.00   0.77503949   0.01621477
6122.00   0.76463485   0.01589907
6124.00   0.76104903   0.01566531
6126.00   0.75870126   0.01555138
6128.00   0.75573987   0.01544879
6130.00   0.75602061   0.01539236
6132.00   0.75465661   0.01535224
6134.00   0.75033253   0.01531618
6136.00   0.75457835   0.01532787
6138.00   0.74465966   0.01525576
6140.00   0.74913007   0.01530440
6142.00   0.75425434   0.01535999
6144.00   0.74942088   0.01533298
6146.00   0.74780339   0.01528674
6148.00   0.74343944   0.01527540
6150.00   0.73579478   0.01525276
6152.00   0.73548478   0.01528162
6154.00   0.74071980   0.01537046
6156.00   0.73231363   0.01537926
6158.00   0.73510796   0.01549179
6160.00   0.74458790   0.01555537
6162.00   0.74851155   0.01549414
6164.00   0.73610216   0.01530010
6166.00   0.71663553   0.01502788
6168.00   0.71654963   0.01485079
6170.00   0.71888703   0.01472479
6172.00   0.71348548   0.01461476
6174.00   0.71180099   0.01455088
6176.00   0.70526284   0.01442714
6178.00   0.71135169   0.01439589
6180.00   0.70810390   0.01434216
6182.00   0.70122910   0.01431746
6184.00   0.69441897   0.01425073
6186.00   0.68789774   0.01418027
6188.00   0.68052959   0.01410101
6190.00   0.66960365   0.01401744
6192.00   0.66418254   0.01398669
6194.00   0.66239685   0.01396832
6196.00   0.65824527   0.01393824
6198.00   0.65496475   0.01389327
6200.00   0.64683557   0.01383272
6202.00   0.63293022   0.01378490
6204.00   0.63375497   0.01379838
6206.00   0.62379342   0.01372050
6208.00   0.61906147   0.01372172
6210.00   0.60896897   0.01380546
6212.00   0.60017580   0.01391933
6214.00   0.59862572   0.01360969
6216.00   0.59043938   0.01334303
6218.00   0.58507520   0.01330796
6220.00   0.57771522   0.01320580
6222.00   0.57100755   0.01313401
6224.00   0.55818921   0.01301416
6226.00   0.55026799   0.01292562
6228.00   0.54268390   0.01289262
6230.00   0.53355855   0.01295469
6232.00   0.52336574   0.01307246
6234.00   0.50579739   0.01315174
6236.00   0.49544016   0.01322490
6238.00   0.49064538   0.01324331
6240.00   0.48289490   0.01313854
6242.00   0.47365415   0.01287623
6244.00   0.46584609   0.01255078
6246.00   0.45086172   0.01224356
6248.00   0.43348393   0.01200483
6250.00   0.42372736   0.01189848
6252.00   0.42802823   0.01197321
6254.00   0.42572570   0.01212282
6256.00   0.41622317   0.01221111
6258.00   0.40217328   0.01219326
6260.00   0.39497626   0.01215343
6262.00   0.39110908   0.01207274
6264.00   0.38979161   0.01190272
6266.00   0.38751778   0.01171366
6268.00   0.38152167   0.01155404
6270.00   0.37735167   0.01146842
6272.00   0.37327436   0.01139259
6274.00   0.36826718   0.01130052
6276.00   0.36642680   0.01127664
6278.00   0.36261639   0.01130013
6280.00   0.35273981   0.01126876
6282.00   0.35312733   0.01123877
6284.00   0.35246459   0.01126995
6286.00   0.34968543   0.01134210
6288.00   0.34550986   0.01136725
6290.00   0.34921566   0.01139571
6292.00   0.35837731   0.01161305
6294.00   0.35705280   0.01197868
6296.00   0.35310435   0.01258844
6298.00   0.34762666   0.01330077
6300.00   0.34573963   0.01365461
6302.00   0.34678170   0.01376897
6304.00   0.34861100   0.01357997
6306.00   0.35160828   0.01304989
6308.00   0.35003147   0.01223391
6310.00   0.36094061   0.01175218
6312.00   0.36682177   0.01146610
6314.00   0.36854374   0.01122768
6316.00   0.36529052   0.01100433
6318.00   0.36147273   0.01094487
6320.00   0.36848652   0.01105328
6322.00   0.37289870   0.01112057
6324.00   0.37508854   0.01117507
6326.00   0.37889513   0.01127959
6328.00   0.38250944   0.01137449
6330.00   0.38636956   0.01139767
6332.00   0.39101636   0.01140346
6334.00   0.39416161   0.01133684
6336.00   0.40205598   0.01120748
6338.00   0.40190271   0.01104977
6340.00   0.40506434   0.01101175
6342.00   0.40804020   0.01105726
6344.00   0.41368356   0.01115421
6346.00   0.42233324   0.01122903
6348.00   0.43077651   0.01130843
6350.00   0.43361032   0.01138665
6352.00   0.43860459   0.01150407
6354.00   0.44580391   0.01162523
6356.00   0.45170870   0.01169867
6358.00   0.45352972   0.01185756
6360.00   0.44930151   0.01202722
6362.00   0.44768897   0.01211940
6364.00   0.46374094   0.01217438
6366.00   0.46803227   0.01208235
6368.00   0.47109485   0.01196735
6370.00   0.47490802   0.01175449
6372.00   0.48203984   0.01157127
6374.00   0.48404148   0.01149351
6376.00   0.49369279   0.01162435
6378.00   0.49573931   0.01165356
6380.00   0.50124580   0.01171860
6382.00   0.50464010   0.01177477
6384.00   0.50263548   0.01177087
6386.00   0.51656288   0.01184834
6388.00   0.52723557   0.01188700
6390.00   0.52589947   0.01182060
6392.00   0.52873707   0.01176199
6394.00   0.52845353   0.01167867
6396.00   0.52896094   0.01168148
6398.00   0.52885240   0.01170244
6400.00   0.53181165   0.01175672
6402.00   0.54123968   0.01182967
6404.00   0.55091488   0.01185675
6406.00   0.54269177   0.01182171
6408.00   0.54631048   0.01183989
6410.00   0.54799271   0.01184250
6412.00   0.54587567   0.01182719
6414.00   0.55299908   0.01189566
6416.00   0.56271392   0.01195921
6418.00   0.56442213   0.01193528
6420.00   0.55971694   0.01186721
6422.00   0.55998689   0.01185398
6424.00   0.56736588   0.01187340
6426.00   0.57222831   0.01184787
6428.00   0.57317924   0.01181915
6430.00   0.57169962   0.01179550
6432.00   0.57255411   0.01178425
6434.00   0.56943005   0.01177476
6436.00   0.57427853   0.01180889
6438.00   0.57092124   0.01178368
6440.00   0.56537348   0.01174014
6442.00   0.56258321   0.01170896
6444.00   0.56631440   0.01175002
6446.00   0.56873584   0.01176757
6448.00   0.56709856   0.01175107
6450.00   0.56303972   0.01172335
6452.00   0.56401014   0.01173956
6454.00   0.56265992   0.01173780
6456.00   0.55297536   0.01167345
6458.00   0.54447764   0.01164613
6460.00   0.54446918   0.01173999
6462.00   0.54518890   0.01185185
6464.00   0.54776084   0.01194338
6466.00   0.54598409   0.01198539
6468.00   0.53984237   0.01196898
6470.00   0.53068781   0.01185940
6472.00   0.52480119   0.01168709
6474.00   0.53413647   0.01162723
6476.00   0.54040760   0.01156911
6478.00   0.53616023   0.01146199
6480.00   0.52876788   0.01134110
6482.00   0.52528983   0.01125097
6484.00   0.51981848   0.01116185
6486.00   0.51719522   0.01111200
6488.00   0.52270651   0.01114287
6490.00   0.52292913   0.01117454
6492.00   0.52199459   0.01124498
6494.00   0.52373773   0.01143009
6496.00   0.52500504   0.01164336
6498.00   0.52061701   0.01175824
6500.00   0.51853877   0.01180708
6502.00   0.51679707   0.01179398
6504.00   0.51558369   0.01166489
6506.00   0.51306707   0.01146944
6508.00   0.51778609   0.01135134
6510.00   0.52150613   0.01130696
6512.00   0.52062482   0.01120018
6514.00   0.51810956   0.01108465
6516.00   0.51519811   0.01103515
6518.00   0.51438308   0.01107722
6520.00   0.52366954   0.01116845
6522.00   0.52132672   0.01116646
6524.00   0.52586871   0.01122443
6526.00   0.52903897   0.01130521
6528.00   0.52126914   0.01133437
6530.00   0.52404952   0.01148993
6532.00   0.52270347   0.01153297
6534.00   0.52356094   0.01152740
6536.00   0.52908283   0.01150177
6538.00   0.53247821   0.01147082
6540.00   0.52546591   0.01131847
6542.00   0.52411860   0.01124069
6544.00   0.52156919   0.01121685
6546.00   0.51716751   0.01122218
6548.00   0.52329171   0.01130211
6550.00   0.52544600   0.01142852
6552.00   0.52762270   0.01151229
6554.00   0.52785808   0.01152470
6556.00   0.52636051   0.01149778
6558.00   0.52055359   0.01139773
6560.00   0.52454108   0.01133745
6562.00   0.52183944   0.01123411
6564.00   0.51976198   0.01118814
6566.00   0.52794713   0.01125904
6568.00   0.52799797   0.01123452
6570.00   0.52772838   0.01118212
6572.00   0.52558964   0.01119794
6574.00   0.52329803   0.01128719
6576.00   0.52001190   0.01133414
6578.00   0.51925153   0.01129224
6580.00   0.51945406   0.01124771
6582.00   0.51685315   0.01114541
6584.00   0.51728290   0.01102450
6586.00   0.51995736   0.01090431
6588.00   0.52132583   0.01088305
6590.00   0.51899379   0.01087674
6592.00   0.51435608   0.01087296
6594.00   0.51547790   0.01091181
6596.00   0.51963687   0.01095385
6598.00   0.52062303   0.01101219
6600.00   0.51656061   0.01102696
6602.00   0.50989324   0.01098892
6604.00   0.50206739   0.01090808
6606.00   0.50316978   0.01087548
6608.00   0.50412148   0.01081873
6610.00   0.50378412   0.01073272
6612.00   0.50004703   0.01062838
6614.00   0.50168693   0.01059783
6616.00   0.50800276   0.01063809
6618.00   0.50804812   0.01062884
6620.00   0.50109702   0.01058400
6622.00   0.49705637   0.01057581
6624.00   0.50060827   0.01062244
6626.00   0.50217730   0.01063808
6628.00   0.50322491   0.01064467
6630.00   0.50242966   0.01066011
6632.00   0.49917635   0.01066517
6634.00   0.49348488   0.01062665
6636.00   0.49502346   0.01060808
6638.00   0.49288452   0.01056038
6640.00   0.49219808   0.01050549
6642.00   0.49514404   0.01047755
6644.00   0.49756756   0.01049780
6646.00   0.50079662   0.01053094
6648.00   0.49804127   0.01049617
6650.00   0.48982731   0.01042175
6652.00   0.48144117   0.01035264
6654.00   0.48481259   0.01038607
6656.00   0.48213983   0.01036783
6658.00   0.48125276   0.01036195
6660.00   0.48144579   0.01037338
6662.00   0.48553827   0.01041978
6664.00   0.48264813   0.01040079
6666.00   0.48138443   0.01038430
6668.00   0.48508549   0.01039049
6670.00   0.48822531   0.01038718
6672.00   0.48901272   0.01038455
6674.00   0.48578826   0.01035687
6676.00   0.48565412   0.01033881
6678.00   0.48124918   0.01029953
6680.00   0.47767627   0.01028006
6682.00   0.47526321   0.01024841
6684.00   0.47451830   0.01024133
6686.00   0.47278666   0.01021473
6688.00   0.47673354   0.01023266
6690.00   0.47665909   0.01023035
6692.00   0.47440138   0.01022425
6694.00   0.47521567   0.01022714
6696.00   0.47158340   0.01019082
6698.00   0.47002348   0.01019329
6700.00   0.46836028   0.01022339
6702.00   0.47304034   0.01029862
6704.00   0.47366223   0.01034924
6706.00   0.47190619   0.01036034
6708.00   0.47108006   0.01035122
6710.00   0.47140932   0.01034325
6712.00   0.46815267   0.01029243
6714.00   0.45994887   0.01015484
6716.00   0.46019468   0.01010644
6718.00   0.46266356   0.01009737
6720.00   0.45727074   0.01003475
6722.00   0.45844945   0.01002575
6724.00   0.46140733   0.01003256
6726.00   0.45875493   0.01001047
6728.00   0.45188391   0.00995697
6730.00   0.45073190   0.00993694
6732.00   0.44984332   0.00992022
6734.00   0.44859695   0.00992226
6736.00   0.44544196   0.00990996
6738.00   0.44803825   0.00993321
6740.00   0.44693658   0.00991290
6742.00   0.44399992   0.00989406
6744.00   0.44396576   0.00990473
6746.00   0.45104632   0.00995205
6748.00   0.46171185   0.01000611
6750.00   0.46167040   0.00999061
6752.00   0.46633896   0.01001482
6754.00   0.46381578   0.00997824
6756.00   0.45576844   0.00989706
6758.00   0.44417158   0.00980058
6760.00   0.43858966   0.00974300
6762.00   0.43644583   0.00972150
6764.00   0.43280256   0.00969132
6766.00   0.42421353   0.00961626
6768.00   0.42094174   0.00958077
6770.00   0.42676869   0.00962018
6772.00   0.42807165   0.00960730
6774.00   0.42656836   0.00958018
6776.00   0.42616093   0.00958697
6778.00   0.42500174   0.00956477
6780.00   0.42636934   0.00958551
6782.00   0.42473817   0.00957117
6784.00   0.42096981   0.00954377
6786.00   0.41721401   0.00952337
6788.00   0.41708863   0.00950269
6790.00   0.41771004   0.00948772
6792.00   0.41898632   0.00949491
6794.00   0.41885427   0.00948206
6796.00   0.41781184   0.00945621
6798.00   0.41509056   0.00943462
6800.00   0.41144410   0.00939461
6802.00   0.40788877   0.00936548
6804.00   0.40796873   0.00936561
6806.00   0.41060206   0.00938045
6808.00   0.40826270   0.00936723
6810.00   0.40780106   0.00935916
6812.00   0.40706670   0.00934177
6814.00   0.40632665   0.00933854
6816.00   0.40944836   0.00938313
6818.00   0.40318838   0.00933123
6820.00   0.40215826   0.00934102
6822.00   0.40317094   0.00949657
6824.00   0.40086293   0.00981296
6826.00   0.39715406   0.01021443
6828.00   0.39183983   0.01052355
6830.00   0.38838097   0.01078095
6832.00   0.39154968   0.01093248
6834.00   0.39510038   0.01084071
6836.00   0.39245987   0.01049852
6838.00   0.39351544   0.01020385
6840.00   0.39538327   0.00991744
6842.00   0.39726126   0.00965575
6844.00   0.39654627   0.00948571
6846.00   0.39653802   0.00946825
6848.00   0.39546201   0.00941082
6850.00   0.39326105   0.00929999
6852.00   0.39058796   0.00921606
6854.00   0.39191124   0.00922741
6856.00   0.38826942   0.00926165
6858.00   0.39001191   0.00963547
6860.00   0.39194050   0.01021214
6862.00   0.38463435   0.01065679
6864.00   0.37158549   0.01084496
6866.00   0.37479630   0.01140032
6868.00   0.38153481   0.01205054
6870.00   0.38507000   0.01214512
6872.00   0.38812104   0.01157048
6874.00   0.39024451   0.01092774
6876.00   0.38004151   0.01045335
6878.00   0.37323204   0.01009620
6880.00   0.36969838   0.00980261
6882.00   0.36547491   0.00959690
6884.00   0.36380240   0.00964535
6886.00   0.36890826   0.00993862
6888.00   0.37280914   0.01011263
6890.00   0.36983314   0.01007663
6892.00   0.36345589   0.00995858
6894.00   0.36041084   0.00988323
6896.00   0.36333522   0.00982679
6898.00   0.36722067   0.00981008
6900.00   0.37023911   0.00982111
6902.00   0.36106846   0.00971290
6904.00   0.35842857   0.00960307
6906.00   0.35754153   0.00953187
6908.00   0.35786065   0.00956817
6910.00   0.35906196   0.00965960
6912.00   0.36367121   0.00971853
6914.00   0.35314250   0.00957576
6916.00   0.34821343   0.00955122
6918.00   0.35202035   0.00966198
6920.00   0.35373712   0.00977042
6922.00   0.34756288   0.00978428
6924.00   0.34675121   0.00978423
6926.00   0.35298672   0.00976561
6928.00   0.35364446   0.00955373
6930.00   0.34172308   0.00910243
6932.00   0.33454373   0.00883476
6934.00   0.34437966   0.00897944
6936.00   0.34979686   0.00916903
6938.00   0.34397927   0.00922915
6940.00   0.33707342   0.00922786
6942.00   0.33503297   0.00927549
6944.00   0.33141229   0.00946512
6946.00   0.33112526   0.00965517
6948.00   0.33549091   0.00975911
6950.00   0.34176004   0.00978960
6952.00   0.33533099   0.00967356
6954.00   0.33609858   0.00942542
6956.00   0.33548927   0.00904837
6958.00   0.33446351   0.00874434
6960.00   0.33185720   0.00862904
6962.00   0.33204812   0.00862223
6964.00   0.32970902   0.00866431
6966.00   0.32935584   0.00874990
6968.00   0.32844833   0.00881669
6970.00   0.32313564   0.00880792
6972.00   0.32613429   0.00895591
6974.00   0.32732397   0.00913429
6976.00   0.32841286   0.00922451
6978.00   0.33070090   0.00921104
6980.00   0.31855884   0.00909822
6982.00   0.32079124   0.00908496
6984.00   0.31941086   0.00887398
6986.00   0.31585950   0.00859245
6988.00   0.31843874   0.00851566
6990.00   0.32357976   0.00855262
6992.00   0.31917650   0.00849219
6994.00   0.31822363   0.00846824
6996.00   0.32102141   0.00849685
6998.00   0.32018113   0.00852111
7000.00   0.31934798   0.00857890
7002.00   0.31528336   0.00855878
7004.00   0.31225440   0.00856693
7006.00   0.30998707   0.00862549
7008.00   0.31025982   0.00870091
7010.00   0.30504403   0.00865954
7012.00   0.31054613   0.00866502
7014.00   0.31511971   0.00863593
7016.00   0.31625795   0.00856615
7018.00   0.31391606   0.00841513
7020.00   0.30966306   0.00826251
7022.00   0.30813184   0.00822288
7024.00   0.31090668   0.00827271
7026.00   0.31249249   0.00831318
7028.00   0.31307027   0.00836469
7030.00   0.30823478   0.00832962
7032.00   0.30282423   0.00824797
7034.00   0.29739869   0.00818121
7036.00   0.29722205   0.00821612
7038.00   0.29547802   0.00826494
7040.00   0.29221532   0.00825847
7042.00   0.29779860   0.00836302
7044.00   0.30577812   0.00852872
7046.00   0.30407390   0.00859650
7048.00   0.29698813   0.00855314
7050.00   0.30012217   0.00858194
7052.00   0.30041891   0.00856592
7054.00   0.29640007   0.00844340
7056.00   0.29582080   0.00826267
7058.00   0.29556754   0.00820632
7060.00   0.29882279   0.00825105
7062.00   0.29836389   0.00828936
7064.00   0.29219815   0.00826215
7066.00   0.29203692   0.00828311
7068.00   0.29497266   0.00832038
7070.00   0.29834822   0.00835836
7072.00   0.29828766   0.00834292
7074.00   0.29167756   0.00824090
7076.00   0.28516385   0.00815785
7078.00   0.29098082   0.00822874
7080.00   0.29469898   0.00827487
7082.00   0.29323915   0.00826709
7084.00   0.28953731   0.00827627
7086.00   0.28981057   0.00830463
7088.00   0.28896454   0.00830452
7090.00   0.29020545   0.00829713
7092.00   0.28966454   0.00826113
7094.00   0.28924608   0.00819248
7096.00   0.28875509   0.00811387
7098.00   0.28792772   0.00803182
7100.00   0.28413668   0.00796683
7102.00   0.28250989   0.00794711
7104.00   0.28266317   0.00793730
7106.00   0.28025031   0.00792891
7108.00   0.28746673   0.00800901
7110.00   0.29155841   0.00804434
7112.00   0.29087365   0.00802066
7114.00   0.28435609   0.00792957
7116.00   0.28389880   0.00795039
7118.00   0.28374627   0.00799514
7120.00   0.28086212   0.00799927
7122.00   0.27895275   0.00799518
7124.00   0.27905551   0.00800144
7126.00   0.28248361   0.00805004
7128.00   0.27652520   0.00802747
7130.00   0.27212337   0.00799225
7132.00   0.28107050   0.00803567
7134.00   0.27571705   0.00797158
7136.00   0.27472085   0.00793728
7138.00   0.27416515   0.00792892
7140.00   0.27102438   0.00793281
7142.00   0.26938227   0.00796578
7144.00   0.26678884   0.00800428
7146.00   0.26739654   0.00804215
7148.00   0.26966667   0.00801480
7150.00   0.26763484   0.00791418
7152.00   0.25744808   0.00778652
7154.00   0.26122025   0.00777354
7156.00   0.26279703   0.00776519
7158.00   0.26410663   0.00778207
7160.00   0.26246640   0.00780060
7162.00   0.25775918   0.00781132
7164.00   0.25489917   0.00782074
7166.00   0.25674000   0.00789469
7168.00   0.26099515   0.00799644
7170.00   0.26011238   0.00804234
7172.00   0.25675780   0.00806516
7174.00   0.25625026   0.00809801
7176.00   0.26270244   0.00818869
7178.00   0.26641294   0.00821503
7180.00   0.26341137   0.00812149
7182.00   0.25717434   0.00806378
7184.00   0.26064798   0.00816906
7186.00   0.26378748   0.00823057
7188.00   0.26216713   0.00814746
7190.00   0.26121816   0.00803057
7192.00   0.25796926   0.00798904
7194.00   0.26207712   0.00803295
7196.00   0.26450169   0.00804850
7198.00   0.26395079   0.00805924
7200.00   0.26191151   0.00806763
7202.00   0.26272294   0.00809678
7204.00   0.26321638   0.00808635
7206.00   0.26106629   0.00800436
7208.00   0.25881675   0.00786900
7210.00   0.26353434   0.00782496
7212.00   0.26043728   0.00767813
7214.00   0.25917804   0.00763257
7216.00   0.26200056   0.00768511
7218.00   0.26408383   0.00772096
7220.00   0.25962359   0.00770038
7222.00   0.25724658   0.00772185
7224.00   0.25909710   0.00779147
7226.00   0.26197362   0.00783452
7228.00   0.26466778   0.00785156
7230.00   0.26222557   0.00793202
7232.00   0.26522455   0.00829754
7234.00   0.26378438   0.00901645
7236.00   0.26524031   0.00999461
7238.00   0.27966142   0.01093722
7240.00   0.27273116   0.01167292
7242.00   0.25578973   0.01227860
7244.00   0.25956982   0.01237999
7246.00   0.27281243   0.01176770
7248.00   0.27237365   0.01089960
7250.00   0.25745058   0.01010325
7252.00   0.25850922   0.00944879
7254.00   0.26607743   0.00898141
7256.00   0.26330572   0.00866688
7258.00   0.26189253   0.00845149
7260.00   0.26181865   0.00821463
7262.00   0.25955769   0.00806903
7264.00   0.25616333   0.00805434
7266.00   0.25695327   0.00815302
7268.00   0.25488141   0.00816026
7270.00   0.25312033   0.00876303
7272.00   0.25851905   0.00999921
7274.00   0.26475343   0.01113604
7276.00   0.26457033   0.01155355
7278.00   0.26439205   0.01160411
7280.00   0.26145816   0.01142151
7282.00   0.26379573   0.01076864
7284.00   0.27143466   0.00986946
7286.00   0.25939211   0.00935008
7288.00   0.26308474   0.00931197
7290.00   0.26417735   0.00907268
7292.00   0.25584936   0.00864134
7294.00   0.25074896   0.00835030
7296.00   0.25482896   0.00835034
7298.00   0.25791743   0.00850329
7300.00   0.25871918   0.00874986
7302.00   0.26488134   0.00894711
7304.00   0.26132628   0.00887836
7306.00   0.25853354   0.00877379
7308.00   0.25393471   0.00865670
7310.00   0.24650703   0.00884581
7312.00   0.24446829   0.00947084
7314.00   0.25247106   0.01021251
7316.00   0.25799963   0.01049178
7318.00   0.25898483   0.01040503
7320.00   0.25627616   0.00997666
7322.00   0.25512794   0.00928842
7324.00   0.25990340   0.00863730
7326.00   0.25946710   0.00871602
7328.00   0.25826877   0.00889168
7330.00   0.25456157   0.00896412
7332.00   0.25191107   0.00894298
7334.00   0.25332236   0.00899772
7336.00   0.25579795   0.00955873
7338.00   0.25570631   0.01021055
7340.00   0.25551176   0.01058392
7342.00   0.25319722   0.01060589
7344.00   0.25688896   0.01048604
7346.00   0.26383352   0.00980177
7348.00   0.25690114   0.00870748
7350.00   0.25101504   0.00791170
7352.00   0.25870806   0.00796343
7354.00   0.25850448   0.00838612
7356.00   0.25298604   0.00869127
7358.00   0.25244662   0.00883144
7360.00   0.25744328   0.00889585
7362.00   0.26582533   0.00904363
7364.00   0.25408554   0.00924553
7366.00   0.24935786   0.00965612
7368.00   0.25270274   0.00996611
7370.00   0.25679412   0.01006105
7372.00   0.25916204   0.00992814
7374.00   0.25632787   0.00938777
7376.00   0.25120586   0.00847202
7378.00   0.24852823   0.00777348
7380.00   0.24990602   0.00760868
7382.00   0.24997322   0.00763616
7384.00   0.25278571   0.00769527
7386.00   0.24918540   0.00783485
7388.00   0.24572118   0.00810817
7390.00   0.25122064   0.00843775
7392.00   0.24771838   0.00846301
7394.00   0.24881768   0.00851181
7396.00   0.24529321   0.00874330
7398.00   0.24327879   0.00907186
7400.00   0.24320568   0.00922504
7402.00   0.24388234   0.00920145
7404.00   0.24551713   0.00917195
7406.00   0.24842697   0.00893323
7408.00   0.25021744   0.00839603
7410.00   0.24690002   0.00770827
7412.00   0.24488218   0.00750087
7414.00   0.24346226   0.00749636
7416.00   0.24112780   0.00749282
7418.00   0.24384379   0.00749551
7420.00   0.24220909   0.00745357
7422.00   0.23980911   0.00741116
7424.00   0.23996465   0.00753899
7426.00   0.24020334   0.00775195
7428.00   0.23811312   0.00787803
7430.00   0.23586857   0.00789749
7432.00   0.24017584   0.00808865
7434.00   0.24613039   0.00838097
7436.00   0.24444957   0.00851028
7438.00   0.23679464   0.00841037
7440.00   0.24117625   0.00839216
7442.00   0.24239056   0.00828611
7444.00   0.23748909   0.00792302
7446.00   0.23627774   0.00752323
7448.00   0.24494560   0.00740894
7450.00   0.24084733   0.00734825
7452.00   0.23764485   0.00730659
7454.00   0.23611058   0.00730561
7456.00   0.23414338   0.00734563
7458.00   0.23323928   0.00743885
7460.00   0.24128120   0.00762948
7462.00   0.23780501   0.00773235
7464.00   0.23118943   0.00783150
7466.00   0.22864014   0.00798656
7468.00   0.23084264   0.00819879
7470.00   0.23398273   0.00835729
7472.00   0.23256826   0.00838057
7474.00   0.22798409   0.00841142
7476.00   0.23029548   0.00856540
7478.00   0.23224838   0.00863583
7480.00   0.22777762   0.00857223
7482.00   0.22570769   0.00850918
7484.00   0.22894585   0.00841260
7486.00   0.22479255   0.00812602
7488.00   0.22122331   0.00782101
7490.00   0.22176175   0.00758109
7492.00   0.22553299   0.00746247
7494.00   0.22592527   0.00741553
7496.00   0.21976058   0.00736090
7498.00   0.21643937   0.00730005
7500.00   0.22031032   0.00725472
7502.00   0.22113115   0.00718253
7504.00   0.21858843   0.00712072
7506.00   0.21874999   0.00711858
7508.00   0.21875502   0.00710380
7510.00   0.21889007   0.00710919
7512.00   0.21797109   0.00716030
7514.00   0.21622880   0.00723057
7516.00   0.21653163   0.00736433
7518.00   0.22049184   0.00787406
7520.00   0.21579482   0.00851111
7522.00   0.21361212   0.00896381
7524.00   0.21869214   0.00914576
7526.00   0.22296251   0.00922962
7528.00   0.21790086   0.00901417
7530.00   0.22034580   0.00850940
7532.00   0.22203827   0.00796661
7534.00   0.21610229   0.00762706
7536.00   0.20868814   0.00744683
7538.00   0.21265082   0.00733406
7540.00   0.21761596   0.00728246
7542.00   0.21839143   0.00725356
7544.00   0.21416433   0.00719528
7546.00   0.21161489   0.00710156
7548.00   0.21055053   0.00703581
7550.00   0.20843375   0.00703341
7552.00   0.20728362   0.00713179
7554.00   0.20815080   0.00731198
7556.00   0.20702930   0.00741241
7558.00   0.20360284   0.00738256
7560.00   0.20347399   0.00734100
7562.00   0.20573957   0.00731650
7564.00   0.20867379   0.00731318
7566.00   0.21040221   0.00761236
7568.00   0.20750989   0.00805790
7570.00   0.20385993   0.00836538
7572.00   0.20331647   0.00844325
7574.00   0.20287114   0.00842740
7576.00   0.19796263   0.00812375
7578.00   0.19856775   0.00765115
7580.00   0.20081435   0.00728780
7582.00   0.19707541   0.00723687
7584.00   0.19517775   0.00740821
7586.00   0.19386435   0.00745585
7588.00   0.18952723   0.00739428
7590.00   0.18389909   0.00735166
7592.00   0.18322937   0.00763427
7594.00   0.19014770   0.00876841
7596.00   0.20162888   0.01093220
7598.00   0.20184469   0.01320432
7600.00   0.18866199   0.01528350
7602.00   0.18680882   0.01724200
7604.00   0.19281916   0.01777080
7606.00   0.18994774   0.01654593
7608.00   0.18799603   0.01484280
7610.00   0.18445629   0.01336554
7612.00   0.19143367   0.01214306
7614.00   0.18851691   0.01083214
7616.00   0.17602481   0.00945223
7618.00   0.16504873   0.00849132
7620.00   0.16718908   0.00849127
7622.00   0.17548920   0.00934324
7624.00   0.18464796   0.01048604
7626.00   0.18423049   0.01122276
7628.00   0.17495310   0.01141665
7630.00   0.16719706   0.01127107
7632.00   0.17107101   0.01097918
7634.00   0.17173953   0.01036447
7636.00   0.16807838   0.00960402
7638.00   0.16430293   0.00901960
7640.00   0.16321057   0.00875754
7642.00   0.16036975   0.00850346
7644.00   0.15767537   0.00835098
7646.00   0.15267722   0.00816235
7648.00   0.14985125   0.00802819
7650.00   0.15265489   0.00808704
7652.00   0.15576160   0.00792985
7654.00   0.15473257   0.00779030
7656.00   0.15549558   0.00779731
7658.00   0.15650208   0.00787313
7660.00   0.15064482   0.00788610
7662.00   0.14994012   0.00778177
7664.00   0.14923190   0.00763678
7666.00   0.14369592   0.00739929
7668.00   0.14113264   0.00708207
7670.00   0.14364834   0.00676530
7672.00   0.14151061   0.00654654
7674.00   0.14101176   0.00644813
7676.00   0.14180906   0.00642918
7678.00   0.14328076   0.00646611
7680.00   0.13916056   0.00642538
7682.00   0.14149314   0.00648089
7684.00   0.14141279   0.00655134
7686.00   0.13819739   0.00658015
7688.00   0.13861337   0.00661605
7690.00   0.13674407   0.00659180
7692.00   0.13502787   0.00655901
7694.00   0.13464418   0.00668426
7696.00   0.13482849   0.00691122
7698.00   0.14398892   0.00710107
7700.00   0.14937063   0.00706288
7702.00   0.14808415   0.00693970
7704.00   0.14745565   0.00688642
7706.00   0.14732741   0.00718910
7708.00   0.14407955   0.00823984
7710.00   0.15094587   0.00970804
7712.00   0.14288153   0.01100866
7714.00   0.13982515   0.01191524
7716.00   0.14875174   0.01214072
7718.00   0.16109617   0.01162327
7720.00   0.15682279   0.01074393
7722.00   0.15299763   0.00969069
7724.00   0.14995120   0.00860705
7726.00   0.15152647   0.00786875
7728.00   0.14732017   0.00765734
7730.00   0.14893498   0.00746055
7732.00   0.15214621   0.00716708
7734.00   0.14933351   0.00685357
7736.00   0.15368976   0.00687842
7738.00   0.15652589   0.00691407
7740.00   0.15702760   0.00683039
7742.00   0.15595900   0.00687098
7744.00   0.15329081   0.00759043
7746.00   0.15083022   0.00924864
7748.00   0.15648691   0.01055801
7750.00   0.16027375   0.01097751
7752.00   0.16232471   0.01101524
7754.00   0.16207336   0.01086534
7756.00   0.15811230   0.01022161
7758.00   0.15822236   0.00906075
7760.00   0.16449524   0.00847720
7762.00   0.16905214   0.00834623
7764.00   0.16796048   0.00809768
7766.00   0.16679244   0.00747540
7768.00   0.16396312   0.00715286
7770.00   0.16432716   0.00720639
7772.00   0.16376045   0.00736832
7774.00   0.16213432   0.00752234
7776.00   0.16245289   0.00795846
7778.00   0.16391166   0.00810299
7780.00   0.16629873   0.00797888
7782.00   0.16761126   0.00781953
7784.00   0.16973519   0.00783068
7786.00   0.16864876   0.00760446
7788.00   0.17277361   0.00808011
7790.00   0.17411377   0.00909042
7792.00   0.17490631   0.00993517
7794.00   0.17812347   0.01009790
7796.00   0.18437858   0.01002824
7798.00   0.18871041   0.00952442
7800.00   0.18463755   0.00848027
7802.00   0.17613226   0.00749994
7804.00   0.17780535   0.00774704
7806.00   0.17560254   0.00822806
7808.00   0.17662711   0.00844229
7810.00   0.17840725   0.00846471
7812.00   0.17377718   0.00836149
7814.00   0.16798675   0.00809027
7816.00   0.17314576   0.00885183
7818.00   0.18239523   0.01002209
7820.00   0.18236543   0.01072337
7822.00   0.17351110   0.01068148
7824.00   0.17510216   0.01055944
7826.00   0.17543983   0.00973753
7828.00   0.17294262   0.00837693
7830.00   0.17594473   0.00721363
7832.00   0.18087131   0.00695139
7834.00   0.18027599   0.00711273
7836.00   0.17496093   0.00754339
7838.00   0.17046897   0.00799942
7840.00   0.16859031   0.00826985
7842.00   0.16798353   0.00830027
7844.00   0.17261131   0.00841347
7846.00   0.17241257   0.00870739
7848.00   0.16698009   0.00949973
7850.00   0.15946767   0.01059811
7852.00   0.16583234   0.01141941
7854.00   0.17936341   0.01181265
7856.00   0.18854435   0.01201612
7858.00   0.18809335   0.01155247
7860.00   0.18253525   0.01026581
7862.00   0.17544229   0.00925752
7864.00   0.17373522   0.00925340
7866.00   0.17313816   0.00943364
7868.00   0.17262673   0.00945239
7870.00   0.17464139   0.00938958
7872.00   0.17530857   0.00936152
7874.00   0.16986986   0.00931168
7876.00   0.16734838   0.00917355
7878.00   0.17604244   0.00904149
7880.00   0.18603860   0.00900191
7882.00   0.18566377   0.00906506
7884.00   0.18286990   0.00928347
7886.00   0.18671030   0.00963235
7888.00   0.18607105   0.00979580
7890.00   0.18134438   0.00962697
7892.00   0.18377800   0.00964107
7894.00   0.18209095   0.00920853
7896.00   0.17850108   0.00830247
7898.00   0.17984454   0.00740215
7900.00   0.18988059   0.00724065
7902.00   0.19636889   0.00723561
7904.00   0.19181077   0.00721238
7906.00   0.18590964   0.00765887
7908.00   0.18477385   0.00895990
7910.00   0.18812145   0.01081862
7912.00   0.18121676   0.01156267
7914.00   0.17883419   0.01191087
7916.00   0.17893279   0.01222705
7918.00   0.18533339   0.01224027
7920.00   0.18008955   0.01098169
7922.00   0.18266881   0.00991565
7924.00   0.19004726   0.00954676
7926.00   0.19257613   0.00949360
7928.00   0.19169742   0.00931917
7930.00   0.18994518   0.00911163
7932.00   0.19628818   0.00907165
7934.00   0.19579984   0.00889939
7936.00   0.18892039   0.00841130
7938.00   0.19247384   0.00772670
7940.00   0.19623739   0.00734275
7942.00   0.19943158   0.00743288
7944.00   0.20090349   0.00785702
7946.00   0.20468032   0.00834307
7948.00   0.20333464   0.00850191
7950.00   0.19767235   0.00844895
7952.00   0.19463195   0.00829588
7954.00   0.19536413   0.00795750
7956.00   0.20067589   0.00759517
7958.00   0.20424466   0.00785158
7960.00   0.20144762   0.00923532
7962.00   0.20051980   0.01033139
7964.00   0.19865531   0.01075232
7966.00   0.19791187   0.01078880
7968.00   0.19362117   0.01049125
7970.00   0.19664758   0.00951514
7972.00   0.20441812   0.00859028
7974.00   0.20544374   0.00839183
7976.00   0.20268844   0.00891153
7978.00   0.20422482   0.00926461
7980.00   0.20398189   0.00930767
7982.00   0.20655911   0.00914327
7984.00   0.21085776   0.00880218
7986.00   0.21301906   0.00835281
7988.00   0.20510584   0.00913097
7990.00   0.21110679   0.01039125
7992.00   0.21367210   0.01115213
7994.00   0.20829673   0.01124286
7996.00   0.20892082   0.01113507
7998.00   0.20988245   0.01025953
8000.00   0.20872909   0.00883324
8002.00   0.20699386   0.00763888
8004.00   0.21077155   0.00737755
8006.00   0.21380727   0.00747701
8008.00   0.21362245   0.00775394
8010.00   0.21059769   0.00816926
8012.00   0.20957817   0.00856844
8014.00   0.21120942   0.00878147
8016.00   0.20595314   0.00879996
8018.00   0.20845638   0.00879189
8020.00   0.21488647   0.00919305
8022.00   0.21831757   0.00993219
8024.00   0.21016145   0.01043551
8026.00   0.21542245   0.01065252
8028.00   0.21379812   0.01060021
8030.00   0.20832342   0.01000861
8032.00   0.20828013   0.00889235
8034.00   0.20941079   0.00781932
8036.00   0.21508352   0.00746064
8038.00   0.21479796   0.00735189
8040.00   0.21024270   0.00728735
8042.00   0.20702334   0.00725488
8044.00   0.20993882   0.00732214
8046.00   0.21400732   0.00760210
8048.00   0.21189369   0.00792570
8050.00   0.20873855   0.00813470
8052.00   0.21200192   0.00819407
8054.00   0.21326512   0.00819602
8056.00   0.21026187   0.00838684
8058.00   0.20690398   0.00866041
8060.00   0.20632510   0.00888971
8062.00   0.20904863   0.00900856
8064.00   0.21086191   0.00905035
8066.00   0.21020825   0.00873751
8068.00   0.20629255   0.00808720
8070.00   0.20571525   0.00744039
8072.00   0.20393991   0.00716731
8074.00   0.20347409   0.00718548
8076.00   0.20228219   0.00720387
8078.00   0.20316815   0.00724136
8080.00   0.20167606   0.00727963
8082.00   0.20199543   0.00731898
8084.00   0.20407529   0.00730146
8086.00   0.20886755   0.00734825
8088.00   0.21172202   0.00746949
8090.00   0.21193881   0.00761075
8092.00   0.20724706   0.00764038
8094.00   0.19926880   0.00757477
8096.00   0.19731295   0.00769902
8098.00   0.19998960   0.00795838
8100.00   0.20223182   0.00815722
8102.00   0.20164150   0.00805949
8104.00   0.19962351   0.00803650
8106.00   0.19378936   0.00791951
8108.00   0.19412851   0.00767951
8110.00   0.19994746   0.00735490
8112.00   0.19664784   0.00722236
8114.00   0.19910483   0.00723015
8116.00   0.20063899   0.00722901
8118.00   0.19978666   0.00719315
8120.00   0.19650060   0.00715886
8122.00   0.19192566   0.00710089
8124.00   0.19262886   0.00710570
8126.00   0.19643323   0.00715882
8128.00   0.19491071   0.00717257
8130.00   0.18986152   0.00714801
8132.00   0.18728672   0.00724830
8134.00   0.18983620   0.00743476
8136.00   0.19404824   0.00756341
8138.00   0.19513841   0.00757808
8140.00   0.19440337   0.00760573
8142.00   0.19411987   0.00775128
8144.00   0.19432132   0.00779180
8146.00   0.19084533   0.00770120
8148.00   0.19357455   0.00774991
8150.00   0.19568324   0.00772089
8152.00   0.19248807   0.00755762
8154.00   0.19110210   0.00738971
8156.00   0.19019002   0.00727496
8158.00   0.18616949   0.00721168
8160.00   0.18897557   0.00736855
8162.00   0.19383109   0.00757689
8164.00   0.19303651   0.00759729
8166.00   0.18762021   0.00745118
8168.00   0.18918012   0.00743651
8170.00   0.19610219   0.00756087
8172.00   0.19361015   0.00757754
8174.00   0.19009781   0.00765103
8176.00   0.19868493   0.00814663
8178.00   0.20913772   0.00884150
8180.00   0.20737840   0.00918682
8182.00   0.19459613   0.00944853
8184.00   0.18390034   0.00949642
8186.00   0.19365907   0.00960808
8188.00   0.20832552   0.00984701
8190.00   0.19671182   0.01035785
8192.00   0.18449289   0.01022816
8194.00   0.18473704   0.00998921
8196.00   0.19509207   0.00992188
8198.00   0.19097750   0.00987970
8200.00   0.18578382   0.00935520
8202.00   0.18480402   0.00864777
8204.00   0.18675278   0.00811684
8206.00   0.18737249   0.00791196
8208.00   0.18599625   0.00778297
8210.00   0.18539160   0.00768328
8212.00   0.18171382   0.00754515
8214.00   0.18107609   0.00740395
8216.00   0.18817341   0.00735713
8218.00   0.19158369   0.00736679
8220.00   0.18521659   0.00731015
8222.00   0.17828399   0.00723378
8224.00   0.17675471   0.00724362
8226.00   0.17927523   0.00752042
8228.00   0.18603362   0.00788099
8230.00   0.18494712   0.00782089
8232.00   0.17888494   0.00744485
8234.00   0.17455752   0.00711646
8236.00   0.17779951   0.00703198
8238.00   0.17906322   0.00699949
8240.00   0.18292116   0.00709095
8242.00   0.18412720   0.00721184
8244.00   0.18460931   0.00729596
8246.00   0.18203861   0.00721276
8248.00   0.18584216   0.00715054
8250.00   0.18517725   0.00709195
8252.00   0.18109362   0.00705635
8254.00   0.17644811   0.00701896
8256.00   0.18381168   0.00709705
8258.00   0.18656303   0.00711982
8260.00   0.18179552   0.00702687
8262.00   0.17595477   0.00689648
8264.00   0.17777079   0.00685797
8266.00   0.18437798   0.00688297
8268.00   0.18486111   0.00687215
8270.00   0.18092854   0.00695654
8272.00   0.17986892   0.00738677
8274.00   0.18427430   0.00835953
8276.00   0.18179160   0.00953453
8278.00   0.18511291   0.01053658
8280.00   0.18855141   0.01123484
8282.00   0.18588714   0.01176384
8284.00   0.17746228   0.01233196
8286.00   0.18333352   0.01252391
8288.00   0.18433885   0.01217194
8290.00   0.18360019   0.01174983
8292.00   0.19446026   0.01185397
8294.00   0.18790448   0.01202663
8296.00   0.18307422   0.01198488
8298.00   0.19278044   0.01194187
8300.00   0.19809936   0.01182684
8302.00   0.19477898   0.01138904
8304.00   0.19551963   0.01032150
8306.00   0.19275101   0.00924012
8308.00   0.19022082   0.00869291
8310.00   0.19213100   0.00866766
8312.00   0.18988138   0.00862702
8314.00   0.19649412   0.00859952
8316.00   0.19532625   0.00821717
8318.00   0.19144140   0.00768952
8320.00   0.19219583   0.00744699
8322.00   0.19374883   0.00739999
8324.00   0.19074629   0.00718871
8326.00   0.18877085   0.00703495
8328.00   0.18771620   0.00697281
8330.00   0.19354482   0.00707705
8332.00   0.19317932   0.00711170
8334.00   0.19113059   0.00712261
8336.00   0.18756856   0.00749903
8338.00   0.18880145   0.00927418
8340.00   0.19402571   0.01235582
8342.00   0.19632055   0.01435546
8344.00   0.20004983   0.01490164
8346.00   0.19892347   0.01502747
8348.00   0.19683756   0.01492262
8350.00   0.18332358   0.01364381
8352.00   0.18591984   0.01156709
8354.00   0.19131398   0.01049729
8356.00   0.19534735   0.01011287
8358.00   0.19689929   0.00956823
8360.00   0.18975984   0.00870806
8362.00   0.18870811   0.00859121
8364.00   0.18802108   0.00864522
8366.00   0.18648939   0.00856957
8368.00   0.19161154   0.00835787
8370.00   0.19231977   0.00787851
8372.00   0.18805845   0.00731480
8374.00   0.18878424   0.00719701
8376.00   0.19189440   0.00777560
8378.00   0.19202153   0.00878854
8380.00   0.19077452   0.00941056
8382.00   0.18656845   0.00955470
8384.00   0.18115544   0.00948081
8386.00   0.18320751   0.00917478
8388.00   0.19100130   0.00838612
8390.00   0.18677174   0.00743605
8392.00   0.17887747   0.00787921
8394.00   0.18025203   0.00988705
8396.00   0.18296427   0.01193970
8398.00   0.17537194   0.01272703
8400.00   0.17285234   0.01276235
8402.00   0.17646427   0.01246824
8404.00   0.17682426   0.01115752
8406.00   0.17159556   0.00880414
8408.00   0.16838717   0.00733191
8410.00   0.17090385   0.00800237
8412.00   0.17356695   0.00906918
8414.00   0.17275220   0.00960973
8416.00   0.17165713   0.00959070
8418.00   0.16318400   0.00942883
8420.00   0.15991133   0.00868243
8422.00   0.16506062   0.00812178
8424.00   0.17174612   0.00903884
8426.00   0.16405447   0.01137060
8428.00   0.16073306   0.01307885
8430.00   0.16309303   0.01344456
8432.00   0.16687147   0.01328744
8434.00   0.16889864   0.01246760
8436.00   0.17269318   0.01037624
8438.00   0.16880949   0.00779596
8440.00   0.16700132   0.00661534
8442.00   0.16459846   0.00647413
8444.00   0.16532077   0.00665802
8446.00   0.16866778   0.00725759
8448.00   0.16916639   0.00836971
8450.00   0.16884112   0.00907721
8452.00   0.16757643   0.00930983
8454.00   0.16215731   0.00920252
8456.00   0.16514628   0.00893974
8458.00   0.16583957   0.00856140
8460.00   0.16591883   0.00947630
8462.00   0.16757315   0.01100022
8464.00   0.17215943   0.01194189
8466.00   0.17299004   0.01203094
8468.00   0.17824006   0.01185605
8470.00   0.17308646   0.01069702
8472.00   0.17407705   0.00876382
8474.00   0.17450653   0.00707578
8476.00   0.17203194   0.00672142
8478.00   0.17203869   0.00670633
8480.00   0.17209823   0.00666570
8482.00   0.17176783   0.00656657
8484.00   0.17178713   0.00654750
8486.00   0.17079343   0.00670188
8488.00   0.16976292   0.00735937
8490.00   0.16982482   0.00809602
8492.00   0.16899224   0.00849268
8494.00   0.17115885   0.00856628
8496.00   0.17636700   0.00861079
8498.00   0.17131658   0.00867448
8500.00   0.16978697   0.00914192
8502.00   0.17440373   0.00985440
8504.00   0.17292471   0.01012101
8506.00   0.17738163   0.01015200
8508.00   0.18071772   0.00983413
8510.00   0.17973064   0.00889366
8512.00   0.17508900   0.00739734
8514.00   0.17402422   0.00667270
8516.00   0.17599635   0.00662463
8518.00   0.17718214   0.00669811
8520.00   0.17701572   0.00669500
8522.00   0.17759316   0.00667678
8524.00   0.17543997   0.00664338
8526.00   0.17528301   0.00661351
8528.00   0.17368989   0.00654856
8530.00   0.17462915   0.00655427
8532.00   0.17858167   0.00673560
8534.00   0.18009847   0.00712805
8536.00   0.17486416   0.00741393
8538.00   0.17243910   0.00754593
8540.00   0.17394073   0.00758000
8542.00   0.17615265   0.00773352
8544.00   0.17512727   0.00807940
8546.00   0.17480962   0.00835766
8548.00   0.17664468   0.00849227
8550.00   0.17902553   0.00849392
8552.00   0.17820488   0.00831880
8554.00   0.17532973   0.00768043
8556.00   0.17705338   0.00700805
8558.00   0.17824779   0.00659890
8560.00   0.17538287   0.00649970
8562.00   0.17364542   0.00646475
8564.00   0.18030709   0.00656102
8566.00   0.18327594   0.00662153
8568.00   0.17837471   0.00659282
8570.00   0.17240141   0.00657437
8572.00   0.17358756   0.00663294
8574.00   0.17275220   0.00664987
8576.00   0.17349918   0.00666712
8578.00   0.17417592   0.00666513
8580.00   0.17549701   0.00666018
8582.00   0.17698963   0.00672428
8584.00   0.17514634   0.00687455
8586.00   0.17652762   0.00704959
8588.00   0.17945154   0.00715989
8590.00   0.17824163   0.00721079
8592.00   0.17376356   0.00737060
8594.00   0.17316081   0.00745904
8596.00   0.17508714   0.00744199
8598.00   0.17748339   0.00739359
8600.00   0.17650001   0.00734331
8602.00   0.18274225   0.00719741
8604.00   0.18446596   0.00696310
8606.00   0.18440354   0.00684911
8608.00   0.18170853   0.00692549
8610.00   0.18523681   0.00715919
8612.00   0.18568839   0.00750363
8614.00   0.18306208   0.00789890
8616.00   0.18124120   0.00833871
8618.00   0.18945503   0.00888833
8620.00   0.18866916   0.00937427
8622.00   0.18506105   0.00983314
8624.00   0.18340747   0.01022418
8626.00   0.18097357   0.01050293
8628.00   0.17933424   0.01067646
8630.00   0.18037133   0.01073626
8632.00   0.18659405   0.01066016
8634.00   0.19370043   0.01045543
8636.00   0.19467779   0.01008400
8638.00   0.19232552   0.00955286
8640.00   0.19095571   0.00900854
8642.00   0.18633582   0.00855730
8644.00   0.18548834   0.00845155
8646.00   0.18469453   0.00870019
8648.00   0.18533522   0.00910237
8650.00   0.18697698   0.00964552
8652.00   0.19022691   0.01016233
8654.00   0.18891938   0.01050487
8656.00   0.18556863   0.01064273
8658.00   0.18382204   0.01061981
8660.00   0.18786238   0.01063700
8662.00   0.19040684   0.01057583
8664.00   0.19163561   0.01043667
8666.00   0.19362484   0.01024773
8668.00   0.19165613   0.01001519
8670.00   0.18558848   0.00972129
8672.00   0.18180744   0.00943420
8674.00   0.18801427   0.00919410
8676.00   0.19783004   0.00893033
8678.00   0.19432807   0.00867003
8680.00   0.18973319   0.00838083
8682.00   0.18952210   0.00813366
8684.00   0.19301426   0.00794628
8686.00   0.19358365   0.00775773
8688.00   0.19302130   0.00756636
8690.00   0.19402628   0.00743230
8692.00   0.19856048   0.00735404
8694.00   0.19927250   0.00727715
8696.00   0.19289784   0.00719783
8698.00   0.18794195   0.00713001
8700.00   0.18984079   0.00714226
8702.00   0.19532537   0.00722137
8704.00   0.19923425   0.00729003
8706.00   0.19919002   0.00724344
8708.00   0.19753437   0.00714352
8710.00   0.19567882   0.00704221
8712.00   0.19343662   0.00692094
8714.00   0.19515975   0.00681655
8716.00   0.19640911   0.00673937
8718.00   0.19705290   0.00670832
8720.00   0.19777369   0.00670104
8722.00   0.19905198   0.00672937
8724.00   0.19767229   0.00674570
8726.00   0.20495164   0.00684012
8728.00   0.20171756   0.00681226
8730.00   0.19438677   0.00673939
8732.00   0.19023049   0.00668685
8734.00   0.19265263   0.00669516
8736.00   0.19947149   0.00680388
8738.00   0.19994853   0.00686119
8740.00   0.19736451   0.00685836
8742.00   0.19733761   0.00686628
8744.00   0.19679511   0.00686025
8746.00   0.19298057   0.00684266
8748.00   0.19306111   0.00679102
8750.00   0.19603069   0.00680899
8752.00   0.19816081   0.00712989
8754.00   0.19222058   0.00817495
8756.00   0.19198795   0.00998495
8758.00   0.19435541   0.01159382
8760.00   0.19559546   0.01277908
8762.00   0.18979973   0.01385835
8764.00   0.18497337   0.01497493
8766.00   0.19702856   0.01480412
8768.00   0.20366983   0.01388333
8770.00   0.19917661   0.01320084
8772.00   0.18780164   0.01325632
8774.00   0.18525541   0.01332478
8776.00   0.18715991   0.01331691
8778.00   0.19238569   0.01326133
8780.00   0.19428998   0.01294576
8782.00   0.19989561   0.01193015
8784.00   0.19129974   0.00989241
8786.00   0.18586512   0.00870281
8788.00   0.18832012   0.00876175
8790.00   0.18701999   0.00908730
8792.00   0.19142121   0.00918719
8794.00   0.19346398   0.00904832
8796.00   0.18821104   0.00832224
8798.00   0.18343359   0.00730802
8800.00   0.19141625   0.00678892
8802.00   0.19883893   0.00680333
8804.00   0.19607788   0.00686040
8806.00   0.18992268   0.00690909
8808.00   0.18855532   0.00695491
8810.00   0.19154604   0.00696520
8812.00   0.18904056   0.00695336
8814.00   0.18699592   0.00687381
8816.00   0.18735604   0.00672688
8818.00   0.18997101   0.00700587
8820.00   0.18965633   0.00874091
8822.00   0.19159706   0.01247472
8824.00   0.19445027   0.01543020
8826.00   0.19013208   0.01678858
8828.00   0.17828552   0.01686671
8830.00   0.18234253   0.01688506
8832.00   0.19096614   0.01576577
8834.00   0.19739993   0.01388431
8836.00   0.19810998   0.01224617
8838.00   0.19260681   0.01162878
8840.00   0.18141794   0.01091619
8842.00   0.18656556   0.00955638
8844.00   0.19646347   0.00843667
8846.00   0.20010127   0.00822865
8848.00   0.19902448   0.00873222
8850.00   0.19259399   0.00874463
8852.00   0.18804829   0.00857994
8854.00   0.18770790   0.00819911
8856.00   0.19270706   0.00765854
8858.00   0.19552593   0.00720036
8860.00   0.19336502   0.00747149
8862.00   0.19449639   0.00857185
8864.00   0.19402468   0.00980161
8866.00   0.19336186   0.01051393
8868.00   0.19288611   0.01039779
8870.00   0.20419611   0.01018126
8872.00   0.20313722   0.00941562
8874.00   0.19357075   0.00807054
8876.00   0.19170757   0.00684800
8878.00   0.19378006   0.00724665
8880.00   0.19210954   0.00951424
8882.00   0.18664612   0.01229356
8884.00   0.17943515   0.01401737
8886.00   0.18061511   0.01432742
8888.00   0.19364576   0.01420014
8890.00   0.19125450   0.01302688
8892.00   0.18759282   0.01059734
8894.00   0.18605588   0.00792517
8896.00   0.18827826   0.00743736
8898.00   0.18728764   0.00878562
8900.00   0.18149428   0.01017364
8902.00   0.17981172   0.01088136
8904.00   0.18482693   0.01095617
8906.00   0.18979822   0.01080364
8908.00   0.18926787   0.01020114
8910.00   0.18712451   0.00879094
8912.00   0.19068885   0.00843019
8914.00   0.20041104   0.01042902
8916.00   0.19927485   0.01351795
8918.00   0.17956583   0.01491411
8920.00   0.17549731   0.01527524
8922.00   0.18720342   0.01505627
8924.00   0.19442821   0.01391386
8926.00   0.18651789   0.01068303
8928.00   0.18289250   0.00809646
8930.00   0.18434596   0.00703968
8932.00   0.18726565   0.00698263
8934.00   0.18766207   0.00696526
8936.00   0.19427049   0.00722820
8938.00   0.19181831   0.00860426
8940.00   0.18811126   0.01003896
8942.00   0.18235792   0.01077870
8944.00   0.18490203   0.01069653
8946.00   0.18859863   0.01049969
8948.00   0.18276143   0.00944076
8950.00   0.18237650   0.00847610
8952.00   0.19192530   0.00930080
8954.00   0.20263529   0.01194199
8956.00   0.21313356   0.01367829
8958.00   0.21010344   0.01393425
8960.00   0.19900961   0.01374813
8962.00   0.19273204   0.01322530
8964.00   0.19269609   0.01098254
8966.00   0.18075888   0.00818454
8968.00   0.17546624   0.00675553
8970.00   0.17877369   0.00674128
8972.00   0.18221958   0.00691298
8974.00   0.18394989   0.00690778
8976.00   0.18753298   0.00685944
8978.00   0.18543665   0.00682793
8980.00   0.18392058   0.00703631
8982.00   0.18731083   0.00768625
8984.00   0.17896914   0.00870845
8986.00   0.16582091   0.00984271
8988.00   0.17164832   0.01079056
8990.00   0.18824928   0.01112581
8992.00   0.19261844   0.01045162
8994.00   0.18517716   0.00937109
8996.00   0.17920631   0.00955694
8998.00   0.17288482   0.01097521
9000.00   0.18027723   0.01249273
9002.00   0.19682784   0.01312245
9004.00   0.19199491   0.01280661
9006.00   0.18525667   0.01145182
9008.00   0.18575048   0.00937432
9010.00   0.18802889   0.00741629
9012.00   0.18384938   0.00700492
9014.00   0.18355703   0.00700739
9016.00   0.18739779   0.00715320
9018.00   0.18812549   0.00719935
9020.00   0.18123424   0.00701590
9022.00   0.17724736   0.00695611
9024.00   0.17614788   0.00710930
9026.00   0.17672355   0.00715367
9028.00   0.17644767   0.00702285
9030.00   0.17165732   0.00692410
9032.00   0.17040378   0.00726726
9034.00   0.16875553   0.00784874
9036.00   0.16563141   0.00816047
9038.00   0.16670167   0.00828206
9040.00   0.17652665   0.00852547
9042.00   0.17928644   0.00858512
9044.00   0.16772020   0.00876936
9046.00   0.16683774   0.00927292
9048.00   0.17654307   0.00974584
9050.00   0.17785998   0.01002908
9052.00   0.17511940   0.01078313
9054.00   0.17447369   0.00987925
9056.00   0.17369187   0.00841243
9058.00   0.17200220   0.00744287
9060.00   0.16345865   0.00752162
9062.00   0.16302492   0.00745282
9064.00   0.16078909   0.00729272
9066.00   0.15918879   0.00721319
9068.00   0.15878114   0.00736051
9070.00   0.16002692   0.00752762
9072.00   0.15736820   0.00739156
9074.00   0.15813388   0.00713936
9076.00   0.15782118   0.00691082
9078.00   0.15638690   0.00689596
9080.00   0.15339416   0.00701098
9082.00   0.15005466   0.00695479
9084.00   0.14836542   0.00692335
9086.00   0.14919670   0.00719576
9088.00   0.14616083   0.00768414
9090.00   0.14312215   0.00790094
9092.00   0.14591517   0.00804031
9094.00   0.15079774   0.00818156
9096.00   0.15354437   0.00838782
9098.00   0.15410160   0.00875492
9100.00   0.15047272   0.00933162
9102.00   0.14621460   0.00946840
9104.00   0.14274935   0.00930352
9106.00   0.14346538   0.00900982
9108.00   0.14407326   0.00840977
9110.00   0.14501859   0.00750477
9112.00   0.14363927   0.00697820
9114.00   0.14384086   0.00690563
9116.00   0.14402620   0.00696581
9118.00   0.14733434   0.00731329
9120.00   0.14861189   0.00754568
9122.00   0.14485383   0.00740135
9124.00   0.14073847   0.00712509
9126.00   0.13958082   0.00708757
9128.00   0.14603733   0.00736804
9130.00   0.14494403   0.00765851
9132.00   0.14134865   0.00771590
9134.00   0.14106399   0.00783844
9136.00   0.14684443   0.00846173
9138.00   0.14549071   0.00837456
9140.00   0.14016436   0.00799205
9142.00   0.14047904   0.00784787
9144.00   0.14432485   0.00804556
9146.00   0.14549541   0.00824910
9148.00   0.14185859   0.00851052
9150.00   0.13900162   0.00892979
9152.00   0.14181755   0.00944840
9154.00   0.14456104   0.01000321
9156.00   0.13945840   0.01070274
9158.00   0.14062279   0.01083284
9160.00   0.14192061   0.01074209
9162.00   0.13801034   0.01068986
9164.00   0.13957389   0.01087367
9166.00   0.14720689   0.01079070
9168.00   0.14273943   0.01030162
9170.00   0.14079516   0.01015934
9172.00   0.14282519   0.01058123
9174.00   0.14547411   0.01126334
9176.00   0.14450456   0.01132042
9178.00   0.14559914   0.01132309
9180.00   0.14483990   0.01138245
9182.00   0.14404766   0.01106931
9184.00   0.14285749   0.00957545
9186.00   0.14592046   0.01122466
9188.00   0.14262946   0.01041462
9190.00   0.13883674   0.00876568
9192.00   0.14029141   0.00820895
9194.00   0.14417672   0.00856328
9196.00   0.14206249   0.00858061
9198.00   0.14476068   0.00858899
9200.00   0.14836900   0.00861073
9202.00   0.14759485   0.00860185
9204.00   0.14236550   0.00852261
9206.00   0.14136066   0.00840598
9208.00   0.14429867   0.00847034
9210.00   0.14945449   0.00879528
9212.00   0.15167771   0.00914433
9214.00   0.14907268   0.00614054
#9216.00   0.11247438   0.00706301
#9218.00   0.36318150   0.00715513
9220.00   0.15389185   0.00726598
9222.00   0.15786237   0.00737011
9224.00   0.16490367   0.00747694
9226.00   0.16304430   0.00744837
9228.00   0.15843777   0.00728416
9230.00   0.15772530   0.00700944
9232.00   0.16031139   0.00670671
9234.00   0.15481234   0.00641225
9236.00   0.15111545   0.01272712
#9238.00   0.23225605   0.00725372
#9240.00   0.11578188   0.00843552
9242.00   0.14629483   0.00827475
9244.00   0.14602019   0.00854331
9246.00   0.14598608   0.00876464
9248.00   0.14487380   0.00884488
9250.00   0.14248250   0.00885747
9252.00   0.14245708   0.00872047
9254.00   0.14477895   0.00846815
9256.00   0.14430487   0.00832998
9258.00   0.14342736   0.00831261
9260.00   0.14529936   0.00829189
9262.00   0.14597233   0.00821474
9264.00   0.14381374   0.00803993
9266.00   0.14329657   0.00790662
9268.00   0.14045785   0.00777732
9270.00   0.13839675   0.00763954
9272.00   0.13943811   0.00770240
9274.00   0.13906568   0.00782249
9276.00   0.13853341   0.00802401
9278.00   0.14060982   0.00828660
9280.00   0.14276667   0.00848022
9282.00   0.14591037   0.00899086
9284.00   0.14279820   0.00929292
9286.00   0.14068726   0.00943700
9288.00   0.14049666   0.00950537
9290.00   0.13951074   0.00957672
9292.00   0.13605779   0.00965283
9294.00   0.13778508   0.00973421
9296.00   0.13405247   0.00989896
9298.00   0.13479544   0.01080782
9300.00   0.13068594   0.01313442
9302.00   0.13637884   0.01778107
9304.00   0.12165201   0.02176261
9306.00   0.09524264   0.01799786
9308.00   0.07660390   0.02166395
9310.00   0.06346767   0.02454070
9312.00   0.05576142   0.02409932
9314.00   0.07949987   0.02403994
9316.00   0.10957914   0.02537526
9318.00   0.08573610   0.02492541
9320.00   0.08649433   0.02194141
9322.00   0.07770180   0.02087381
9324.00   0.07561198   0.02158577
9326.00   0.08181026   0.02120371
9328.00   0.10143837   0.02492697
9330.00   0.11592101   0.01860602
9332.00   0.12622678   0.01656303
9334.00   0.12552443   0.01857363
9336.00   0.12181070   0.02067176
9338.00   0.12718754   0.02016917
9340.00   0.12638579   0.01977933
9342.00   0.13144985   0.02074213
9344.00   0.14323463   0.02045448
9346.00   0.14397587   0.01667365
9348.00   0.12218917   0.01247932
9350.00   0.11234057   0.01120408
9352.00   0.11829829   0.01217373
9354.00   0.12860920   0.01359407
9356.00   0.13343005   0.01405778
9358.00   0.14143588   0.01310612
9360.00   0.14147213   0.01172850
9362.00   0.13187352   0.01075286
9364.00   0.12069923   0.01090729
9366.00   0.11582875   0.01308851
9368.00   0.13308823   0.01994858
9370.00   0.14566392   0.02320705
9372.00   0.13037139   0.02932410
9374.00   0.09280512   0.03073795
9376.00   0.08251432   0.03016887
9378.00   0.08097855   0.03256107
9380.00   0.09165001   0.03149341
9382.00   0.07559159   0.02489484
9384.00   0.06401706   0.02003836
9386.00   0.09513801   0.01422296
9388.00   0.12420068   0.01191377
9390.00   0.13922749   0.01057978
9392.00   0.13350011   0.00951860
9394.00   0.12654711   0.00974117
9396.00   0.12342209   0.01107063
9398.00   0.12546079   0.01388848
9400.00   0.12950379   0.01592953
9402.00   0.13186209   0.01641731
9404.00   0.13077910   0.01547361
9406.00   0.13134305   0.01453720
9408.00   0.13366401   0.01297252
9410.00   0.13521586   0.01148311
9412.00   0.13099991   0.01147619
9414.00   0.12991142   0.01393016
9416.00   0.13037550   0.01732627
9418.00   0.13943061   0.01966616
9420.00   0.14013247   0.02056578
9422.00   0.13412888   0.02032639
9424.00   0.11323688   0.01940466
9426.00   0.12561713   0.01793271
9428.00   0.13923317   0.01618896
9430.00   0.14138919   0.01439808
9432.00   0.13787712   0.01394551
9434.00   0.13751918   0.01748101
9436.00   0.13004233   0.02423960
9438.00   0.11384400   0.02301328
9440.00   0.11128241   0.02799827
9442.00   0.12696271   0.02895472
9444.00   0.11524368   0.02306863
9446.00   0.11477962   0.02105422
9448.00   0.12300107   0.01390700
9450.00   0.12412708   0.01274423
9452.00   0.12113485   0.01495741
9454.00   0.11703879   0.02018875
9456.00   0.11264414   0.02453754
9458.00   0.11613420   0.02661118
9460.00   0.12380662   0.02633297
9462.00   0.13712598   0.02370529
9464.00   0.12690221   0.01785203
9466.00   0.12188878   0.01283873
9468.00   0.12228922   0.01147088
9470.00   0.13036110   0.01447922
9472.00   0.13750751   0.01947134
9474.00   0.12047100   0.02353482
9476.00   0.11240053   0.02547722
9478.00   0.11628550   0.02689643
9480.00   0.13509965   0.02788872
9482.00   0.13800323   0.02411831
9484.00   0.13100542   0.01649302
9486.00   0.11934855   0.01048370
9488.00   0.11818758   0.00915764
9490.00   0.12257564   0.00945277
9492.00   0.13008815   0.00977810
9494.00   0.12950327   0.01070032
9496.00   0.11372840   0.01349335
9498.00   0.09817713   0.01772926
9500.00   0.10101376   0.02162044
9502.00   0.11636355   0.02086104
9504.00   0.12373628   0.01793393
9506.00   0.12828909   0.01491545
9508.00   0.12695421   0.01240389
9510.00   0.12546596   0.00989568
9512.00   0.12890606   0.00910607
9514.00   0.12888472   0.01092582
9516.00   0.12429583   0.01372041
9518.00   0.12405915   0.01593939
9520.00   0.13156700   0.01657336
9522.00   0.13232060   0.01584497
9524.00   0.12284347   0.01378070
9526.00   0.12125293   0.01127892
9528.00   0.13452820   0.00963698
9530.00   0.13544427   0.00927885
9532.00   0.12512475   0.00903648
9534.00   0.11586531   0.00899754
9536.00   0.11754247   0.00910914
9538.00   0.12817794   0.00919179
9540.00   0.13558997   0.00913709
9542.00   0.13077596   0.00912608
9544.00   0.12878726   0.00948820
9546.00   0.12995054   0.01040249
9548.00   0.12305120   0.01170167
9550.00   0.12406030   0.01304684
9552.00   0.12121858   0.01428709
9554.00   0.12481692   0.01523842
9556.00   0.12755762   0.01498922
9558.00   0.12975635   0.01279476
9560.00   0.12536021   0.01115657
9562.00   0.11072844   0.01337271
9564.00   0.10570354   0.01722786
9566.00   0.12547854   0.01978566
9568.00   0.13532077   0.01916525
9570.00   0.13950939   0.01714450
9572.00   0.13624406   0.01419409
9574.00   0.12363253   0.01075733
9576.00   0.12009715   0.00809840
9578.00   0.11933308   0.00758945
9580.00   0.12277939   0.00774734
9582.00   0.12101545   0.00748608
9584.00   0.12104984   0.00702422
9586.00   0.11931380   0.00695676
9588.00   0.11812303   0.00744805
9590.00   0.12628049   0.00802478
9592.00   0.12562297   0.00795361
9594.00   0.11559305   0.00738477
9596.00   0.11127188   0.00696570
9598.00   0.11842960   0.00686253
9600.00   0.11962852   0.00702606
9602.00   0.11977496   0.00793202
9604.00   0.11801334   0.00928466
9606.00   0.11459134   0.01028268
9608.00   0.11772843   0.01023400
9610.00   0.11458930   0.00970040
9612.00   0.10889426   0.00903926
9614.00   0.11013312   0.00875218
9616.00   0.11929744   0.00940992
9618.00   0.12197194   0.01051653
9620.00   0.11932602   0.01126068
9622.00   0.12106980   0.01156938
9624.00   0.12495124   0.01126774
9626.00   0.12151506   0.01003909
9628.00   0.11832833   0.00848153
9630.00   0.11677381   0.00735738
9632.00   0.11578829   0.00691238
9634.00   0.11434704   0.00692953
9636.00   0.11526754   0.00712147
9638.00   0.11378799   0.00708937
9640.00   0.11356451   0.00684596
9642.00   0.11115751   0.00659014
9644.00   0.11069641   0.00667124
9646.00   0.12053660   0.00698474
9648.00   0.11994970   0.00700632
9650.00   0.11118893   0.00689319
9652.00   0.10732874   0.00698450
9654.00   0.11213404   0.00730859
9656.00   0.10612610   0.00747064
9658.00   0.10087498   0.00757790
9660.00   0.10246446   0.00793226
9662.00   0.10670783   0.00867468
9664.00   0.10957078   0.00975997
9666.00   0.11025167   0.01041466
9668.00   0.10775954   0.01058476
9670.00   0.10601596   0.01054693
9672.00   0.10672417   0.01032371
9674.00   0.11576351   0.00994378
9676.00   0.11585593   0.01016550
9678.00   0.10824265   0.01115699
9680.00   0.10675215   0.01211543
9682.00   0.10850949   0.01223997
9684.00   0.11066771   0.01178835
9686.00   0.10484856   0.01090250
9688.00   0.10599601   0.00986757
9690.00   0.11704028   0.00919518
9692.00   0.12034182   0.00938385
9694.00   0.11353671   0.01045789
9696.00   0.10949684   0.01150055
9698.00   0.10794699   0.01208890
9700.00   0.10620061   0.01225787
9702.00   0.10503352   0.01203004
9704.00   0.10817983   0.01089496
9706.00   0.10677519   0.00962041
9708.00   0.10734340   0.00910639
9710.00   0.10861162   0.00943983
9712.00   0.10688706   0.01002022
9714.00   0.11165470   0.01153841
9716.00   0.11551549   0.01294660
9718.00   0.10596023   0.01343140
9720.00   0.09252981   0.01316123
9722.00   0.10325498   0.01319557
9724.00   0.10455626   0.01246359
9726.00   0.10153667   0.01067014
9728.00   0.10840252   0.00888815
9730.00   0.11576984   0.00858918
9732.00   0.10689875   0.00924829
9734.00   0.10300542   0.01028885
9736.00   0.10519406   0.01107251
9738.00   0.10156506   0.01126822
9740.00   0.10281047   0.01110536
9742.00   0.10211136   0.01087364
9744.00   0.10186271   0.01022859
9746.00   0.10294894   0.00954638
9748.00   0.10545152   0.00913148
9750.00   0.10594358   0.00886313
9752.00   0.10905644   0.00818678
9754.00   0.11049902   0.00760652
9756.00   0.10520501   0.00728723
9758.00   0.09478941   0.00712354
9760.00   0.09745670   0.00699269
9762.00   0.10847630   0.00707978
9764.00   0.10957813   0.00704195
9766.00   0.10243512   0.00684666
9768.00   0.09705030   0.00662364
9770.00   0.09959897   0.00662565
9772.00   0.09945182   0.00669569
9774.00   0.09898895   0.00679267
9776.00   0.10192474   0.00692681
9778.00   0.10617016   0.00714126
9780.00   0.11173716   0.00753668
9782.00   0.11053724   0.00837473
9784.00   0.10121890   0.01033313
9786.00   0.08986773   0.01312964
9788.00   0.09694403   0.01600487
9790.00   0.10583176   0.01766050
9792.00   0.10912327   0.01842352
9794.00   0.10329904   0.01815913
9796.00   0.09637797   0.01683018
9798.00   0.09034888   0.01475342
9800.00   0.09150472   0.01341735
9802.00   0.09050292   0.01279048
9804.00   0.09700247   0.01218418
9806.00   0.10970172   0.01136558
9808.00   0.10703903   0.01088534
9810.00   0.10308661   0.01107725
9812.00   0.10021345   0.01123394
9814.00   0.10024013   0.01113941
9816.00   0.10289510   0.01074883
9818.00   0.10105965   0.00999243
9820.00   0.10224564   0.00942379
9822.00   0.10375807   0.00917371
9824.00   0.10131008   0.00909971
9826.00   0.09855195   0.00904427
9828.00   0.10080067   0.00907906
9830.00   0.10077914   0.00894232
9832.00   0.09967921   0.00868739
9834.00   0.09459347   0.00834039
9836.00   0.09275109   0.00798222
9838.00   0.10245690   0.00799646
9840.00   0.09555113   0.00824223
9842.00   0.08879601   0.00933930
9844.00   0.09629383   0.01116201
9846.00   0.09888095   0.01264948
9848.00   0.08639612   0.01305629
9850.00   0.08268365   0.01305155
9852.00   0.08794596   0.01245420
9854.00   0.08974733   0.01102915
9856.00   0.09307954   0.00936031
9858.00   0.09429934   0.00849122
9860.00   0.09443635   0.00824165
9862.00   0.09505307   0.00863276
#9864.00   0.10489937   0.01015102
#9866.00   0.15444623   0.01349840
#9868.00   0.13441858   0.01753087
#9870.00   0.10519519   0.02007212
#9872.00   0.10097627   0.02097146
9874.00   0.08631406   0.02061005
9876.00   0.08730321   0.01923273
9878.00   0.09194913   0.01583676
9880.00   0.09369583   0.01226115
9882.00   0.09043839   0.01038762
9884.00   0.08643808   0.00999803
9886.00   0.08976865   0.01023570
9888.00   0.09296337   0.01168360
9890.00   0.09136296   0.01366406
9892.00   0.08480215   0.01524429
9894.00   0.08819146   0.01599947
9896.00   0.09480876   0.01621198
9898.00   0.09732312   0.01569304
9900.00   0.09692670   0.01406088
9902.00   0.09369034   0.01157999
9904.00   0.08846962   0.01022419
9906.00   0.09088501   0.01088174
9908.00   0.09403070   0.01392443
9910.00   0.08754859   0.01790404
9912.00   0.08144036   0.02129920
9914.00   0.07426693   0.02264283
9916.00   0.07048199   0.02275002
9918.00   0.06811703   0.02142278
9920.00   0.07195880   0.01841543
9922.00   0.08163175   0.01413686
9924.00   0.08547783   0.01127795
9926.00   0.08437339   0.01023521
9928.00   0.08670171   0.01005706
9930.00   0.08963033   0.01006566
9932.00   0.08452585   0.01045718
9934.00   0.08643502   0.01198871
9936.00   0.08385575   0.01509637
9938.00   0.08199581   0.01940179
9940.00   0.08515517   0.02413345
9942.00   0.08529643   0.02842024
9944.00   0.06388310   0.03114408
9946.00   0.05861966   0.03175166
9948.00   0.07032169   0.03080291
9950.00   0.07757720   0.02917682
9952.00   0.07536222   0.02791074
9954.00   0.08092573   0.02720450
9956.00   0.07703327   0.02761140
9958.00   0.06502835   0.02866707
9960.00   0.05874058   0.02899323
9962.00   0.07362238   0.02706661
9964.00   0.06801151   0.02412421
9966.00   0.06307904   0.02143463
9968.00   0.07376473   0.01935390
9970.00   0.07392791   0.01755170
9972.00   0.07397263   0.01705765
9974.00   0.08364210   0.01697734
9976.00   0.08894879   0.01646049
9978.00   0.08425828   0.01516832
9980.00   0.08450490   0.01354617
9982.00   0.07566461   0.01240588
9984.00   0.07307082   0.01157476
9986.00   0.07732908   0.01096336
9988.00   0.08356929   0.01063654
9990.00   0.08211808   0.01055553
9992.00   0.07636753   0.01080917
9994.00   0.08029091   0.01186171
9996.00   0.07947171   0.01314862
9998.00   0.07872143   0.01418532
10000.00   0.06941375   0.01458281
10002.00   0.07818946   0.01506296
#10004.00   0.09841248   0.01654727
#10006.00   0.10794466   0.02019020
#10008.00   0.10305324   0.02591064
#10010.00   0.18768299   0.03128885
#10012.00   0.32631582   0.03424698
#10014.00   0.30134413   0.03479216
#10016.00   0.19432656   0.03359736
#10018.00   0.20249557   0.03112513
#10020.00   0.15940294   0.02565293
#10022.00   0.10100947   0.02262876
10024.00   0.06428582   0.02191059
10026.00   0.06122794   0.02176060
10028.00   0.06810836   0.02082868
10030.00   0.07105350   0.01882032
10032.00   0.07909873   0.01609351
10034.00   0.08145285   0.01389755
10036.00   0.07334707   0.01330895
10038.00   0.06991837   0.01398408
10040.00   0.07063300   0.01502836
10042.00   0.07720982   0.01566794
10044.00   0.08267379   0.01572870
10046.00   0.07282888   0.01522724
10048.00   0.06332228   0.01422819
10050.00   0.06957648   0.01296529
10052.00   0.07013676   0.01254833
10054.00   0.06946703   0.01390761
10056.00   0.08406495   0.01668055
10058.00   0.08537581   0.01876882
10060.00   0.07721233   0.01985305
10062.00   0.06888891   0.02033714
10064.00   0.06544393   0.02031021
10066.00   0.06465885   0.01944342
#10068.00   0.07075813   0.01836921
#10070.00   0.08677510   0.01767670
#10072.00   0.10387670   0.01745346
#10074.00   0.11314008   0.01802197
#10076.00   0.13408101   0.02044446
#10078.00   0.12859470   0.02405726
#10080.00   0.13058604   0.02764232
#10082.00   0.14220659   0.02924768
#10084.00   0.12720917   0.02880975
#10086.00   0.01272292   0.02877421
#10088.00   -0.00682566   0.02514832
#10090.00   0.04072213   0.01933511
#10092.00   0.07925773   0.01410642
10094.00   0.06453349   0.01437643
10096.00   0.06832340   0.01533931
10098.00   0.07053117   0.01766421
10100.00   0.05973740   0.02010416
10102.00   0.04582385   0.02164711
10104.00   0.05128220   0.02195846
10106.00   0.08619040   0.02173280
10108.00   0.08610278   0.02013148
10110.00   0.06939045   0.01742352
10112.00   0.06280907   0.01499990
10114.00   0.07582893   0.01494540
10116.00   0.08769134   0.01753825
10118.00   0.08867582   0.02278204
10120.00   0.09579597   0.02854998
10122.00   0.10398212   0.03269019
10124.00   0.09929600   0.03414428
10126.00   0.09319230   0.03389453
10128.00   0.07356095   0.03111914
10130.00   0.06143662   0.02611298
10132.00   0.05436587   0.02039520
10134.00   0.04642144   0.01752668
10136.00   0.06751941   0.01688733
10138.00   0.07619423   0.01694874
10140.00   0.07699242   0.01737749
10142.00   0.06829148   0.01800558
10144.00   0.06881268   0.01936898
10146.00   0.07332375   0.02142901
10148.00   0.07139855   0.02399425
10150.00   0.07356331   0.02639043
10152.00   0.08185979   0.02787717
10154.00   0.05792809   0.02832568
10156.00   0.08244126   0.02832958
10158.00   0.09241232   0.02722627
10160.00   0.07051620   0.02527546
10162.00   0.06640046   0.02464815
10164.00   0.07488917   0.02655802
10166.00   0.08742862   0.03143578
10168.00   0.09379548   0.03698477
10170.00   0.08205203   0.04075979
10172.00   0.04199031   0.04158198
10174.00   0.02342923   0.04087596
10176.00   0.04564102   0.03832438
10178.00   0.06549273   0.03375326
10180.00   0.06228317   0.02883848
10182.00   0.06857131   0.02815923
10184.00   0.06485406   0.03098001
10186.00   0.05574204   0.03372985
10188.00   0.05973418   0.03534210
10190.00   0.08331376   0.03578782
10192.00   0.05418839   0.03502036
10194.00   0.05034931   0.03287865
10196.00   0.06645029   0.02982315
10198.00   0.06974083   0.02788933
10200.00   0.07554549   0.02909681
10202.00   0.07637873   0.03182521
10204.00   0.09766134   0.03644627
10206.00   0.08639161   0.04135905
10208.00   0.06620765   0.04474327
10210.00   0.08385530   0.04566681
10212.00   0.08166752   0.04499868
10214.00   0.07203379   0.04233008
10216.00   0.06890360   0.03740415
10218.00   0.05941208   0.03195250
10220.00   0.05691147   0.03160411
10222.00   0.06078418   0.03501158
10224.00   0.04900762   0.03841351
10226.00   0.06593598   0.04130746
10228.00   0.06953740   0.04267971
10230.00   0.04253906   0.04108024
10232.00   0.05580485   0.03756538
10234.00   0.06138828   0.03357169
10236.00   0.06799319   0.02971635
10238.00   0.07519393   0.02622923
10240.00   0.08264055   0.02407836
10242.00   0.07834322   0.02320728
10244.00   0.08332485   0.02301107
10246.00   0.08378313   0.02288189
10248.00   0.07406247   0.02279234
10250.00   0.06232833   0.02278729
10252.00   0.05680009   0.02317382
10254.00   0.06498327   0.02378801
10256.00   0.08426299   0.02434356
10258.00   0.07925538   0.02472276
10260.00   0.08424607   0.02553479
10262.00   0.08785182   0.02670738
10264.00   0.08859473   0.02842766
10266.00   0.09870566   0.03098110
10268.00   0.11006846   0.03365773
10270.00   0.09236415   0.03533891
10272.00   0.07101798   0.03603476
10274.00   0.05975566   0.03616223
10276.00   0.04862158   0.03690573
10278.00   0.05018583   0.04172839
10280.00   0.05639726   0.05508877
10282.00   0.05345892   0.07151112
10284.00   0.06118830   0.08446500
10286.00   0.08567206   0.09072125
10288.00   0.07885218   0.09221090
10290.00   0.06735387   0.08951727
10292.00   0.08831642   0.08208052
10294.00   0.08885091   0.07208482
10296.00   0.04450744   0.06474226
10298.00   0.04533587   0.06184136
10300.00   0.06631717   0.05756012
10302.00   0.04037270   0.05138138
10304.00   0.01745079   0.04635451
10306.00   0.04054434   0.04598068
10308.00   0.07294443   0.04694178
10310.00   0.08995202   0.04710304
10312.00   0.09723532   0.04617487
10314.00   0.08910897   0.04391976
10316.00   0.07678501   0.04036919
10318.00   0.07096207   0.03796749
10320.00   0.07557707   0.03772897
10322.00   0.07608897   0.03884424
10324.00   0.05196983   0.03957414
10326.00   0.03443015   0.04036985
10328.00   0.05316608   0.04103354
10330.00   0.06101748   0.04116397
10332.00   0.08157446   0.04149424
10334.00   0.10961739   0.04251856
10336.00   0.08242553   0.04396147
10338.00   0.08006781   0.04630210
10340.00   0.05360731   0.05030550
10342.00   0.04183699   0.05620769
10344.00   0.09389138   0.06286255
10346.00   0.05860713   0.06566602
10348.00   0.03052270   0.06770838
10350.00   0.05976420   0.06820966
10352.00   0.09102160   0.06555755
10354.00   0.10133012   0.05999082
10356.00   0.09198201   0.05640784
10358.00   0.03093512   0.05325138
10360.00   0.00187547   0.05072448
10362.00   0.04068010   0.05027469
10364.00   0.07646912   0.05474801
10366.00   0.10424703   0.06729812
10368.00   0.06969704   0.08450735
10370.00   0.00709213   0.09761216
10372.00   -0.00006814   0.10343469
10374.00   0.05693437   0.10470625
10376.00   0.01158147   0.10068723
10378.00   0.02857829   0.08848324
10380.00   0.07955019   0.07240059
10382.00   0.10715457   0.06209745
10384.00   0.10759429   0.05937010
10386.00   0.08924732   0.05824665
10388.00   0.05102221   0.05958955
10390.00   0.04866062   0.06604446
10392.00   0.08414465   0.07662281
10394.00   0.04626713   0.08348794
10396.00   -0.02760588   0.08674071
10398.00   -0.02442136   0.08726603
10400.00   0.06196017   0.08400909
10402.00   0.05789651   0.07527698
10404.00   0.03593102   0.06792495
10406.00   0.06767791   0.06584776
10408.00   0.09853831   0.06775492
10410.00   0.09118726   0.07482207
10412.00   0.05959396   0.09241519
10414.00   0.02715681   0.11239409
10416.00   0.02221207   0.12594004
10418.00   0.10247947   0.13301714
10420.00   0.17263894   0.13428943
10422.00   0.13492508   0.12651946
10424.00   0.04428536   0.10793140
10426.00   0.04715568   0.08962699
10428.00   0.07791463   0.07912276
10430.00   0.07071804   0.07488111
10432.00   0.07252612   0.07226793
10434.00   0.06260675   0.07033304
10436.00   0.07476846   0.06928620
10438.00   0.06403277   0.06837509
10440.00   0.08458856   0.06948573
10442.00   0.09887663   0.07156316
10444.00   0.13729392   0.07839180
10446.00   0.12153610   0.08796823
10448.00   0.01603214   0.09557006
10450.00   -0.00082988   0.09765947
10452.00   0.04524213   0.09643882
10454.00   0.10205650   0.09337457
10456.00   0.13269617   0.08793706
10458.00   0.07704643   0.08057907
10460.00   0.05365052   0.08019613
10462.00   0.16980346   0.09241468
10464.00   0.15281872   0.10932535
10466.00   0.07498796   0.12265629
10468.00   0.02026115   0.12853946
10470.00   0.01660829   0.13022311
10472.00   0.07170882   0.12533844
10474.00   0.09515230   0.11149776
10476.00   0.04070513   0.09315475
10478.00   0.01208791   0.08197546
10480.00   0.03500777   0.07951996
10482.00   0.05327018   0.07823903
10484.00   0.07214569   0.07698555
10486.00   0.10655520   0.07715885
10488.00   0.09904011   0.07782221
10490.00   0.05653179   0.07755511
10492.00   0.08357821   0.07702737
10494.00   0.10719650   0.07676554
10496.00   0.08311407   0.07675145
10498.00   0.02338699   0.07625501
10500.00   0.03197919   0.07806212
10502.00   0.01474908   0.08250654
10504.00   0.05341933   0.08971431
10506.00   0.15657036   0.09641861
10508.00   0.16186155   0.09944629
10510.00   0.04517053   0.10115030
10512.00   0.01858357   0.10081976
10514.00   0.06308366   0.09698758
10516.00   0.06939837   0.09198163
10518.00   0.11220098   0.09638862
10520.00   0.18106715   0.10592615
10522.00   0.14519715   0.11338827
10524.00   0.02826558   0.11609250
10526.00   0.07984617   0.11580869
10528.00   0.20220123   0.11223596
10530.00   0.15375020   0.10180827
10532.00   0.05175085   0.09031749
10534.00   0.04855211   0.08372454
10536.00   0.06962790   0.08239759
10538.00   0.05388157   0.08083329
10540.00   0.08589169   0.08157966
10542.00   0.10602573   0.08243156
10544.00   0.07101561   0.08188432
10546.00   0.04066976   0.08184403
10548.00   0.08297028   0.08273519
10550.00   0.10127712   0.08364580
10552.00   0.06128725   0.08390412
10554.00   -0.01540649   0.08307484
10556.00   0.01819470   0.08347688
10558.00   0.03148535   0.08368653
10560.00   0.04823093   0.08369142
10562.00   0.06932693   0.08412770
10564.00   0.07705569   0.08546638
10566.00   0.02544095   0.08808563
10568.00   0.05182789   0.09136451
10570.00   0.05293496   0.09381367
10572.00   0.04772171   0.09474432
10574.00   0.06376705   0.09526821
10576.00   0.05511015   0.09475952
10578.00   0.03139348   0.09369469
10580.00   0.07933205   0.09691115
10582.00   0.12669629   0.10251518
10584.00   0.09258322   0.10593030
10586.00   0.05228135   0.10664207
10588.00   0.06820517   0.10631181
10590.00   0.11127932   0.10377774
10592.00   0.12227132   0.09888061
10594.00   0.08956755   0.09580604
10596.00   0.06744481   0.09552077
10598.00   0.11922061   0.09567832
10600.00   0.12743825   0.09571230
10602.00   0.09939932   0.09607264
10604.00   0.04927435   0.09494710
10606.00   0.05783375   0.09415519
10608.00   -0.02179033   0.09348322
10610.00   -0.01075221   0.09419522
10612.00   0.09648377   0.09693515
10614.00   0.15249439   0.10010002
10616.00   0.11619967   0.09920246
10618.00   0.14555983   0.09967678
10620.00   0.19559002   0.10074586
10622.00   0.20437980   0.10252755
10624.00   0.06554621   0.10115842
10626.00   0.00742661   0.09949017
10628.00   0.06758445   0.10110062
10630.00   0.07489283   0.10289756
10632.00   0.04447101   0.10260326
10634.00   0.05372946   0.10633782
10636.00   0.11440605   0.11023483
10638.00   0.16282102   0.11214089
10640.00   0.09171236   0.11034688
10642.00   0.06976900   0.11055171
10644.00   0.01259392   0.11311650
10646.00   0.05881882   0.11512939
10648.00   0.11194760   0.11692032
10650.00   0.09523589   0.11812603
10652.00   0.04852758   0.11924163
10654.00   0.05462479   0.12276766
10656.00   0.02232089   0.12458599
10658.00   0.03371900   0.12201985
10660.00   0.12432188   0.11910444
10662.00   0.14766471   0.12137733
10664.00   0.10729770   0.12133334
10666.00   0.08421954   0.12277218
10668.00   0.16045834   0.12697847
10670.00   0.26934969   0.13181262
10672.00   0.14692648   0.13094449
10674.00   0.15810017   0.13056691
10676.00   0.15179707   0.13353220
10678.00   0.07923738   0.13769756
10680.00   -0.03202185   0.14155133
10682.00   -0.04418924   0.14938922
10684.00   -0.03513886   0.15349783
10686.00   0.07525533   0.15703602
10688.00   0.18638866   0.17004053
10690.00   0.08991761   0.17288761
10692.00   0.33460605   0.18593732
10694.00   0.28370029   0.18492720
10696.00   0.12004011   0.18335633
10698.00   0.12944245   0.18953031
10700.00   0.28134942   0.19675592
10702.00   0.30861148   0.19445477
10704.00   0.21904969   0.19941199
10706.00   0.13835169   0.21113089
