# File created by shivutils (I.Shivvers)
# Blotched regions marked with a #.
# wl(A)   flm    er(optional)
3440.00   0.06728563
3442.00   0.12503858
3444.00   0.04777023
3446.00   0.04437257
3448.00   0.07486656
3450.00   0.03776883
3452.00   0.10455343
3454.00   0.04677014
3456.00   0.05626685
3458.00   0.04967026
3460.00   0.03646440
3462.00   0.15085581
3464.00   0.00693236
3466.00   0.08761565
3468.00   0.15548187
3470.00   0.08096074
3472.00   0.06067229
3474.00   0.06906231
3476.00   0.06452185
3478.00   0.00713431
3480.00   0.04416788
3482.00   0.05406182
3484.00   -0.04398712
3486.00   0.01331419
3488.00   0.03070575
3490.00   0.03844973
3492.00   0.00170715
3494.00   0.02524095
3496.00   0.05849859
3498.00   0.05616756
3500.00   0.04763216
3502.00   0.01488307
3504.00   0.06661776
3506.00   0.08105160
3508.00   0.03312257
3510.00   0.09537787
3512.00   0.05806103
3514.00   0.01274326
3516.00   0.04739999
3518.00   0.05147532
3520.00   0.06994217
3522.00   -0.02727015
3524.00   0.07701117
3526.00   0.04785786
3528.00   0.03209782
3530.00   0.04458427
3532.00   0.04533900
3534.00   0.06724761
3536.00   0.08536609
3538.00   -0.00676741
3540.00   0.04332808
3542.00   0.02093140
3544.00   0.19571587
3546.00   0.07312637
3548.00   0.05693308
3550.00   0.01991343
3552.00   0.03528614
3554.00   0.16225317
3556.00   0.05793914
3558.00   0.08656897
3560.00   0.10010946
3562.00   0.05310372
3564.00   0.03007847
3566.00   0.06112750
3568.00   0.02781167
3570.00   0.01640848
3572.00   -0.00535322
3574.00   0.01355706
3576.00   0.05647989
3578.00   0.03760379
3580.00   0.10117763
3582.00   0.01698685
3584.00   0.02411327
3586.00   0.05217398
3588.00   0.12051078
3590.00   0.10323447
3592.00   0.05407421
3594.00   0.05353911
3596.00   0.07798077
3598.00   0.05870545
3600.00   0.10394788
3602.00   0.09836613
3604.00   0.08219834
3606.00   0.06118174
3608.00   0.04776853
3610.00   0.05889211
3612.00   -0.00507556
3614.00   0.05874886
3616.00   0.10429882
3618.00   0.03986348
3620.00   0.10785354
3622.00   0.03011968
3624.00   0.11783392
3626.00   0.05691310
3628.00   0.08092163
3630.00   0.07624884
3632.00   0.03028462
3634.00   -0.01204841
3636.00   0.10393808
3638.00   0.05181863
3640.00   0.04185510
3642.00   0.02782924
3644.00   0.09249604
3646.00   0.09578811
3648.00   0.04255727
3650.00   0.08965286
3652.00   0.10655598
3654.00   -0.01911444
3656.00   0.04095471
3658.00   0.09891922
3660.00   0.09749186
3662.00   0.11832841
3664.00   0.05062910
3666.00   0.03390751
3668.00   0.06906026
3670.00   0.05798427
3672.00   0.02779647
3674.00   0.03820324
3676.00   0.04829476
3678.00   0.10798251
3680.00   0.07215434
3682.00   0.05973004
3684.00   0.11700361
3686.00   0.10967160
3688.00   0.04553978
3690.00   0.03633859
3692.00   0.06095989
3694.00   0.09755904
3696.00   0.05600931
3698.00   0.06728769
3700.00   0.05515580
3702.00   0.12943836
3704.00   0.09318288
3706.00   0.05533652
3708.00   0.10671442
3710.00   0.11159674
3712.00   0.06688885
3714.00   0.11041259
3716.00   0.12571760
3718.00   0.09493761
3720.00   0.09471805
3722.00   0.08499595
3724.00   0.11132170
3726.00   0.09058600
3728.00   0.12080034
3730.00   0.10661526
3732.00   0.10659835
3734.00   0.06288395
3736.00   0.12783502
3738.00   0.09256794
3740.00   0.06563642
3742.00   0.08761086
3744.00   0.08831424
3746.00   0.09023824
3748.00   0.13530202
3750.00   0.07575706
3752.00   0.09237827
3754.00   0.09765398
3756.00   0.07380354
3758.00   0.09756865
3760.00   0.13117824
3762.00   0.07811642
3764.00   0.12393244
3766.00   0.09814952
3768.00   0.10430314
3770.00   0.06119632
3772.00   0.08508525
3774.00   0.05980079
3776.00   0.08718500
3778.00   0.01642449
3780.00   0.05707943
3782.00   0.07755103
3784.00   0.07793017
3786.00   0.11151022
3788.00   0.08717337
3790.00   0.09863254
3792.00   0.14673866
3794.00   0.11870011
3796.00   0.10893831
3798.00   0.04593635
3800.00   0.10518792
3802.00   0.10698463
3804.00   0.10313637
3806.00   0.07811102
3808.00   0.10461238
3810.00   0.13691159
3812.00   0.08893375
3814.00   0.08188101
3816.00   0.11325468
3818.00   0.09302978
3820.00   0.03724077
3822.00   0.09015246
3824.00   0.08647568
3826.00   0.09672066
3828.00   0.05215977
3830.00   0.04137786
3832.00   0.03467435
3834.00   0.08173225
3836.00   0.03696636
3838.00   0.06371719
3840.00   0.07223698
3842.00   0.07702589
3844.00   0.09644326
3846.00   0.06064647
3848.00   0.08449025
3850.00   0.06583039
3852.00   0.05745677
3854.00   0.04300823
3856.00   0.07923705
3858.00   0.04696032
3860.00   0.06013898
3862.00   0.04826478
3864.00   0.04455432
3866.00   0.04044226
3868.00   0.03512375
3870.00   0.06891223
3872.00   0.05548774
3874.00   0.06196886
3876.00   0.03294072
3878.00   0.07984016
3880.00   0.05110274
3882.00   0.05645918
3884.00   0.05945351
3886.00   0.06076634
3888.00   0.03569683
3890.00   0.10413591
3892.00   0.10402493
3894.00   0.07615317
3896.00   0.06660341
3898.00   0.07935626
3900.00   0.06822730
3902.00   0.07814395
3904.00   0.07267514
3906.00   0.06147252
3908.00   0.07470492
3910.00   0.05757850
3912.00   0.07476092
3914.00   0.10624964
3916.00   0.08489800
3918.00   0.09738981
3920.00   0.08634970
3922.00   0.08910599
3924.00   0.09795519
3926.00   0.07258578
3928.00   0.07577007
3930.00   0.13417135
3932.00   0.10846188
3934.00   0.10305165
3936.00   0.12358999
3938.00   0.09850849
3940.00   0.10407411
3942.00   0.06482677
3944.00   0.09020521
3946.00   0.09984148
3948.00   0.16028662
3950.00   0.11812989
3952.00   0.08521756
3954.00   0.12643500
3956.00   0.10563258
3958.00   0.14789191
3960.00   0.10559970
3962.00   0.11457136
3964.00   0.12910816
3966.00   0.11762527
3968.00   0.12619865
3970.00   0.12344903
3972.00   0.14281949
3974.00   0.10664187
3976.00   0.14082563
3978.00   0.13932618
3980.00   0.13930903
3982.00   0.13654499
3984.00   0.16533405
3986.00   0.16608718
3988.00   0.13316993
3990.00   0.13389257
3992.00   0.14015125
3994.00   0.13231373
3996.00   0.11662427
3998.00   0.17653044
4000.00   0.14516196
4002.00   0.12783535
4004.00   0.14094573
4006.00   0.15331841
4008.00   0.14269315
4010.00   0.11809874
4012.00   0.13011427
4014.00   0.13245673
4016.00   0.13661964
4018.00   0.17529076
4020.00   0.16071798
4022.00   0.19374464
4024.00   0.18762624
4026.00   0.13890968
4028.00   0.19844772
4030.00   0.13807850
4032.00   0.17313027
4034.00   0.16632946
4036.00   0.21427919
4038.00   0.17754054
4040.00   0.16607183
4042.00   0.14575295
4044.00   0.16811912
4046.00   0.16052733
4048.00   0.16936742
4050.00   0.14258079
4052.00   0.14730731
4054.00   0.16789480
4056.00   0.14819033
4058.00   0.14213571
4060.00   0.14425404
4062.00   0.13468997
4064.00   0.14615524
4066.00   0.14347948
4068.00   0.13247961
4070.00   0.13977152
4072.00   0.15512282
4074.00   0.13090396
4076.00   0.13640650
4078.00   0.13367756
4080.00   0.14086594
4082.00   0.12483530
4084.00   0.11524195
4086.00   0.12104465
4088.00   0.11685868
4090.00   0.10406347
4092.00   0.12288810
4094.00   0.11236596
4096.00   0.13078453
4098.00   0.09711121
4100.00   0.12050373
4102.00   0.10932712
4104.00   0.12328964
4106.00   0.13838427
4108.00   0.15326697
4110.00   0.12769586
4112.00   0.11250674
4114.00   0.11991363
4116.00   0.11374436
4118.00   0.09674636
4120.00   0.10621540
4122.00   0.13017438
4124.00   0.12234950
4126.00   0.13261148
4128.00   0.14509468
4130.00   0.13217567
4132.00   0.14122769
4134.00   0.13693827
4136.00   0.11620244
4138.00   0.10103604
4140.00   0.12356184
4142.00   0.08167218
4144.00   0.12730473
4146.00   0.11305221
4148.00   0.09737424
4150.00   0.12707220
4152.00   0.10868470
4154.00   0.12770773
4156.00   0.11175857
4158.00   0.12098702
4160.00   0.12553117
4162.00   0.11430673
4164.00   0.11767443
4166.00   0.12234126
4168.00   0.10744247
4170.00   0.11716612
4172.00   0.10619668
4174.00   0.10587793
4176.00   0.08577754
4178.00   0.10311749
4180.00   0.11678135
4182.00   0.08590014
4184.00   0.10941547
4186.00   0.09604979
4188.00   0.12072937
4190.00   0.10893544
4192.00   0.09936664
4194.00   0.10371105
4196.00   0.09887497
4198.00   0.10370059
4200.00   0.10636469
4202.00   0.09849805
4204.00   0.11614712
4206.00   0.10419647
4208.00   0.10664594
4210.00   0.11755350
4212.00   0.10910866
4214.00   0.11495253
4216.00   0.09755481
4218.00   0.11868007
4220.00   0.13456331
4222.00   0.11275970
4224.00   0.08326325
4226.00   0.09738536
4228.00   0.10905463
4230.00   0.08833148
4232.00   0.10468756
4234.00   0.11756553
4236.00   0.10269316
4238.00   0.10960291
4240.00   0.10452554
4242.00   0.10985608
4244.00   0.11231954
4246.00   0.10769075
4248.00   0.15482821
4250.00   0.14514782
4252.00   0.12499714
4254.00   0.13932219
4256.00   0.12624937
4258.00   0.12305910
4260.00   0.13694347
4262.00   0.11506779
4264.00   0.11807182
4266.00   0.14241159
4268.00   0.13620107
4270.00   0.13738085
4272.00   0.12098707
4274.00   0.14138681
4276.00   0.13239369
4278.00   0.11554403
4280.00   0.13760443
4282.00   0.12494076
4284.00   0.11453211
4286.00   0.12458380
4288.00   0.10234383
4290.00   0.13993634
4292.00   0.13985008
4294.00   0.14320600
4296.00   0.15548369
4298.00   0.14132516
4300.00   0.13340673
4302.00   0.13178839
4304.00   0.13082916
4306.00   0.12636910
4308.00   0.12997544
4310.00   0.13732961
4312.00   0.12992001
4314.00   0.14548714
4316.00   0.12553938
4318.00   0.12355656
4320.00   0.11262818
4322.00   0.10495851
4324.00   0.12805127
4326.00   0.09294870
4328.00   0.11654757
4330.00   0.17183363
4332.00   0.13456275
4334.00   0.13546401
4336.00   0.14624752
4338.00   0.13739240
4340.00   0.14525954
4342.00   0.13716435
4344.00   0.13115256
4346.00   0.12598832
4348.00   0.12793756
4350.00   0.14114055
4352.00   0.13195673
4354.00   0.10400293
4356.00   0.12110447
4358.00   0.19276929
4360.00   0.17813970
4362.00   0.13205014
4364.00   0.15216856
4366.00   0.12776302
4368.00   0.13548636
4370.00   0.14353336
4372.00   0.11830665
4374.00   0.12654212
4376.00   0.14441672
4378.00   0.14267077
4380.00   0.11570451
4382.00   0.14299850
4384.00   0.14236432
4386.00   0.14087607
4388.00   0.15714708
4390.00   0.14186528
4392.00   0.15226972
4394.00   0.14599110
4396.00   0.14979643
4398.00   0.12772928
4400.00   0.13355599
4402.00   0.14088413
4404.00   0.14347400
4406.00   0.13589163
4408.00   0.12592433
4410.00   0.13378482
4412.00   0.12868287
4414.00   0.11261403
4416.00   0.12359777
4418.00   0.14997098
4420.00   0.08857001
4422.00   0.12729111
4424.00   0.13288912
4426.00   0.12323368
4428.00   0.10889033
4430.00   0.11114030
4432.00   0.10946596
4434.00   0.13151664
4436.00   0.11012997
4438.00   0.09202207
4440.00   0.10777360
4442.00   0.11374115
4444.00   0.14559138
4446.00   0.10834280
4448.00   0.10654137
4450.00   0.10587113
4452.00   0.10283197
4454.00   0.10493854
4456.00   0.09439863
4458.00   0.10427583
4460.00   0.10359553
4462.00   0.09051590
4464.00   0.10580325
4466.00   0.10418733
4468.00   0.08995672
4470.00   0.09736057
4472.00   0.06955738
4474.00   0.08830371
4476.00   0.10101661
4478.00   0.07929862
4480.00   0.11419346
4482.00   0.07509514
4484.00   0.08446949
4486.00   0.08264795
4488.00   0.07649478
4490.00   0.10206422
4492.00   0.11624699
4494.00   0.07630353
4496.00   0.07700364
4498.00   0.07792275
4500.00   0.08129120
4502.00   0.08870430
4504.00   0.07557274
4506.00   0.09124953
4508.00   0.07734837
4510.00   0.09527515
4512.00   0.10807197
4514.00   0.09360646
4516.00   0.11234068
4518.00   0.05923815
4520.00   0.09318817
4522.00   0.09475046
4524.00   0.10620891
4526.00   0.07159795
4528.00   0.10688869
4530.00   0.08671975
4532.00   0.11596255
4534.00   0.10989049
4536.00   0.08180556
4538.00   0.08656637
4540.00   0.09071597
4542.00   0.10390013
4544.00   0.10424111
4546.00   0.12180421
4548.00   0.10433869
4550.00   0.10030840
4552.00   0.10109591
4554.00   0.10487356
4556.00   0.09212285
4558.00   0.10355526
4560.00   0.09340817
4562.00   0.08841112
4564.00   0.09953249
4566.00   0.13313605
4568.00   0.10747327
4570.00   0.10241041
4572.00   0.13559289
4574.00   0.14122413
4576.00   0.10389594
4578.00   0.11789985
4580.00   0.11565590
4582.00   0.11909326
4584.00   0.13948390
4586.00   0.11184011
4588.00   0.10680095
4590.00   0.12376036
4592.00   0.12260884
4594.00   0.15198615
4596.00   0.14787064
4598.00   0.12776864
4600.00   0.14312072
4602.00   0.13165464
4604.00   0.14233221
4606.00   0.14213128
4608.00   0.15361974
4610.00   0.14892207
4612.00   0.17242697
4614.00   0.17382377
4616.00   0.18534397
4618.00   0.19607146
4620.00   0.20621315
4622.00   0.18431921
4624.00   0.18646555
4626.00   0.19643317
4628.00   0.20275027
4630.00   0.22756015
4632.00   0.19978984
4634.00   0.22214118
4636.00   0.22947676
4638.00   0.22932842
4640.00   0.22768678
4642.00   0.24531005
4644.00   0.23793332
4646.00   0.25563672
4648.00   0.23539995
4650.00   0.26323095
4652.00   0.25736731
4654.00   0.24715278
4656.00   0.25639293
4658.00   0.26834074
4660.00   0.28923467
4662.00   0.26993051
4664.00   0.27269474
4666.00   0.25754717
4668.00   0.28874570
4670.00   0.29436800
4672.00   0.29675734
4674.00   0.28650692
4676.00   0.29483366
4678.00   0.31241193
4680.00   0.31741235
4682.00   0.30159423
4684.00   0.29138756
4686.00   0.30813596
4688.00   0.30437616
4690.00   0.33108643
4692.00   0.34262970
4694.00   0.31299737
4696.00   0.31866771
4698.00   0.32163656
4700.00   0.31479210
4702.00   0.31930226
4704.00   0.32796633
4706.00   0.31038505
4708.00   0.33539060
4710.00   0.30764565
4712.00   0.32414359
4714.00   0.32445917
4716.00   0.31998360
4718.00   0.28791240
4720.00   0.27858725
4722.00   0.28692129
4724.00   0.28672796
4726.00   0.26422226
4728.00   0.26207533
4730.00   0.26743519
4732.00   0.25819436
4734.00   0.25863037
4736.00   0.26732197
4738.00   0.25480846
4740.00   0.22111921
4742.00   0.22542900
4744.00   0.21798615
4746.00   0.22294265
4748.00   0.21680385
4750.00   0.20320562
4752.00   0.19538629
4754.00   0.20172901
4756.00   0.19347787
4758.00   0.19814765
4760.00   0.19733992
4762.00   0.17963025
4764.00   0.19461942
4766.00   0.17473787
4768.00   0.17675637
4770.00   0.18017004
4772.00   0.17282777
4774.00   0.17226586
4776.00   0.16023539
4778.00   0.15831186
4780.00   0.15999496
4782.00   0.14339463
4784.00   0.16272479
4786.00   0.14545219
4788.00   0.15056644
4790.00   0.14568338
4792.00   0.15162089
4794.00   0.15745524
4796.00   0.13808082
4798.00   0.13085124
4800.00   0.13297005
4802.00   0.13398236
4804.00   0.14858489
4806.00   0.13316403
4808.00   0.13900831
4810.00   0.13777350
4812.00   0.14081869
4814.00   0.13054438
4816.00   0.14028709
4818.00   0.13366696
4820.00   0.13075058
4822.00   0.12109283
4824.00   0.13471322
4826.00   0.11309854
4828.00   0.12794136
4830.00   0.14225221
4832.00   0.11928166
4834.00   0.11709464
4836.00   0.14643300
4838.00   0.12450658
4840.00   0.13626015
4842.00   0.12436511
4844.00   0.13940686
4846.00   0.13143140
4848.00   0.12624039
4850.00   0.13604009
4852.00   0.13297820
4854.00   0.14042497
4856.00   0.11685793
4858.00   0.14747603
4860.00   0.14753245
4862.00   0.12990172
4864.00   0.14797458
4866.00   0.14593720
4868.00   0.14581764
4870.00   0.14968713
4872.00   0.14739466
4874.00   0.16059928
4876.00   0.16205351
4878.00   0.17052604
4880.00   0.15944485
4882.00   0.14427039
4884.00   0.18200932
4886.00   0.15477729
4888.00   0.17234594
4890.00   0.17515618
4892.00   0.17101064
4894.00   0.17714383
4896.00   0.17227861
4898.00   0.16765453
4900.00   0.16034910
4902.00   0.16355945
4904.00   0.18718410
4906.00   0.16236795
4908.00   0.15941696
4910.00   0.17068677
4912.00   0.16364117
4914.00   0.16083816
4916.00   0.15280305
4918.00   0.17476289
4920.00   0.15239766
4922.00   0.16695468
4924.00   0.14820684
4926.00   0.15847309
4928.00   0.16321266
4930.00   0.16760874
4932.00   0.17690925
4934.00   0.15620083
4936.00   0.17521450
4938.00   0.16448578
4940.00   0.15286814
4942.00   0.17300688
4944.00   0.17624326
4946.00   0.16114002
4948.00   0.15800607
4950.00   0.17250040
4952.00   0.16826661
4954.00   0.17878681
4956.00   0.16866957
4958.00   0.17487961
4960.00   0.18517494
4962.00   0.16466200
4964.00   0.17508997
4966.00   0.16372287
4968.00   0.18431626
4970.00   0.18891996
4972.00   0.18551517
4974.00   0.17994456
4976.00   0.17692108
4978.00   0.18039179
4980.00   0.19598192
4982.00   0.18681753
4984.00   0.19353433
4986.00   0.18316315
4988.00   0.19270541
4990.00   0.16989332
4992.00   0.21067576
4994.00   0.20482811
4996.00   0.18481824
4998.00   0.20213851
5000.00   0.21671124
5002.00   0.20383765
5004.00   0.20464213
5006.00   0.20168194
5008.00   0.23998326
5010.00   0.22731812
5012.00   0.24400206
5014.00   0.22240812
5016.00   0.22538684
5018.00   0.22517666
5020.00   0.22096616
5022.00   0.21277685
5024.00   0.23331463
5026.00   0.23784599
5028.00   0.23599680
5030.00   0.23822381
5032.00   0.22034414
5034.00   0.23331930
5036.00   0.21642569
5038.00   0.22447263
5040.00   0.22149052
5042.00   0.23708083
5044.00   0.22937502
5046.00   0.23804665
5048.00   0.22632264
5050.00   0.21769345
5052.00   0.20118295
5054.00   0.20067276
5056.00   0.20312431
5058.00   0.21028689
5060.00   0.21073711
5062.00   0.19748256
5064.00   0.19196917
5066.00   0.20790093
5068.00   0.19785666
5070.00   0.19300793
5072.00   0.18195003
5074.00   0.19853434
5076.00   0.19400688
5078.00   0.18047653
5080.00   0.19407064
5082.00   0.17097808
5084.00   0.16077837
5086.00   0.19731750
5088.00   0.19647275
5090.00   0.17616577
5092.00   0.18658827
5094.00   0.17322944
5096.00   0.16444355
5098.00   0.16151319
5100.00   0.16494289
5102.00   0.18512143
5104.00   0.17342986
5106.00   0.17164479
5108.00   0.16154377
5110.00   0.15608869
5112.00   0.14656223
5114.00   0.16114923
5116.00   0.16920932
5118.00   0.14219101
5120.00   0.16128302
5122.00   0.16953269
5124.00   0.15221108
5126.00   0.14782073
5128.00   0.14972685
5130.00   0.14827754
5132.00   0.17455661
5134.00   0.16658998
5136.00   0.16824484
5138.00   0.14646229
5140.00   0.14364929
5142.00   0.15098897
5144.00   0.13117677
5146.00   0.14035361
5148.00   0.17056319
5150.00   0.14194113
5152.00   0.14707173
5154.00   0.13623413
5156.00   0.14667620
5158.00   0.16121879
5160.00   0.14966699
5162.00   0.13665417
5164.00   0.15213627
5166.00   0.13804407
5168.00   0.12892534
5170.00   0.13068092
5172.00   0.14451823
5174.00   0.14349031
5176.00   0.14545508
5178.00   0.14828588
5180.00   0.11776518
5182.00   0.13703206
5184.00   0.14428218
5186.00   0.11956952
5188.00   0.13037440
5190.00   0.15280527
5192.00   0.13146172
5194.00   0.09981391
5196.00   0.13851069
5198.00   0.13147666
5200.00   0.14152561
5202.00   0.13233674
5204.00   0.16035062
5206.00   0.15250792
5208.00   0.13907297
5210.00   0.14783669
5212.00   0.14448796
5214.00   0.12876613
5216.00   0.13007149
5218.00   0.14361310
5220.00   0.13838287
5222.00   0.15041651
5224.00   0.11340155
5226.00   0.12876008
5228.00   0.16972186
5230.00   0.13343340
5232.00   0.14194413
5234.00   0.15785509
5236.00   0.13770773
5238.00   0.14202975
5240.00   0.13473697
5242.00   0.14180280
5244.00   0.14889704
5246.00   0.14840373
5248.00   0.17014246
5250.00   0.16675295
5252.00   0.14798808
5254.00   0.14769177
5256.00   0.16869886
5258.00   0.18526149
5260.00   0.17560513
5262.00   0.13574788
5264.00   0.15667079
5266.00   0.18804517
5268.00   0.16163434
5270.00   0.16404290
5272.00   0.16569196
5274.00   0.18295591
5276.00   0.16421776
5278.00   0.18097278
5280.00   0.17993762
5282.00   0.19598809
5284.00   0.17775245
5286.00   0.19328488
5288.00   0.20777674
5290.00   0.19085509
5292.00   0.20711973
5294.00   0.22653033
5296.00   0.19649327
5298.00   0.21126175
5300.00   0.22531959
5302.00   0.23481782
5304.00   0.23260425
5306.00   0.22656398
5308.00   0.22651766
5310.00   0.24204747
5312.00   0.23105934
5314.00   0.25106001
5316.00   0.27267069
5318.00   0.25535041
5320.00   0.25734150
5322.00   0.26845255
5324.00   0.27800977
5326.00   0.25283140
5328.00   0.26413018
5330.00   0.26944157
5332.00   0.26667356
5334.00   0.27786142
5336.00   0.26278880
5338.00   0.28977150
5340.00   0.28742597
5342.00   0.27663550
5344.00   0.25684455
5346.00   0.30761287
5348.00   0.28580764
5350.00   0.30015451
5352.00   0.32455966
5354.00   0.30746418
5356.00   0.30083418
5358.00   0.31414384
5360.00   0.31010938
5362.00   0.30634579
5364.00   0.31871474
5366.00   0.31515375
5368.00   0.34000126
5370.00   0.30470967
5372.00   0.30053973
5374.00   0.32091221
5376.00   0.30114612
5378.00   0.32539904
5380.00   0.30557114
5382.00   0.30836827
5384.00   0.32854867
5386.00   0.31083286
5388.00   0.32295164
5390.00   0.30422291
5392.00   0.31155348
5394.00   0.30123007
5396.00   0.26757523
5398.00   0.32185304
5400.00   0.31057024
5402.00   0.31087863
5404.00   0.30449232
5406.00   0.30180156
5408.00   0.27271646
5410.00   0.30112174
5412.00   0.32420665
5414.00   0.31496662
5416.00   0.28084067
5418.00   0.30994147
5420.00   0.29800093
5422.00   0.31217372
5424.00   0.31381026
5426.00   0.31517553
5428.00   0.30777225
5430.00   0.30569348
5432.00   0.31031463
5434.00   0.30966991
5436.00   0.29437488
5438.00   0.27299401
5440.00   0.27239126
5442.00   0.29182956
5444.00   0.29918045
5446.00   0.30664748
5448.00   0.30679581
5450.00   0.29280180
5452.00   0.27586836
5454.00   0.27746093
5456.00   0.29391947
5458.00   0.30100909
5460.00   0.30638188
5462.00   0.30977267
5464.00   0.30977550
5466.00   0.30943847
5468.00   0.31293827
5470.00   0.31950426
5472.00   0.31852776
5474.00   0.30977100
5476.00   0.30501872
5478.00   0.30194962
5480.00   0.30114302
5482.00   0.30391812
5484.00   0.30949730
5486.00   0.31345075
5488.00   0.31784326
5490.00   0.32097068
5492.00   0.32265905
5494.00   0.32456720
5496.00   0.32692975
5498.00   0.32972643
5500.00   0.33423656
5502.00   0.34345439
5504.00   0.34365380
5506.00   0.33236149
5508.00   0.32864460
5510.00   0.33697313
5512.00   0.34885940
5514.00   0.35513937
5516.00   0.36035827
5518.00   0.36008590
5520.00   0.35216555
5522.00   0.34749886
5524.00   0.34560764
5526.00   0.34471616
5528.00   0.34345385
5530.00   0.34213984
5532.00   0.34634218
5534.00   0.36137679
5536.00   0.36406976
5538.00   0.35491958
5540.00   0.34511116
5542.00   0.33759046
5544.00   0.33132347
5546.00   0.33671182
5548.00   0.36214274
5550.00   0.36658743
5552.00   0.35705081
5554.00   0.34713089
5556.00   0.33775467
5558.00   0.32924455
5560.00   0.32866916
5562.00   0.33758894
5564.00   0.33648700
5566.00   0.32687384
5568.00   0.32205561
5570.00   0.32071128
5572.00   0.32428065
5574.00   0.33945599
5576.00   0.36867681
5578.00   0.36990818
5580.00   0.34540951
5582.00   0.33080843
5584.00   0.32095951
5586.00   0.31491184
5588.00   0.31498587
5590.00   0.32014135
5592.00   0.31852281
5594.00   0.31047854
5596.00   0.30830905
5598.00   0.31131259
5600.00   0.31343403
5602.00   0.31264335
5604.00   0.31035215
5606.00   0.30690464
5608.00   0.30155224
5610.00   0.29659212
5612.00   0.28908002
5614.00   0.28540924
5616.00   0.28840753
5618.00   0.29328439
5620.00   0.29281676
5622.00   0.28913078
5624.00   0.28653255
5626.00   0.28374374
5628.00   0.28053120
5630.00   0.27571392
5632.00   0.27193078
5634.00   0.27271879
5636.00   0.27734235
5638.00   0.27534834
5640.00   0.26750422
5642.00   0.26244068
5644.00   0.25773922
5646.00   0.25527826
5648.00   0.25688866
5650.00   0.26138720
5652.00   0.26455888
5654.00   0.26989657
5656.00   0.27070808
5658.00   0.26933360
5660.00   0.26441517
5662.00   0.25291055
5664.00   0.23919691
5666.00   0.23504545
5668.00   0.23793480
5670.00   0.23958108
5672.00   0.24582103
5674.00   0.24703644
5676.00   0.23999462
5678.00   0.23147325
5680.00   0.22995380
5682.00   0.23306672
5684.00   0.23263261
5686.00   0.23248026
5688.00   0.22890705
5690.00   0.21812798
5692.00   0.21004501
5694.00   0.21370344
5696.00   0.22521618
5698.00   0.23077855
5700.00   0.23855957
5702.00   0.23728503
5704.00   0.22393551
5706.00   0.21285751
5708.00   0.21172583
5710.00   0.21471538
5712.00   0.21034391
5714.00   0.19874229
5716.00   0.19405220
5718.00   0.19206053
5720.00   0.19282351
5722.00   0.19889517
5724.00   0.20589113
5726.00   0.20386386
5728.00   0.19308309
5730.00   0.19134066
5732.00   0.19638456
5734.00   0.19842568
5736.00   0.19732866
5738.00   0.19476874
5740.00   0.19115105
5742.00   0.18580151
5744.00   0.18323117
5746.00   0.18184710
5748.00   0.18200126
5750.00   0.18506581
5752.00   0.18757045
5754.00   0.18734866
5756.00   0.18555254
5758.00   0.18267691
5760.00   0.17658755
5762.00   0.17378126
5764.00   0.17443298
5766.00   0.17361332
5768.00   0.16870180
5770.00   0.16239490
5772.00   0.16040474
5774.00   0.16152425
5776.00   0.16210154
5778.00   0.16535671
5780.00   0.16522124
5782.00   0.15863153
5784.00   0.15128908
5786.00   0.15158290
5788.00   0.15738629
5790.00   0.16086891
5792.00   0.16567057
5794.00   0.16827846
5796.00   0.16929786
5798.00   0.16823998
5800.00   0.16353165
5802.00   0.15533911
5804.00   0.15242548
5806.00   0.15255813
5808.00   0.15345240
5810.00   0.15660763
5812.00   0.15943871
5814.00   0.16047353
5816.00   0.16065259
5818.00   0.16131243
5820.00   0.16308473
5822.00   0.16222097
5824.00   0.15914133
5826.00   0.15564936
5828.00   0.15097627
5830.00   0.14661883
5832.00   0.14743862
5834.00   0.15420559
5836.00   0.15513423
5838.00   0.15309699
5840.00   0.15031554
5842.00   0.14438069
5844.00   0.14003098
5846.00   0.14477353
5848.00   0.15743543
5850.00   0.16236654
5852.00   0.16420059
5854.00   0.16431443
5856.00   0.16161910
5858.00   0.15819697
5860.00   0.15486683
5862.00   0.15110907
5864.00   0.15256661
5866.00   0.16055876
5868.00   0.16439946
5870.00   0.16713022
5872.00   0.16751783
5874.00   0.16396652
5876.00   0.15816151
5878.00   0.15566847
5880.00   0.15541936
5882.00   0.15381417
5884.00   0.15122898
5886.00   0.14964037
5888.00   0.14785714
5890.00   0.14815238
5892.00   0.15620017
5894.00   0.17320962
5896.00   0.18091546
5898.00   0.18184087
5900.00   0.18564968
5902.00   0.19463214
5904.00   0.20198496
5906.00   0.20076373
5908.00   0.19317080
5910.00   0.18984102
5912.00   0.18662828
5914.00   0.18550295
5916.00   0.18651415
5918.00   0.18862791
5920.00   0.19100530
5922.00   0.19417806
5924.00   0.20034316
5926.00   0.21313781
5928.00   0.21782658
5930.00   0.21689516
5932.00   0.21441410
5934.00   0.20912662
5936.00   0.20360306
5938.00   0.20808516
5940.00   0.22336778
5942.00   0.23017846
5944.00   0.23347165
5946.00   0.23589921
5948.00   0.23692466
5950.00   0.23752981
5952.00   0.23984826
5954.00   0.24348961
5956.00   0.24516828
5958.00   0.24403943
5960.00   0.24594095
5962.00   0.25185707
5964.00   0.25780290
5966.00   0.26095217
5968.00   0.26268661
5970.00   0.26281247
5972.00   0.25883126
5974.00   0.25905481
5976.00   0.26459429
5978.00   0.26786989
5980.00   0.26347542
5982.00   0.25585574
5984.00   0.25844431
5986.00   0.27133337
5988.00   0.27740574
5990.00   0.28232068
5992.00   0.28442085
5994.00   0.28259030
5996.00   0.27853215
5998.00   0.27531141
6000.00   0.27133435
6002.00   0.26841518
6004.00   0.26521432
6006.00   0.26403710
6008.00   0.26646021
6010.00   0.26887077
6012.00   0.26669315
6014.00   0.26097074
6016.00   0.26024187
6018.00   0.26338077
6020.00   0.26514143
6022.00   0.26663068
6024.00   0.26729500
6026.00   0.26632100
6028.00   0.26414084
6030.00   0.26286536
6032.00   0.26287040
6034.00   0.26048774
6036.00   0.25463909
6038.00   0.25065497
6040.00   0.25110424
6042.00   0.25354943
6044.00   0.25346646
6046.00   0.25352499
6048.00   0.24998695
6050.00   0.24009250
6052.00   0.23494378
6054.00   0.23811367
6056.00   0.24322633
6058.00   0.24170074
6060.00   0.23559083
6062.00   0.23326729
6064.00   0.23316491
6066.00   0.23198317
6068.00   0.22881730
6070.00   0.22646019
6072.00   0.22790064
6074.00   0.23223841
6076.00   0.23250458
6078.00   0.22963691
6080.00   0.22811061
6082.00   0.22687347
6084.00   0.22628511
6086.00   0.22695579
6088.00   0.22841579
6090.00   0.22848482
6092.00   0.22852835
6094.00   0.22657238
6096.00   0.22121780
6098.00   0.21782303
6100.00   0.21813881
6102.00   0.22021358
6104.00   0.22168778
6106.00   0.22459680
6108.00   0.22405957
6110.00   0.22016148
6112.00   0.21704391
6114.00   0.21516272
6116.00   0.21330531
6118.00   0.21030067
6120.00   0.20624653
6122.00   0.20408748
6124.00   0.20322409
6126.00   0.20256048
6128.00   0.20299393
6130.00   0.20279233
6132.00   0.20044312
6134.00   0.19666010
6136.00   0.19320637
6138.00   0.18743074
6140.00   0.18602258
6142.00   0.18978623
6144.00   0.19251496
6146.00   0.19102213
6148.00   0.18792662
6150.00   0.18843848
6152.00   0.19319834
6154.00   0.19300668
6156.00   0.18866844
6158.00   0.18563753
6160.00   0.18461861
6162.00   0.18478738
6164.00   0.18645199
6166.00   0.19073011
6168.00   0.19129395
6170.00   0.18959284
6172.00   0.18722384
6174.00   0.18321267
6176.00   0.17938732
6178.00   0.17829302
6180.00   0.17930709
6182.00   0.17693436
6184.00   0.17203610
6186.00   0.16764061
6188.00   0.16245224
6190.00   0.15828902
6192.00   0.15729308
6194.00   0.15811998
6196.00   0.15362115
6198.00   0.14204946
6200.00   0.13760366
6202.00   0.13919440
6204.00   0.13955089
6206.00   0.13602374
6208.00   0.13117576
6210.00   0.12845697
6212.00   0.12645812
6214.00   0.12558134
6216.00   0.12791109
6218.00   0.12707242
6220.00   0.12118538
6222.00   0.11398446
6224.00   0.10983928
6226.00   0.10679764
6228.00   0.10562420
6230.00   0.10791875
6232.00   0.10802428
6234.00   0.10522352
6236.00   0.10274431
6238.00   0.10365804
6240.00   0.10685046
6242.00   0.10527750
6244.00   0.09924829
6246.00   0.09546874
6248.00   0.09143998
6250.00   0.08980905
6252.00   0.09280846
6254.00   0.09864412
6256.00   0.10155243
6258.00   0.10344797
6260.00   0.10490957
6262.00   0.10637488
6264.00   0.10615840
6266.00   0.10274492
6268.00   0.09845676
6270.00   0.09820336
6272.00   0.10181803
6274.00   0.10112202
6276.00   0.09617781
6278.00   0.09429945
6280.00   0.09654973
6282.00   0.09987292
6284.00   0.10160597
6286.00   0.10300294
6288.00   0.10336526
6290.00   0.10131606
6292.00   0.10188405
6294.00   0.10518497
6296.00   0.10898688
6298.00   0.11208796
6300.00   0.11511265
6302.00   0.11762301
6304.00   0.11946072
6306.00   0.12164808
6308.00   0.12409372
6310.00   0.12636402
6312.00   0.12887534
6314.00   0.13099121
6316.00   0.12991790
6318.00   0.12456072
6320.00   0.12297618
6322.00   0.12265088
6324.00   0.12384594
6326.00   0.12733221
6328.00   0.13169460
6330.00   0.13451679
6332.00   0.13674453
6334.00   0.13860980
6336.00   0.13991769
6338.00   0.14103663
6340.00   0.14080246
6342.00   0.14171416
6344.00   0.14709681
6346.00   0.15616456
6348.00   0.15912043
6350.00   0.15634753
6352.00   0.15707982
6354.00   0.16052437
6356.00   0.16408269
6358.00   0.16597039
6360.00   0.16740456
6362.00   0.17267843
6364.00   0.18524507
6366.00   0.18837614
6368.00   0.18348810
6370.00   0.17947945
6372.00   0.17792010
6374.00   0.17778507
6376.00   0.18106461
6378.00   0.18984878
6380.00   0.19193615
6382.00   0.18815087
6384.00   0.18700181
6386.00   0.18975568
6388.00   0.19338866
6390.00   0.19493856
6392.00   0.19520460
6394.00   0.19745080
6396.00   0.20104544
6398.00   0.20468478
6400.00   0.20974247
6402.00   0.21344051
6404.00   0.21271257
6406.00   0.20883194
6408.00   0.20975468
6410.00   0.21386157
6412.00   0.21756296
6414.00   0.22281387
6416.00   0.22670873
6418.00   0.22744350
6420.00   0.22652563
6422.00   0.22753276
6424.00   0.23005402
6426.00   0.23089492
6428.00   0.23007543
6430.00   0.23020408
6432.00   0.23119807
6434.00   0.23343459
6436.00   0.23905165
6438.00   0.24985665
6440.00   0.25258872
6442.00   0.24837083
6444.00   0.24623321
6446.00   0.24591802
6448.00   0.24653117
6450.00   0.24863391
6452.00   0.25267139
6454.00   0.25180718
6456.00   0.24557208
6458.00   0.24257350
6460.00   0.24125566
6462.00   0.24166700
6464.00   0.24469219
6466.00   0.24977733
6468.00   0.25266397
6470.00   0.25420868
6472.00   0.25652725
6474.00   0.26078072
6476.00   0.26236823
6478.00   0.25843975
6480.00   0.25220701
6482.00   0.25097391
6484.00   0.25288379
6486.00   0.25434875
6488.00   0.25685164
6490.00   0.25925359
6492.00   0.26191795
6494.00   0.26414832
6496.00   0.26434323
6498.00   0.26237023
6500.00   0.26308489
6502.00   0.26571420
6504.00   0.26788855
6506.00   0.27073675
6508.00   0.27233061
6510.00   0.27017364
6512.00   0.26507297
6514.00   0.26368776
6516.00   0.26538703
6518.00   0.26496217
6520.00   0.26223347
6522.00   0.26047990
6524.00   0.26189229
6526.00   0.26483041
6528.00   0.26451349
6530.00   0.26129705
6532.00   0.25980940
6534.00   0.25784820
6536.00   0.25775853
6538.00   0.26102379
6540.00   0.26551655
6542.00   0.26697487
6544.00   0.26564002
6546.00   0.26799664
6548.00   0.27346936
6550.00   0.27784392
6552.00   0.28216672
6554.00   0.28469986
6556.00   0.28227088
6558.00   0.27546862
6560.00   0.27063295
6562.00   0.26395756
6564.00   0.26088670
6566.00   0.26230443
6568.00   0.26406550
6570.00   0.26312801
6572.00   0.26101387
6574.00   0.26152503
6576.00   0.26338094
6578.00   0.26647180
6580.00   0.27208969
6582.00   0.27690855
6584.00   0.28052422
6586.00   0.28277621
6588.00   0.27996174
6590.00   0.26939148
6592.00   0.26617348
6594.00   0.26613328
6596.00   0.26826125
6598.00   0.27462551
6600.00   0.28139496
6602.00   0.28087819
6604.00   0.27420801
6606.00   0.27214339
6608.00   0.27189982
6610.00   0.27164796
6612.00   0.27213183
6614.00   0.27209204
6616.00   0.26940790
6618.00   0.26439732
6620.00   0.26498851
6622.00   0.27123940
6624.00   0.27454835
6626.00   0.27605465
6628.00   0.27707407
6630.00   0.27829963
6632.00   0.27928856
6634.00   0.27870452
6636.00   0.27619451
6638.00   0.27452925
6640.00   0.27304965
6642.00   0.27146792
6644.00   0.26949412
6646.00   0.26752660
6648.00   0.26661661
6650.00   0.26718578
6652.00   0.26577291
6654.00   0.26223904
6656.00   0.26006764
6658.00   0.25963023
6660.00   0.26003638
6662.00   0.26072550
6664.00   0.26215598
6666.00   0.26283884
6668.00   0.26238739
6670.00   0.26347438
6672.00   0.26787415
6674.00   0.27063322
6676.00   0.26740202
6678.00   0.26009324
6680.00   0.25474480
6682.00   0.24740374
6684.00   0.24423406
6686.00   0.24615158
6688.00   0.24717179
6690.00   0.24427061
6692.00   0.23971853
6694.00   0.23753271
6696.00   0.23679025
6698.00   0.23558804
6700.00   0.23357309
6702.00   0.23330954
6704.00   0.23672017
6706.00   0.24073921
6708.00   0.23971243
6710.00   0.23532346
6712.00   0.23032312
6714.00   0.22123487
6716.00   0.21586977
6718.00   0.21486832
6720.00   0.21572314
6722.00   0.21671744
6724.00   0.21887931
6726.00   0.21977635
6728.00   0.22051658
6730.00   0.22012720
6732.00   0.21862561
6734.00   0.21637960
6736.00   0.21331719
6738.00   0.20949888
6740.00   0.20682137
6742.00   0.20462790
6744.00   0.20289822
6746.00   0.20205024
6748.00   0.20098349
6750.00   0.19876479
6752.00   0.19648726
6754.00   0.19719152
6756.00   0.20237307
6758.00   0.20171636
6760.00   0.19610989
6762.00   0.19195342
6764.00   0.19034550
6766.00   0.18927227
6768.00   0.18659867
6770.00   0.18233845
6772.00   0.18162723
6774.00   0.18417855
6776.00   0.18588649
6778.00   0.18813047
6780.00   0.18884122
6782.00   0.18515971
6784.00   0.17796889
6786.00   0.17465402
6788.00   0.17321695
6790.00   0.17209701
6792.00   0.17178473
6794.00   0.17186536
6796.00   0.17200427
6798.00   0.17244220
6800.00   0.17387968
6802.00   0.17831227
6804.00   0.17815170
6806.00   0.17414325
6808.00   0.17025894
6810.00   0.16681741
6812.00   0.16386299
6814.00   0.16341327
6816.00   0.16604419
6818.00   0.16568312
6820.00   0.16388954
6822.00   0.16158061
6824.00   0.15804656
6826.00   0.15466188
6828.00   0.15364373
6830.00   0.15465705
6832.00   0.15291227
6834.00   0.14767435
6836.00   0.14607963
6838.00   0.14861701
6840.00   0.15155479
6842.00   0.15268639
6844.00   0.15314084
6846.00   0.15238978
6848.00   0.15005790
6850.00   0.14797305
6852.00   0.14487405
6854.00   0.14290486
6856.00   0.14389060
6858.00   0.14598258
6860.00   0.14362167
6862.00   0.13594766
6864.00   0.13364761
6866.00   0.13485341
6868.00   0.13580790
6870.00   0.13612475
6872.00   0.13626464
6874.00   0.13607441
6876.00   0.13577482
6878.00   0.13452999
6880.00   0.13217939
6882.00   0.12999767
6884.00   0.12763055
6886.00   0.12560615
6888.00   0.12445100
6890.00   0.12380774
6892.00   0.12498666
6894.00   0.12867622
6896.00   0.13130313
6898.00   0.13479871
6900.00   0.13606329
6902.00   0.13220675
6904.00   0.12508613
6906.00   0.12228588
6908.00   0.12230001
6910.00   0.12120091
6912.00   0.12031489
6914.00   0.11894815
6916.00   0.11599316
6918.00   0.11298264
6920.00   0.11411453
6922.00   0.11966813
6924.00   0.12187931
6926.00   0.12322084
6928.00   0.12338462
6930.00   0.12144957
6932.00   0.11923706
6934.00   0.11971461
6936.00   0.12256320
6938.00   0.12168101
6940.00   0.11755252
6942.00   0.11471298
6944.00   0.11226976
6946.00   0.11091968
6948.00   0.11193553
6950.00   0.11487771
6952.00   0.11560260
6954.00   0.11494943
6956.00   0.11476269
6958.00   0.11502002
6960.00   0.11471983
6962.00   0.11262395
6964.00   0.10991079
6966.00   0.11139520
6968.00   0.11873340
6970.00   0.12013981
6972.00   0.11788648
6974.00   0.11536121
6976.00   0.11237747
6978.00   0.10962532
6980.00   0.11003617
6982.00   0.11370299
6984.00   0.11465023
6986.00   0.11461022
6988.00   0.11395359
6990.00   0.11163274
6992.00   0.10980899
6994.00   0.11142449
6996.00   0.11577780
6998.00   0.11753029
7000.00   0.11820976
7002.00   0.11851399
7004.00   0.11834845
7006.00   0.11765692
7008.00   0.11629960
7010.00   0.11435492
7012.00   0.11277594
7014.00   0.11024582
7016.00   0.11002147
7018.00   0.11213065
7020.00   0.11429046
7022.00   0.11607923
7024.00   0.11763189
7026.00   0.11769904
7028.00   0.11583653
7030.00   0.11555552
7032.00   0.11653593
7034.00   0.11666467
7036.00   0.11571896
7038.00   0.11406745
7040.00   0.11158106
7042.00   0.10746486
7044.00   0.10658532
7046.00   0.10832202
7048.00   0.10986921
7050.00   0.11176265
7052.00   0.11347436
7054.00   0.11419498
7056.00   0.11421903
7058.00   0.11477523
7060.00   0.11558247
7062.00   0.11622101
7064.00   0.11690366
7066.00   0.11731145
7068.00   0.11735272
7070.00   0.11705603
7072.00   0.11599165
7074.00   0.11326876
7076.00   0.11240634
7078.00   0.11235090
7080.00   0.11324180
7082.00   0.11604840
7084.00   0.11925044
7086.00   0.11892124
7088.00   0.11550602
7090.00   0.11371764
7092.00   0.11112747
7094.00   0.11061008
7096.00   0.11323653
7098.00   0.11661689
7100.00   0.11799205
7102.00   0.11842421
7104.00   0.11884484
7106.00   0.11923988
7108.00   0.11871581
7110.00   0.11664831
7112.00   0.11481617
7114.00   0.11472523
7116.00   0.11567065
7118.00   0.11536140
7120.00   0.11350548
7122.00   0.11363188
7124.00   0.11601394
7126.00   0.11775247
7128.00   0.11775252
7130.00   0.11677431
7132.00   0.11518645
7134.00   0.11125983
7136.00   0.11075474
7138.00   0.11283626
7140.00   0.11501346
7142.00   0.11735480
7144.00   0.11955329
7146.00   0.12029330
7148.00   0.12016775
7150.00   0.11884986
7152.00   0.11467797
7154.00   0.11294951
7156.00   0.11458044
7158.00   0.11663846
7160.00   0.11663258
7162.00   0.11572140
7164.00   0.11361428
7166.00   0.10797655
7168.00   0.10652026
7170.00   0.10975547
7172.00   0.11292569
7174.00   0.11352966
7176.00   0.11294528
7178.00   0.11158035
7180.00   0.10796870
7182.00   0.10651939
7184.00   0.10645834
7186.00   0.10668214
7188.00   0.10700764
7190.00   0.10751250
7192.00   0.10775577
7194.00   0.10743978
7196.00   0.10845229
7198.00   0.11180269
7200.00   0.11291138
7202.00   0.11032959
7204.00   0.10696105
7206.00   0.10637119
7208.00   0.10730247
7210.00   0.10824382
7212.00   0.11018382
7214.00   0.11157130
7216.00   0.11295638
7218.00   0.11352313
7220.00   0.11203735
7222.00   0.10887873
7224.00   0.10840385
7226.00   0.10996669
7228.00   0.11088288
7230.00   0.11262807
7232.00   0.11293688
7234.00   0.10966201
7236.00   0.10463265
7238.00   0.10444196
7240.00   0.10861835
7242.00   0.11061469
7244.00   0.11305135
7246.00   0.11402348
7248.00   0.11221648
7250.00   0.10960852
7252.00   0.11002278
7254.00   0.11258819
7256.00   0.11434157
7258.00   0.11710697
7260.00   0.11820058
7262.00   0.11677004
7264.00   0.11491919
7266.00   0.11484709
7268.00   0.11566278
7270.00   0.11671146
7272.00   0.11885864
7274.00   0.12006108
7276.00   0.12083635
7278.00   0.12074659
7280.00   0.11923783
7282.00   0.11659618
7284.00   0.11432709
7286.00   0.11048947
7288.00   0.10976252
7290.00   0.11237131
7292.00   0.11460958
7294.00   0.11502243
7296.00   0.11482521
7298.00   0.11558182
7300.00   0.11739245
7302.00   0.11766423
7304.00   0.11790743
7306.00   0.11604048
7308.00   0.10977680
7310.00   0.10328795
7312.00   0.10361734
7314.00   0.10914173
7316.00   0.11281649
7318.00   0.11950086
7320.00   0.12121426
7322.00   0.11585446
7324.00   0.10988947
7326.00   0.10896761
7328.00   0.11065149
7330.00   0.11237255
7332.00   0.11619429
7334.00   0.11826021
7336.00   0.11969615
7338.00   0.11961703
7340.00   0.11709287
7342.00   0.11278430
7344.00   0.10929979
7346.00   0.10384575
7348.00   0.10268606
7350.00   0.10523388
7352.00   0.10828452
7354.00   0.11179808
7356.00   0.11533478
7358.00   0.11606696
7360.00   0.11413316
7362.00   0.11362671
7364.00   0.11288019
7366.00   0.11309947
7368.00   0.11518424
7370.00   0.11724988
7372.00   0.11671157
7374.00   0.11418591
7376.00   0.11314629
7378.00   0.11181893
7380.00   0.11222568
7382.00   0.11572646
7384.00   0.11846824
7386.00   0.11710421
7388.00   0.11315101
7390.00   0.11176380
7392.00   0.11097655
7394.00   0.11144708
7396.00   0.11375771
7398.00   0.11599888
7400.00   0.11724721
7402.00   0.11821175
7404.00   0.12006428
7406.00   0.12393671
7408.00   0.12425863
7410.00   0.12123774
7412.00   0.11894678
7414.00   0.11780252
7416.00   0.11741898
7418.00   0.11857321
7420.00   0.12225570
7422.00   0.12193090
7424.00   0.11772509
7426.00   0.11537787
7428.00   0.11451261
7430.00   0.11499204
7432.00   0.11773435
7434.00   0.12288256
7436.00   0.12487308
7438.00   0.12580444
7440.00   0.12484526
7442.00   0.12037502
7444.00   0.11672167
7446.00   0.11702802
7448.00   0.11949902
7450.00   0.11939051
7452.00   0.11780860
7454.00   0.11661408
7456.00   0.11383960
7458.00   0.11344026
7460.00   0.11796181
7462.00   0.12448172
7464.00   0.12632628
7466.00   0.12540138
7468.00   0.12418258
7470.00   0.12108939
7472.00   0.11851345
7474.00   0.11626966
7476.00   0.11470176
7478.00   0.11503914
7480.00   0.11736902
7482.00   0.11800743
7484.00   0.11854995
7486.00   0.11771000
7488.00   0.11377289
7490.00   0.11098775
7492.00   0.11371566
7494.00   0.12032422
7496.00   0.12262955
7498.00   0.12281685
7500.00   0.12275192
7502.00   0.12223904
7504.00   0.12075579
7506.00   0.11701668
7508.00   0.11225498
7510.00   0.11284204
7512.00   0.11971372
7514.00   0.12191109
7516.00   0.12198367
7518.00   0.12177458
7520.00   0.12177522
7522.00   0.12141086
7524.00   0.12003587
7526.00   0.11759406
7528.00   0.11550106
7530.00   0.11281806
7532.00   0.11102565
7534.00   0.11041448
7536.00   0.11022486
7538.00   0.10968225
7540.00   0.10905100
7542.00   0.10893352
7544.00   0.10934778
7546.00   0.10962359
7548.00   0.11047776
7550.00   0.11045442
7552.00   0.10787452
7554.00   0.10356046
7556.00   0.10286488
7558.00   0.10571128
7560.00   0.10625693
7562.00   0.10550530
7564.00   0.10462023
7566.00   0.10406399
7568.00   0.10344671
7570.00   0.10215461
7572.00   0.09993486
7574.00   0.09858461
7576.00   0.09700461
7578.00   0.09678544
7580.00   0.09959968
7582.00   0.10245358
7584.00   0.10003286
7586.00   0.09303023
7588.00   0.08945673
7590.00   0.08679608
7592.00   0.08501720
7594.00   0.08335471
7596.00   0.08350354
7598.00   0.08810377
7600.00   0.09680846
7602.00   0.09886403
7604.00   0.08902556
#7606.00   0.09547384
#7608.00   0.08527257
#7610.00   0.12665963
#7612.00   0.28683987
#7614.00   0.51917738
#7616.00   0.61942351
#7618.00   0.68749166
#7620.00   0.63163280
#7622.00   0.39170653
#7624.00   0.20034590
#7626.00   0.12343260
#7628.00   0.09819844
#7630.00   0.07449458
#7632.00   0.08092581
7634.00   0.07804462
7636.00   0.07943143
7638.00   0.08066752
7640.00   0.08117564
7642.00   0.08231965
7644.00   0.08550625
7646.00   0.09070244
7648.00   0.09404013
7650.00   0.09848107
7652.00   0.09872054
7654.00   0.09271033
7656.00   0.08690146
7658.00   0.08662647
7660.00   0.08947268
7662.00   0.08926872
7664.00   0.08710622
7666.00   0.08628593
7668.00   0.08658328
7670.00   0.08662257
7672.00   0.08568602
7674.00   0.08434014
7676.00   0.08377907
7678.00   0.08394226
7680.00   0.08350679
7682.00   0.08294248
7684.00   0.08203413
7686.00   0.07944516
7688.00   0.07747471
7690.00   0.08124071
7692.00   0.09094964
7694.00   0.09557837
7696.00   0.09834218
7698.00   0.09990431
7700.00   0.09940763
7702.00   0.09858041
7704.00   0.09967642
7706.00   0.10204831
7708.00   0.10227446
7710.00   0.10103235
7712.00   0.09973674
7714.00   0.09797215
7716.00   0.09614561
7718.00   0.09451811
7720.00   0.09295282
7722.00   0.09162691
7724.00   0.08924078
7726.00   0.08990052
7728.00   0.09415434
7730.00   0.09767895
7732.00   0.09872378
7734.00   0.09893717
7736.00   0.10090824
7738.00   0.10519465
7740.00   0.10577144
7742.00   0.10350026
7744.00   0.10114311
7746.00   0.09916265
7748.00   0.09669625
7750.00   0.09219191
7752.00   0.08397114
7754.00   0.08587530
7756.00   0.10036115
7758.00   0.10648090
7760.00   0.10243168
7762.00   0.09768842
7764.00   0.09969421
7766.00   0.10530879
7768.00   0.10814700
7770.00   0.11172848
7772.00   0.11164103
7774.00   0.10688285
7776.00   0.10234036
7778.00   0.10047944
7780.00   0.09972713
7782.00   0.09826118
7784.00   0.09575914
7786.00   0.09552493
7788.00   0.09820173
7790.00   0.09938225
7792.00   0.09654780
7794.00   0.09318794
7796.00   0.09613135
7798.00   0.10469589
7800.00   0.10998615
7802.00   0.11742177
7804.00   0.11911996
7806.00   0.11244157
7808.00   0.10354233
7810.00   0.09868638
7812.00   0.09450872
7814.00   0.09599096
7816.00   0.10637580
7818.00   0.11049868
7820.00   0.10821396
7822.00   0.10541160
7824.00   0.10585727
7826.00   0.10767496
7828.00   0.10787017
7830.00   0.10808155
7832.00   0.10632008
7834.00   0.10169180
7836.00   0.09780929
7838.00   0.09552289
7840.00   0.09448708
7842.00   0.09666099
7844.00   0.10328097
7846.00   0.10712133
7848.00   0.11125085
7850.00   0.11310612
7852.00   0.11185817
7854.00   0.10885855
7856.00   0.10572854
7858.00   0.10112731
7860.00   0.09868530
7862.00   0.09834560
7864.00   0.09683679
7866.00   0.09333667
7868.00   0.09029138
7870.00   0.08992013
7872.00   0.09128717
7874.00   0.09344751
7876.00   0.09850914
7878.00   0.10076025
7880.00   0.10007908
7882.00   0.09946821
7884.00   0.10070810
7886.00   0.10273219
7888.00   0.10341506
7890.00   0.10377012
7892.00   0.10292397
7894.00   0.10027292
7896.00   0.09809823
7898.00   0.09665195
7900.00   0.09594761
7902.00   0.09722845
7904.00   0.09942923
7906.00   0.10499755
7908.00   0.11693092
7910.00   0.12435235
7912.00   0.12645748
7914.00   0.12521791
7916.00   0.12092850
7918.00   0.11200896
7920.00   0.10808098
7922.00   0.10736477
7924.00   0.10582390
7926.00   0.10313684
7928.00   0.10127618
7930.00   0.10189089
7932.00   0.10429626
7934.00   0.10556610
7936.00   0.10876216
7938.00   0.10717414
7940.00   0.09929482
7942.00   0.09288339
7944.00   0.09136332
7946.00   0.09243205
7948.00   0.09411085
7950.00   0.10080034
7952.00   0.09971159
7954.00   0.09094199
7956.00   0.08478205
7958.00   0.08303054
7960.00   0.08370334
7962.00   0.08642027
7964.00   0.09271973
7966.00   0.09593344
7968.00   0.09815457
7970.00   0.09932639
7972.00   0.09901475
7974.00   0.09814624
7976.00   0.09772026
7978.00   0.09723334
7980.00   0.09721897
7982.00   0.09674001
7984.00   0.09819524
7986.00   0.10244563
7988.00   0.10641995
7990.00   0.10869631
7992.00   0.11000422
7994.00   0.10752026
7996.00   0.09903512
7998.00   0.09511951
8000.00   0.09375205
8002.00   0.09308923
8004.00   0.09253076
8006.00   0.09257594
8008.00   0.09377011
8010.00   0.09682735
8012.00   0.09819326
8014.00   0.09931442
8016.00   0.09912053
8018.00   0.09735593
8020.00   0.09448199
8022.00   0.09052207
8024.00   0.08385958
8026.00   0.08380437
8028.00   0.08980533
8030.00   0.09454560
8032.00   0.09930835
8034.00   0.10300021
8036.00   0.10359206
8038.00   0.10169259
8040.00   0.10243458
8042.00   0.10464796
8044.00   0.10655864
8046.00   0.10978471
8048.00   0.11117315
8050.00   0.10839363
8052.00   0.10309191
8054.00   0.10020627
8056.00   0.09694812
8058.00   0.09675561
8060.00   0.10058453
8062.00   0.10311483
8064.00   0.10317788
8066.00   0.10186284
8068.00   0.09923176
8070.00   0.09322684
8072.00   0.09280765
8074.00   0.09865626
8076.00   0.10067692
8078.00   0.09647070
8080.00   0.09172514
8082.00   0.09268827
8084.00   0.09737886
8086.00   0.10045408
8088.00   0.10391495
8090.00   0.10692284
8092.00   0.11085623
8094.00   0.11275972
8096.00   0.10928547
8098.00   0.10191637
8100.00   0.10065424
8102.00   0.10592343
8104.00   0.10507634
8106.00   0.09971392
8108.00   0.09355458
8110.00   0.08662171
8112.00   0.07959321
8114.00   0.07875104
8116.00   0.08468325
8118.00   0.08683858
8120.00   0.08896937
8122.00   0.08938011
8124.00   0.08711141
8126.00   0.08376154
8128.00   0.08158394
8130.00   0.07834998
8132.00   0.08090069
8134.00   0.09047671
8136.00   0.09689672
8138.00   0.10057985
8140.00   0.10248446
8142.00   0.10244863
8144.00   0.10036217
8146.00   0.09821164
8148.00   0.09453183
8150.00   0.09188580
8152.00   0.08943079
8154.00   0.08806556
8156.00   0.08886304
8158.00   0.09113128
8160.00   0.09139329
8162.00   0.08916638
8164.00   0.09015325
8166.00   0.09438097
8168.00   0.09762730
8170.00   0.09847107
8172.00   0.09826864
8174.00   0.09854104
8176.00   0.09810139
8178.00   0.09942975
8180.00   0.10316673
8182.00   0.10527200
8184.00   0.10652436
8186.00   0.10549262
8188.00   0.09849497
8190.00   0.08501390
8192.00   0.07826875
8194.00   0.07374596
8196.00   0.07230764
8198.00   0.07565849
8200.00   0.07963651
8202.00   0.08082402
8204.00   0.08083008
8206.00   0.08063556
8208.00   0.07889512
8210.00   0.07888906
8212.00   0.08140232
8214.00   0.08257233
8216.00   0.07999152
8218.00   0.07551757
8220.00   0.07386943
8222.00   0.07234633
8224.00   0.07434341
8226.00   0.08091006
8228.00   0.08634482
8230.00   0.08986480
8232.00   0.09212688
8234.00   0.09230171
8236.00   0.08974490
8238.00   0.08902766
8240.00   0.08928444
8242.00   0.08887556
8244.00   0.08746580
8246.00   0.08596207
8248.00   0.08538371
8250.00   0.08551992
8252.00   0.08431754
8254.00   0.08273461
8256.00   0.07987214
8258.00   0.07461863
8260.00   0.07000495
8262.00   0.06821920
8264.00   0.06811693
8266.00   0.06745647
8268.00   0.06849821
8270.00   0.06635147
8272.00   0.06002859
8274.00   0.05541981
8276.00   0.05521178
8278.00   0.05694599
8280.00   0.05633691
8282.00   0.05474193
8284.00   0.05309267
8286.00   0.05081791
8288.00   0.04874732
8290.00   0.04725967
8292.00   0.04567491
8294.00   0.04270053
8296.00   0.03771600
8298.00   0.03720938
8300.00   0.04096221
8302.00   0.04340388
8304.00   0.04499470
8306.00   0.04599077
8308.00   0.04615953
8310.00   0.04558236
8312.00   0.04463039
8314.00   0.04243712
8316.00   0.04138042
8318.00   0.04231271
8320.00   0.04189654
8322.00   0.03767161
8324.00   0.03133347
8326.00   0.02834774
8328.00   0.02619187
8330.00   0.02678934
8332.00   0.03199729
8334.00   0.03525728
8336.00   0.03404193
8338.00   0.03131149
8340.00   0.03158561
8342.00   0.03278883
8344.00   0.03634376
8346.00   0.04524950
8348.00   0.04944998
8350.00   0.04757160
8352.00   0.04305048
8354.00   0.03844795
8356.00   0.03172599
8358.00   0.02962190
8360.00   0.03291487
8362.00   0.03243325
8364.00   0.02726076
8366.00   0.02264129
8368.00   0.02206003
8370.00   0.02380009
8372.00   0.02695869
8374.00   0.03555483
8376.00   0.03747166
8378.00   0.03342522
8380.00   0.02895630
8382.00   0.02470922
8384.00   0.02098948
8386.00   0.02476884
8388.00   0.03815969
8390.00   0.04441543
8392.00   0.04827622
8394.00   0.05044341
8396.00   0.05046575
8398.00   0.04919782
8400.00   0.04869322
8402.00   0.04883830
8404.00   0.04604014
8406.00   0.03851775
8408.00   0.03497871
8410.00   0.03647470
8412.00   0.03925931
8414.00   0.04028687
8416.00   0.04096470
8418.00   0.04097830
8420.00   0.04166833
8422.00   0.03911773
8424.00   0.03129414
8426.00   0.02491931
8428.00   0.02400158
8430.00   0.02632049
8432.00   0.02982270
8434.00   0.03762396
8436.00   0.04175549
8438.00   0.04437271
8440.00   0.04537955
8442.00   0.04398534
8444.00   0.04130181
8446.00   0.04065022
8448.00   0.04078690
8450.00   0.04165026
8452.00   0.04444604
8454.00   0.04574833
8456.00   0.04382421
8458.00   0.04205886
8460.00   0.04584314
8462.00   0.05538686
8464.00   0.05540782
8466.00   0.04666658
8468.00   0.04178987
8470.00   0.04030311
8472.00   0.03979353
8474.00   0.03907070
8476.00   0.03871643
8478.00   0.03854232
8480.00   0.03951251
8482.00   0.03871782
8484.00   0.03590510
8486.00   0.03332349
8488.00   0.03153007
8490.00   0.03035754
8492.00   0.03202811
8494.00   0.03998753
8496.00   0.03983045
8498.00   0.03173496
8500.00   0.02695734
8502.00   0.02819702
8504.00   0.03238719
8506.00   0.03726057
8508.00   0.04590301
8510.00   0.04819011
8512.00   0.04501483
8514.00   0.04300307
8516.00   0.04157114
8518.00   0.04120116
8520.00   0.04399588
8522.00   0.05010698
8524.00   0.05072218
8526.00   0.04581589
8528.00   0.04446768
8530.00   0.04619035
8532.00   0.04865780
8534.00   0.05080723
8536.00   0.05319254
8538.00   0.05494212
8540.00   0.05687376
8542.00   0.05728845
8544.00   0.05517344
8546.00   0.05431412
8548.00   0.05700362
8550.00   0.06098691
8552.00   0.06083664
8554.00   0.05622444
8556.00   0.05597012
8558.00   0.05894281
8560.00   0.06082429
8562.00   0.06084993
8564.00   0.06024157
8566.00   0.05985928
8568.00   0.05862172
8570.00   0.06053967
8572.00   0.06671447
8574.00   0.06998022
8576.00   0.06987949
8578.00   0.06897254
8580.00   0.06921379
8582.00   0.06978858
8584.00   0.06954639
8586.00   0.06783310
8588.00   0.06796478
8590.00   0.06975696
8592.00   0.07203934
8594.00   0.07426207
8596.00   0.07674374
8598.00   0.07965563
8600.00   0.08432141
8602.00   0.08609496
8604.00   0.08623280
8606.00   0.08484008
8608.00   0.08042793
8610.00   0.07531246
8612.00   0.07604771
8614.00   0.08237244
8616.00   0.08468591
8618.00   0.08551109
8620.00   0.08606110
8622.00   0.08573434
8624.00   0.08567006
8626.00   0.08795440
8628.00   0.09239472
8630.00   0.09416591
8632.00   0.09434687
8634.00   0.09441055
8636.00   0.09304807
8638.00   0.09283130
8640.00   0.09606142
8642.00   0.10168331
8644.00   0.10717059
8646.00   0.11582047
8648.00   0.11970162
8650.00   0.11902467
8652.00   0.11798168
8654.00   0.11869060
8656.00   0.11949474
8658.00   0.11716867
8660.00   0.11091042
8662.00   0.10772928
8664.00   0.10394383
8666.00   0.10403012
8668.00   0.11102327
8670.00   0.12004349
8672.00   0.12223838
8674.00   0.11942527
8676.00   0.12008859
8678.00   0.12252475
8680.00   0.12391124
8682.00   0.12267248
8684.00   0.12261979
8686.00   0.12871146
8688.00   0.14010440
8690.00   0.14347616
8692.00   0.14041336
8694.00   0.13976389
8696.00   0.14098625
8698.00   0.14158438
8700.00   0.13974288
8702.00   0.13650611
8704.00   0.13625062
8706.00   0.13784850
8708.00   0.13995424
8710.00   0.14381218
8712.00   0.14703761
8714.00   0.14932328
8716.00   0.15064628
8718.00   0.14913972
8720.00   0.14295149
8722.00   0.14218192
8724.00   0.14501491
8726.00   0.14787626
8728.00   0.15027489
8730.00   0.15314080
8732.00   0.15780763
8734.00   0.16554502
8736.00   0.16537140
8738.00   0.15597615
8740.00   0.15205397
8742.00   0.15399803
8744.00   0.15705675
8746.00   0.15830712
8748.00   0.15923755
8750.00   0.15822849
8752.00   0.15477993
8754.00   0.15226190
8756.00   0.14772797
8758.00   0.14683378
8760.00   0.15419690
8762.00   0.16626389
8764.00   0.17106324
8766.00   0.17222151
8768.00   0.17204812
8770.00   0.16683170
8772.00   0.16494974
8774.00   0.17070892
8776.00   0.17819627
8778.00   0.17609179
8780.00   0.16379182
8782.00   0.16401480
8784.00   0.17484057
8786.00   0.18125299
8788.00   0.18132302
8790.00   0.18048771
8792.00   0.18429774
8794.00   0.19181097
8796.00   0.19141974
8798.00   0.18303448
8800.00   0.17872378
8802.00   0.17695916
8804.00   0.17690240
8806.00   0.17943740
8808.00   0.18420288
8810.00   0.18365037
8812.00   0.17697920
8814.00   0.17538236
8816.00   0.17762159
8818.00   0.17975524
8820.00   0.18138610
8822.00   0.18226266
8824.00   0.17779979
8826.00   0.16229363
8828.00   0.16314986
8830.00   0.18071607
8832.00   0.19073202
8834.00   0.18762223
8836.00   0.18020308
8838.00   0.17771217
8840.00   0.17517363
8842.00   0.17915243
8844.00   0.19323370
8846.00   0.20035936
8848.00   0.19940284
8850.00   0.19628711
8852.00   0.19509609
8854.00   0.19373757
8856.00   0.19473146
8858.00   0.19666296
8860.00   0.20136987
8862.00   0.21139616
8864.00   0.21955490
8866.00   0.22176458
8868.00   0.22039099
8870.00   0.21771108
8872.00   0.20780921
8874.00   0.20778714
8876.00   0.21859810
8878.00   0.22490968
8880.00   0.22129826
8882.00   0.21341047
8884.00   0.20880750
8886.00   0.20373216
8888.00   0.20178054
8890.00   0.20496872
8892.00   0.20424004
8894.00   0.19703004
8896.00   0.18877862
8898.00   0.18543328
8900.00   0.18399312
8902.00   0.18766631
8904.00   0.20003387
8906.00   0.20686691
8908.00   0.20962945
8910.00   0.20933850
8912.00   0.20500031
8914.00   0.19675443
8916.00   0.19344631
8918.00   0.19218315
8920.00   0.19257842
8922.00   0.19592702
8924.00   0.19912015
8926.00   0.20130225
8928.00   0.20280777
8930.00   0.20141500
8932.00   0.19424708
8934.00   0.19417222
8936.00   0.20135449
8938.00   0.20468625
8940.00   0.19971476
8942.00   0.19295697
8944.00   0.19465771
8946.00   0.20230593
8948.00   0.20836799
8950.00   0.21597597
8952.00   0.22278610
8954.00   0.23159824
8956.00   0.23680425
8958.00   0.23048702
8960.00   0.21433572
8962.00   0.20518535
8964.00   0.19744053
8966.00   0.19131187
8968.00   0.18672441
8970.00   0.18377185
8972.00   0.18261172
8974.00   0.18315388
8976.00   0.18471518
8978.00   0.19012436
8980.00   0.19080125
8982.00   0.18664128
8984.00   0.18382287
8986.00   0.18435758
8988.00   0.18663029
8990.00   0.18987212
8992.00   0.20004906
8994.00   0.19508158
8996.00   0.17043608
8998.00   0.15823224
9000.00   0.16546659
9002.00   0.17937982
9004.00   0.18682730
9006.00   0.19493572
9008.00   0.19379951
9010.00   0.17956899
9012.00   0.17356454
9014.00   0.17693593
9016.00   0.18179297
9018.00   0.18253924
9020.00   0.18173037
9022.00   0.18069775
9024.00   0.17584909
9026.00   0.17729355
9028.00   0.18746181
9030.00   0.19492593
9032.00   0.19330126
9034.00   0.18676898
9036.00   0.18271758
9038.00   0.17755763
9040.00   0.17445971
9042.00   0.16954665
9044.00   0.17096291
9046.00   0.18583319
9048.00   0.20385954
9050.00   0.20220663
9052.00   0.18249676
9054.00   0.17690991
9056.00   0.17886166
9058.00   0.17858183
9060.00   0.17558113
9062.00   0.17167799
9064.00   0.16764931
9066.00   0.16289902
9068.00   0.15938997
9070.00   0.15615454
9072.00   0.15422317
9074.00   0.15416470
9076.00   0.15426777
9078.00   0.15324759
9080.00   0.15173428
9082.00   0.15082811
9084.00   0.14964855
9086.00   0.14984043
9088.00   0.15179950
9090.00   0.15345646
9092.00   0.15346169
9094.00   0.15308219
9096.00   0.15571760
9098.00   0.16383938
9100.00   0.16384435
9102.00   0.15604560
9104.00   0.15104368
9106.00   0.15054825
9108.00   0.15218934
9110.00   0.15506296
9112.00   0.16186282
9114.00   0.16042276
9116.00   0.15040842
9118.00   0.14432226
9120.00   0.14183192
9122.00   0.14130609
9124.00   0.14293438
9126.00   0.14731447
9128.00   0.14689550
9130.00   0.14168593
9132.00   0.13961717
9134.00   0.13955913
9136.00   0.14062071
9138.00   0.14317538
9140.00   0.14687547
9142.00   0.14728993
9144.00   0.14425863
9146.00   0.14354193
9148.00   0.14224313
9150.00   0.14396571
9152.00   0.15195547
9154.00   0.16202283
9156.00   0.16386317
9158.00   0.15982610
9160.00   0.15639426
9162.00   0.14879286
9164.00   0.14513956
9166.00   0.14754313
9168.00   0.15164958
9170.00   0.15267596
9172.00   0.15290342
9174.00   0.15061276
9176.00   0.14466740
9178.00   0.14025930
9180.00   0.13689859
9182.00   0.13417700
9184.00   0.13198751
9186.00   0.13034819
9188.00   0.13000597
9190.00   0.13071562
9192.00   0.13245021
9194.00   0.13706318
9196.00   0.13981940
9198.00   0.13758056
9200.00   0.13283426
9202.00   0.13221832
9204.00   0.13302118
9206.00   0.13628092
9208.00   0.14502285
9210.00   0.14998023
9212.00   0.14755720
9214.00   0.14280418
9216.00   0.14365590
9218.00   0.14843656
9220.00   0.15023163
9222.00   0.15201795
9224.00   0.15133120
9226.00   0.14710942
9228.00   0.14190511
9230.00   0.13835210
9232.00   0.13525653
9234.00   0.13286634
9236.00   0.13031399
9238.00   0.13007016
9240.00   0.13278414
9242.00   0.13589521
9244.00   0.13813849
9246.00   0.14017083
9248.00   0.14008929
9250.00   0.13940832
9252.00   0.13531150
9254.00   0.12530772
9256.00   0.11790290
9258.00   0.11652356
9260.00   0.11819895
9262.00   0.11900705
9264.00   0.12214509
9266.00   0.12098944
9268.00   0.11432056
9270.00   0.11132620
9272.00   0.11425979
9274.00   0.11915384
9276.00   0.12158944
9278.00   0.12375169
9280.00   0.12354307
9282.00   0.11974664
9284.00   0.11807954
9286.00   0.11823644
9288.00   0.11955631
9290.00   0.12232593
9292.00   0.12674046
9294.00   0.12818451
9296.00   0.12361859
9298.00   0.12774378
9300.00   0.14527163
9302.00   0.15687673
9304.00   0.14984842
9306.00   0.13273893
9308.00   0.12814012
9310.00   0.13354594
9312.00   0.13021453
9314.00   0.11964104
9316.00   0.11228587
9318.00   0.11456870
9320.00   0.11790539
9322.00   0.10371678
9324.00   0.06776171
9326.00   0.05979961
9328.00   0.07243793
9330.00   0.08255737
9332.00   0.09128140
9334.00   0.09796359
9336.00   0.09702191
9338.00   0.08846866
9340.00   0.08966558
9342.00   0.09936258
9344.00   0.10400210
9346.00   0.10752039
9348.00   0.10531621
9350.00   0.08846574
9352.00   0.06042262
9354.00   0.06245777
9356.00   0.09768382
9358.00   0.10964289
9360.00   0.10772543
9362.00   0.10224497
9364.00   0.09393437
9366.00   0.08374240
9368.00   0.08517018
9370.00   0.10279441
9372.00   0.10225795
9374.00   0.08351163
9376.00   0.07552959
9378.00   0.08897296
9380.00   0.10716406
9382.00   0.10498270
9384.00   0.08646767
9386.00   0.08250052
9388.00   0.08652269
9390.00   0.08919199
9392.00   0.09048551
9394.00   0.09208392
9396.00   0.09500081
9398.00   0.09897626
9400.00   0.10193910
9402.00   0.10565238
9404.00   0.10669799
9406.00   0.10417736
9408.00   0.10183366
9410.00   0.10331007
9412.00   0.10633842
9414.00   0.09966654
9416.00   0.07908020
9418.00   0.07181107
9420.00   0.07297952
9422.00   0.07613013
9424.00   0.08141348
9426.00   0.08748151
9428.00   0.08628046
9430.00   0.07883628
9432.00   0.07335033
9434.00   0.06532627
9436.00   0.06055596
9438.00   0.05716112
9440.00   0.05870553
9442.00   0.07370130
9444.00   0.10394970
9446.00   0.11579978
9448.00   0.11692629
9450.00   0.11678391
9452.00   0.11144254
9454.00   0.10721841
9456.00   0.11187503
9458.00   0.12261458
9460.00   0.12115072
9462.00   0.10731258
9464.00   0.10166075
9466.00   0.10086513
9468.00   0.10198365
9470.00   0.10579553
9472.00   0.11104146
9474.00   0.10757052
9476.00   0.09422555
9478.00   0.08744461
9480.00   0.08021674
9482.00   0.07852559
9484.00   0.08700306
9486.00   0.09864479
9488.00   0.09952851
9490.00   0.09305895
9492.00   0.08884198
9494.00   0.07979012
9496.00   0.07807964
9498.00   0.08758613
9500.00   0.09881803
9502.00   0.10148945
9504.00   0.09930214
9506.00   0.09908141
9508.00   0.10038194
9510.00   0.09761550
9512.00   0.08787864
9514.00   0.08030252
9516.00   0.08075398
9518.00   0.08619522
9520.00   0.09538746
9522.00   0.11709799
9524.00   0.12384323
9526.00   0.11637028
9528.00   0.11086694
9530.00   0.11315436
9532.00   0.11867893
9534.00   0.12362018
9536.00   0.13361350
9538.00   0.13276504
9540.00   0.11982172
9542.00   0.11195731
9544.00   0.11262586
9546.00   0.11611003
9548.00   0.11762222
9550.00   0.12237635
9552.00   0.11232719
9554.00   0.08196263
9556.00   0.06525941
9558.00   0.06253038
9560.00   0.06557465
9562.00   0.07061495
9564.00   0.08037039
9566.00   0.08235721
9568.00   0.07738117
9570.00   0.07619605
9572.00   0.07525051
9574.00   0.07807460
9576.00   0.09032656
9578.00   0.10767363
9580.00   0.10674728
9582.00   0.08443049
9584.00   0.07913685
9586.00   0.08404194
9588.00   0.08842520
9590.00   0.08926751
9592.00   0.08958428
9594.00   0.09252426
9596.00   0.09987361
9598.00   0.09881181
9600.00   0.08693427
9602.00   0.08273707
9604.00   0.09095415
9606.00   0.10102526
9608.00   0.10102560
9610.00   0.09491546
9612.00   0.09065831
9614.00   0.08219054
9616.00   0.08033413
9618.00   0.08863873
9620.00   0.09526397
9622.00   0.09010456
9624.00   0.07769035
9626.00   0.07376271
9628.00   0.07322226
9630.00   0.07514542
9632.00   0.08389647
9634.00   0.08872381
9636.00   0.08255401
9638.00   0.07151362
9640.00   0.07176080
9642.00   0.08389629
9644.00   0.08475461
9646.00   0.07481067
9648.00   0.07205974
9650.00   0.08389021
9652.00   0.09895059
9654.00   0.09916480
9656.00   0.08731869
9658.00   0.08554842
9660.00   0.08695303
9662.00   0.09148951
9664.00   0.10324342
9666.00   0.11345674
9668.00   0.11145653
9670.00   0.10053736
9672.00   0.09549635
9674.00   0.08822156
9676.00   0.08893704
9678.00   0.10236016
9680.00   0.11251853
9682.00   0.10823417
9684.00   0.09581061
9686.00   0.09075899
9688.00   0.08776743
9690.00   0.08640999
9692.00   0.08792507
9694.00   0.08929647
9696.00   0.08955911
9698.00   0.08952285
9700.00   0.08962861
9702.00   0.08759442
9704.00   0.09182271
9706.00   0.10756740
9708.00   0.11236391
9710.00   0.09959521
9712.00   0.08200753
9714.00   0.07569741
9716.00   0.07630095
9718.00   0.06958131
9720.00   0.05023599
9722.00   0.04837085
9724.00   0.06987871
9726.00   0.09332888
9728.00   0.10312574
9730.00   0.10706268
9732.00   0.09913810
9734.00   0.06594568
9736.00   0.05725645
9738.00   0.06932886
9740.00   0.08465903
9742.00   0.10005527
9744.00   0.11580499
9746.00   0.10916115
9748.00   0.07188787
9750.00   0.05962148
9752.00   0.06052494
9754.00   0.06236709
9756.00   0.06237063
9758.00   0.06349573
9760.00   0.06840853
9762.00   0.08069739
9764.00   0.07928296
9766.00   0.06213405
9768.00   0.05447022
9770.00   0.05881145
9772.00   0.06737748
9774.00   0.07457444
9776.00   0.08383129
9778.00   0.08727364
9780.00   0.08595075
9782.00   0.08459626
9784.00   0.07806453
9786.00   0.07683429
9788.00   0.09324737
9790.00   0.12136488
9792.00   0.12089594
9794.00   0.09617048
9796.00   0.07874510
9798.00   0.05318874
9800.00   0.03965248
9802.00   0.05004815
9804.00   0.07321721
9806.00   0.08430002
9808.00   0.09451710
9810.00   0.09646338
9812.00   0.08729763
9814.00   0.08138445
9816.00   0.08074277
9818.00   0.08241342
9820.00   0.08563852
9822.00   0.09377863
9824.00   0.09034853
9826.00   0.07169387
9828.00   0.06454952
9830.00   0.07124873
9832.00   0.08112036
9834.00   0.08715795
9836.00   0.09353237
9838.00   0.08891122
9840.00   0.06771057
9842.00   0.05977457
9844.00   0.06199784
9846.00   0.06769397
9848.00   0.07495007
9850.00   0.08460104
9852.00   0.09087674
9854.00   0.09665160
9856.00   0.09915450
9858.00   0.09807270
9860.00   0.09633362
9862.00   0.09579717
9864.00   0.09410800
9866.00   0.08573662
9868.00   0.06763082
9870.00   0.06151651
9872.00   0.05940527
9874.00   0.06522475
9876.00   0.08656687
9878.00   0.10816842
9880.00   0.10739628
9882.00   0.08960930
9884.00   0.08360542
9886.00   0.08094892
9888.00   0.07908106
9890.00   0.08000322
9892.00   0.07987771
9894.00   0.07417999
9896.00   0.06466658
9898.00   0.06395911
9900.00   0.07074679
9902.00   0.07529914
9904.00   0.07917847
9906.00   0.08408040
9908.00   0.09237190
9910.00   0.10163449
9912.00   0.10181931
9914.00   0.08964515
9916.00   0.08947616
9918.00   0.09944702
9920.00   0.10456434
9922.00   0.10010861
9924.00   0.09274996
9926.00   0.09164979
9928.00   0.09468019
9930.00   0.09444909
9932.00   0.09065863
9934.00   0.09106630
9936.00   0.10027418
9938.00   0.10734653
9940.00   0.09839341
9942.00   0.07619291
9944.00   0.07267302
9946.00   0.08664062
9948.00   0.08876219
9950.00   0.08613969
9952.00   0.07391538
9954.00   0.03901718
9956.00   -0.01080000
9958.00   -0.00885621
9960.00   0.05042140
9962.00   0.07128870
9964.00   0.07969601
9966.00   0.07270850
9968.00   0.03649344
9970.00   -0.01040677
9972.00   -0.00828954
9974.00   0.03822030
9976.00   0.05932834
9978.00   0.08167312
9980.00   0.08936264
9982.00   0.07254007
9984.00   0.04976319
9986.00   0.04758734
9988.00   0.05521869
9990.00   0.07144909
9992.00   0.11767757
9994.00   0.12979832
9996.00   0.09370285
9998.00   0.05745352
10000.00   0.06553611
10002.00   0.10113912
10004.00   0.09718551
10006.00   0.06614228
10008.00   0.04047351
10010.00   0.00042301
10012.00   -0.02126170
10014.00   -0.00005099
10016.00   0.04625149
10018.00   0.06423867
10020.00   0.06586411
10022.00   0.07552940
10024.00   0.09483796
10026.00   0.10000470
10028.00   0.07939849
10030.00   0.04850601
10032.00   0.03475188
10034.00   0.02675594
10036.00   0.02764009
10038.00   0.04048713
10040.00   0.05339433
10042.00   0.06904055
10044.00   0.08298393
10046.00   0.08669103
10048.00   0.08164502
10050.00   0.08483709
10052.00   0.10013345
10054.00   0.09828985
10056.00   0.06864342
10058.00   0.04700878
10060.00   0.06407718
10062.00   0.10519687
10064.00   0.11238261
10066.00   0.10051020
10068.00   0.08631437
10070.00   0.05797936
10072.00   0.03583448
10074.00   0.02520103
10076.00   0.02364422
10078.00   0.04136484
10080.00   0.09464426
10082.00   0.10993168
10084.00   0.10182273
10086.00   0.09126774
10088.00   0.07591703
10090.00   0.06132329
10092.00   0.06544655
10094.00   0.08838258
10096.00   0.09134832
10098.00   0.07717720
10100.00   0.07405311
10102.00   0.07869571
10104.00   0.09282574
10106.00   0.12506515
10108.00   0.17570303
10110.00   0.19696930
10112.00   0.20979103
10114.00   0.19803888
10116.00   0.14351790
10118.00   0.09875756
10120.00   0.09694272
10122.00   0.11847869
10124.00   0.12761241
10126.00   0.15077811
10128.00   0.14187558
10130.00   0.09098701
10132.00   0.05889569
10134.00   0.07185019
10136.00   0.10102981
10138.00   0.09607807
10140.00   0.06348091
10142.00   0.05585036
10144.00   0.06666154
10146.00   0.06830481
10148.00   0.05887979
10150.00   0.04299260
10152.00   0.01857122
10154.00   -0.02277304
10156.00   -0.02041516
10158.00   0.02915750
10160.00   0.05523167
10162.00   0.06573714
10164.00   0.06364523
10166.00   0.03902687
10168.00   -0.00647752
10170.00   0.00100111
10172.00   0.06652746
10174.00   0.09222738
10176.00   0.10173060
10178.00   0.09062369
10180.00   0.03197318
10182.00   -0.04591514
10184.00   -0.00796435
10186.00   0.18290472
10188.00   0.22833057
10190.00   0.18817233
10192.00   0.14171793
10194.00   0.08243058
10196.00   0.03012957
10198.00   0.06546444
10200.00   0.20965323
10202.00   0.20902327
10204.00   0.07962452
10206.00   0.00815091
10208.00   -0.00263267
10210.00   0.01651219
10212.00   0.06229679
10214.00   0.15029702
10216.00   0.15529065
10218.00   0.07932352
10220.00   0.04504789
10222.00   0.04712834
10224.00   0.04838209
10226.00   0.02578254
10228.00   -0.00839023
10230.00   -0.02355196
10232.00   -0.03361976
10234.00   -0.02780252
10236.00   -0.00050305
10238.00   0.02608580
10240.00   0.04947161
10242.00   0.06870084
10244.00   0.06271676
10246.00   0.01657884
10248.00   0.01821509
10250.00   0.04508553
10252.00   0.08580606
10254.00   0.15955837
10256.00   0.23003554
10258.00   0.22706968
10260.00   0.15641510
10262.00   0.15104295
10264.00   0.19691330
10266.00   0.20847890
10268.00   0.17983767
10270.00   0.14470811
10272.00   0.12454505
10274.00   0.10743541
10276.00   0.11983659
10278.00   0.16491571
10280.00   0.20404413
10282.00   0.26231438
10284.00   0.29653591
10286.00   0.28387845
10288.00   0.23804310
10290.00   0.16775350
10292.00   0.00487614
10294.00   -0.03154607
10296.00   0.03861209
10298.00   0.09873527
10300.00   0.13118902
10302.00   0.14671868
10304.00   0.11442181
10306.00   0.00862576
10308.00   -0.00572807
10310.00   0.04044398
10312.00   0.08910096
10314.00   0.15103221
10316.00   0.20866886
10318.00   0.22587444
10320.00   0.20947307
10322.00   0.22392234
10324.00   0.26522815
10326.00   0.28093490
10328.00   0.26423350
10330.00   0.24937068
10332.00   0.26938459
10334.00   0.30970395
10336.00   0.27946618
10338.00   0.16395110
10340.00   0.11342062
10342.00   0.09747245
10344.00   0.10215062
10346.00   0.13891101
10348.00   0.19156675
10350.00   0.17996569
10352.00   0.09997385
10354.00   0.07334073
10356.00   0.07620116
10358.00   0.07341231
10360.00   0.05429148
10362.00   0.03529693
10364.00   0.04038412
10366.00   0.07157298
10368.00   0.06888168
10370.00   -0.00032237
10372.00   0.01844158
10374.00   0.18872772
10376.00   0.34503508
10378.00   0.31230253
10380.00   0.14948778
10382.00   0.07466323
10384.00   -0.00729498
10386.00   -0.02357313
10388.00   0.05996204
10390.00   0.12627602
10392.00   0.09143508
10394.00   0.00526328
10396.00   0.01021408
10398.00   0.12015942
10400.00   0.12149090
10402.00   0.00476540
10404.00   -0.05002921
10406.00   0.03071575
10408.00   0.17090634
10410.00   0.25176427
10412.00   0.35771835
10414.00   0.32934701
10416.00   0.13362308
10418.00   0.00631791
10420.00   -0.03858750
10422.00   -0.03271426
10424.00   0.02995053
10426.00   0.16860157
10428.00   0.24558412
10430.00   0.31045189
10432.00   0.34628224
10434.00   0.35167688
10436.00   0.33468583
10438.00   0.29902989
10440.00   0.24208733
10442.00   0.18053775
10444.00   0.07697620
10446.00   0.03417722
10448.00   0.06004974
10450.00   0.07672510
10452.00   0.04233601
10454.00   -0.01299997
10456.00   -0.03076525
10458.00   -0.03162000
10460.00   -0.01740006
10462.00   0.01514123
10464.00   0.05850148
10466.00   0.13006645
10468.00   0.19973990
10470.00   0.19421057
10472.00   0.12424181
10474.00   0.07450558
10476.00   -0.00435468
10478.00   -0.04384423
10480.00   -0.03809648
10482.00   -0.00760652
10484.00   0.03501813
10486.00   0.09997986
10488.00   0.14792790
10490.00   0.22586219
10492.00   0.22670713
10494.00   0.11717380
10496.00   0.01937702
10498.00   0.02241196
10500.00   0.08003277
10502.00   0.08014926
10504.00   0.01723506
10506.00   0.03791548
10508.00   0.16971552
10510.00   0.24225932
10512.00   0.16121058
10514.00   0.01906852
10516.00   0.02115788
10518.00   0.15200680
10520.00   0.17952430
10522.00   0.14743076
10524.00   0.13016228
10526.00   0.13996549
10528.00   0.15669976
10530.00   0.16776246
10532.00   0.19217658
10534.00   0.15243050
10536.00   0.00387721
10538.00   -0.04372127
10540.00   0.03493873
10542.00   0.13625497
10544.00   0.18700877
10546.00   0.22650553
10548.00   0.18576817
10550.00   0.01813718
10552.00   -0.05324446
10554.00   -0.04593922
10556.00   -0.02785458
10558.00   -0.03356964
10560.00   -0.04162842
10562.00   -0.01764598
10564.00   0.05336738
10566.00   0.07982340
10568.00   0.07302775
10570.00   0.07245094
10572.00   0.08842039
10574.00   0.11091681
10576.00   0.13406108
10578.00   0.17251271
10580.00   0.17297645
10582.00   0.14240846
10584.00   0.10825373
10586.00   0.05953859
10588.00   0.01665900
10590.00   0.01497229
10592.00   0.04670263
10594.00   0.05956053
10596.00   0.07816362
10598.00   0.07854040
10600.00   0.04588890
10602.00   0.02282516
10604.00   0.05326604
10606.00   0.11867819
10608.00   0.10294547
10610.00   -0.00707122
10612.00   -0.03875494
10614.00   -0.01737953
10616.00   0.01791288
10618.00   0.06243703
10620.00   0.11464089
10622.00   0.12975575
10624.00   0.09975501
10626.00   0.11190485
10628.00   0.15955451
10630.00   0.18842116
10632.00   0.18726897
10634.00   0.17127323
10636.00   0.15208495
10638.00   0.11720382
10640.00   0.10601365
10642.00   0.12224232
10644.00   0.11785245
10646.00   0.07075348
10648.00   0.03642380
10650.00   0.07991559
10652.00   0.18467009
10654.00   0.22275658
10656.00   0.23706138
10658.00   0.22546978
10660.00   0.16914020
10662.00   0.11508064
10664.00   0.09221471
10666.00   0.08462577
10668.00   0.07844058
10670.00   0.07658222
10672.00   0.08553116
10674.00   0.11826091
10676.00   0.13537253
10678.00   0.11746804
10680.00   0.08516135
10682.00   0.07873181
10684.00   0.09355544
10686.00   0.08719087
10688.00   0.05934198
10690.00   0.04798149
10692.00   0.06160206
10694.00   0.08360393
10696.00   0.09555481
10698.00   0.10385092
10700.00   0.11646058
10702.00   0.13216782
10704.00   0.14691016
10706.00   0.16569853
10708.00   0.17824143
10710.00   0.17313641
10712.00   0.15454505
10714.00   0.14592345
10716.00   0.14079951
10718.00   0.13449627
10720.00   0.12631829
10722.00   0.12059395
10724.00   0.11802967
10726.00   0.11868968
10728.00   0.12921901
10730.00   0.16854246
10732.00   0.16441508
10734.00   0.11739426
10736.00   0.08457643
10738.00   0.07383387
10740.00   0.07950513
10742.00   0.11520410
10744.00   0.20088632
10746.00   0.22065099
10748.00   0.19806980
10750.00   0.16939305
10752.00   0.12356655
10754.00   0.07967307
10756.00   0.06787096
10758.00   0.07860798
10760.00   0.08235914
10762.00   0.08717838
10764.00   0.09797369
10766.00   0.12625486
10768.00   0.14268680
10770.00   0.11829590
10772.00   0.06743084
10774.00   0.06592181
10776.00   0.10809306
10778.00   0.12626325
10780.00   0.13500138
10782.00   0.14006738
10784.00   0.13975599
10786.00   0.13719107
10788.00   0.14861029
10790.00   0.18240187
10792.00   0.18463503
10794.00   0.16139600
10796.00   0.14138278
10798.00   0.12901606
10800.00   0.11752551
10802.00   0.10038587
10804.00   0.07310177
10806.00   0.07465263
10808.00   0.11069906
10810.00   0.12694041
10812.00   0.11996299
10814.00   0.10880530
10816.00   0.10716788
10818.00   0.10869697
10820.00   0.11362994
10822.00   0.13584994
10824.00   0.13078310
10826.00   0.09214531
10828.00   0.05730096
10830.00   0.04667930
10832.00   0.04815058
10834.00   0.04727641
10836.00   0.04923172
10838.00   0.05386345
10840.00   0.05495286
