# File created by shivutils (I.Shivvers)
# wl(A)   flm    er(optional)
3438.00   0.75988099   0.07783416
3440.00   0.75701360   0.07880215
3442.00   0.54963325   0.07795871
3444.00   0.82926430   0.08074599
3446.00   0.71015453   0.08280045
3448.00   0.85863008   0.08719706
3450.00   0.76854536   0.08825990
3452.00   0.78931159   0.09073964
3454.00   0.62004072   0.08926643
3456.00   0.80417134   0.09112947
3458.00   0.97443195   0.09226231
3460.00   1.02911551   0.09290998
3462.00   0.99017671   0.09253842
3464.00   1.12858765   0.09304195
3466.00   1.00218425   0.09351873
3468.00   0.62763172   0.09068909
3470.00   0.69939076   0.09143817
3472.00   0.82209267   0.09170956
3474.00   0.78452050   0.09099582
3476.00   0.78297266   0.09144479
3478.00   0.89492747   0.09643902
3480.00   0.79231833   0.10013692
3482.00   0.57294773   0.09682506
3484.00   0.59519033   0.09682463
3486.00   0.82302219   0.09598971
3488.00   0.79634293   0.09474805
3490.00   0.77756541   0.09462527
3492.00   0.55025819   0.09166799
3494.00   0.78386212   0.09184542
3496.00   0.71073199   0.09048856
3498.00   0.84697146   0.09352316
3500.00   0.80329011   0.09002351
3502.00   0.60903484   0.08960038
3504.00   0.69174462   0.08986919
3506.00   0.95166027   0.09218082
3508.00   0.70962672   0.09138282
3510.00   0.53257370   0.08968637
3512.00   0.60780819   0.08883121
3514.00   0.78657856   0.08946668
3516.00   0.72747978   0.08870718
3518.00   0.59338193   0.08719186
3520.00   0.82226393   0.08891515
3522.00   0.84678254   0.08786218
3524.00   0.59007447   0.08376804
3526.00   0.62094160   0.08461016
3528.00   0.80216619   0.08624652
3530.00   0.83921555   0.08608086
3532.00   0.69204973   0.08535167
3534.00   0.68189176   0.08534059
3536.00   0.82669910   0.08659144
3538.00   0.78095992   0.08670322
3540.00   0.85751495   0.08880264
3542.00   0.92256672   0.09346023
3544.00   0.66060874   0.09086445
3546.00   0.90568938   0.09053765
3548.00   0.63882402   0.08733140
3550.00   0.66878257   0.08692461
3552.00   0.67264846   0.08728996
3554.00   0.81441598   0.08935907
3556.00   0.86432115   0.08958132
3558.00   1.09718460   0.09107397
3560.00   0.62292398   0.08570622
3562.00   0.79002637   0.08499764
3564.00   0.65100951   0.08266246
3566.00   0.79875152   0.08383161
3568.00   0.84344898   0.08383839
3570.00   0.80038572   0.08280460
3572.00   0.71953655   0.08275057
3574.00   0.70488410   0.08162238
3576.00   0.89954448   0.08106981
3578.00   0.79373767   0.08019432
3580.00   0.75414127   0.07944197
3582.00   0.80964022   0.07895678
3584.00   0.75632122   0.07608308
3586.00   0.71226412   0.07520255
3588.00   0.71298812   0.07605253
3590.00   0.76198902   0.07818965
3592.00   0.69618146   0.07667085
3594.00   0.75726697   0.07592005
3596.00   0.88361974   0.07639088
3598.00   0.69516334   0.07422488
3600.00   0.83709917   0.07557333
3602.00   0.90676885   0.07536771
3604.00   0.54225815   0.07075437
3606.00   0.78132505   0.07334309
3608.00   0.82951540   0.07340813
3610.00   0.97380094   0.07412127
3612.00   0.83080779   0.07472879
3614.00   0.76946104   0.07572893
3616.00   0.92843795   0.07543519
3618.00   0.78875403   0.07246213
3620.00   0.80110209   0.07114040
3622.00   0.70786781   0.07035246
3624.00   0.69438510   0.07130424
3626.00   0.86357004   0.07126775
3628.00   0.81283742   0.07168821
3630.00   0.93251857   0.07310641
3632.00   0.78467203   0.07229286
3634.00   0.96956061   0.07247557
3636.00   0.87374530   0.07159226
3638.00   0.69452233   0.06951358
3640.00   0.82922390   0.07090372
3642.00   0.97234324   0.07378215
3644.00   0.89694389   0.07331742
3646.00   0.82588200   0.07484981
3648.00   0.86564183   0.08973666
3650.00   0.72920171   0.09942890
3652.00   0.73060440   0.09314228
3654.00   0.73647529   0.08519612
3656.00   0.93978620   0.08024052
3658.00   0.93205390   0.07130500
3660.00   0.92623915   0.07022864
3662.00   1.17686273   0.07923328
3664.00   1.04199972   0.07702341
3666.00   0.88229069   0.06681377
3668.00   0.89310034   0.06325362
3670.00   0.91385986   0.06181430
3672.00   0.88252098   0.06122877
3674.00   1.05770760   0.06178048
3676.00   0.86240685   0.05973293
3678.00   0.87564946   0.05892101
3680.00   0.90312388   0.05937565
3682.00   0.86651901   0.05858623
3684.00   1.02647171   0.05912595
3686.00   0.92452648   0.05768641
3688.00   1.07415046   0.05811684
3690.00   1.03765256   0.05811330
3692.00   1.01772233   0.05831038
3694.00   0.97819484   0.05690630
3696.00   0.98395072   0.05747336
3698.00   0.91953088   0.05696410
3700.00   0.87771784   0.05651721
3702.00   0.79174846   0.05629644
3704.00   0.87508996   0.05633080
3706.00   0.79029798   0.05487306
3708.00   0.80520694   0.05552097
3710.00   0.85427013   0.05472953
3712.00   0.75723315   0.05345319
3714.00   0.69490047   0.05381436
3716.00   0.81192716   0.05331021
3718.00   0.75759241   0.05260139
3720.00   0.77557314   0.05223915
3722.00   0.80403204   0.05181949
3724.00   0.75811742   0.05322380
3726.00   0.73990291   0.05511373
3728.00   0.64771015   0.05596197
3730.00   0.74441617   0.05428995
3732.00   0.70568184   0.05167203
3734.00   0.51571340   0.04990102
3736.00   0.70906223   0.05032211
3738.00   0.69682353   0.05088606
3740.00   0.65550605   0.05043447
3742.00   0.60531480   0.05009749
3744.00   0.65937371   0.04942044
3746.00   0.58545726   0.04757406
3748.00   0.61226888   0.04772824
3750.00   0.68257550   0.04780626
3752.00   0.55039503   0.04685959
3754.00   0.52168226   0.04674147
3756.00   0.49955534   0.04576447
3758.00   0.52032335   0.04569253
3760.00   0.52237108   0.04572806
3762.00   0.58861024   0.04498381
3764.00   0.46635595   0.04409272
3766.00   0.41561622   0.04332507
3768.00   0.54803820   0.04375616
3770.00   0.39996588   0.04367764
3772.00   0.41546504   0.04412470
3774.00   0.53195408   0.04419578
3776.00   0.49915563   0.04426404
3778.00   0.39432018   0.04267978
3780.00   0.38744153   0.04299535
3782.00   0.41924856   0.04336973
3784.00   0.36007066   0.04153874
3786.00   0.42519257   0.04226885
3788.00   0.32281783   0.04126643
3790.00   0.47844172   0.04365231
3792.00   0.37756542   0.04184025
3794.00   0.39814088   0.04198235
3796.00   0.28606192   0.03979367
3798.00   0.42466338   0.04077728
3800.00   0.33310855   0.04050054
3802.00   0.31650262   0.04086411
3804.00   0.30316014   0.04068974
3806.00   0.38384548   0.04050677
3808.00   0.37230652   0.03930862
3810.00   0.28465481   0.03943025
3812.00   0.30541211   0.03931832
3814.00   0.27655248   0.03899497
3816.00   0.34735601   0.04003056
3818.00   0.36175611   0.03925538
3820.00   0.30025055   0.03935434
3822.00   0.29953421   0.03872945
3824.00   0.32306293   0.03855313
3826.00   0.21634262   0.03826124
3828.00   0.27725880   0.04003760
3830.00   0.30447670   0.04059224
3832.00   0.33774502   0.03978764
3834.00   0.43624644   0.04081145
3836.00   0.35850161   0.03983171
3838.00   0.28301671   0.03940026
3840.00   0.24449578   0.03891904
3842.00   0.29124476   0.03920123
3844.00   0.34610682   0.03939556
3846.00   0.36734712   0.03911745
3848.00   0.40632153   0.03849775
3850.00   0.36407220   0.03806284
3852.00   0.30953611   0.03763386
3854.00   0.37397121   0.03727973
3856.00   0.41471602   0.03763392
3858.00   0.49100010   0.03768039
3860.00   0.53531541   0.03802768
3862.00   0.44810169   0.03778164
3864.00   0.46238603   0.03841902
3866.00   0.46889097   0.03765858
3868.00   0.43710307   0.03732222
3870.00   0.48954673   0.03769131
3872.00   0.41648955   0.03786253
3874.00   0.42098670   0.03844253
3876.00   0.37733381   0.03777020
3878.00   0.45798278   0.03726347
3880.00   0.46780379   0.03667146
3882.00   0.40380239   0.03561552
3884.00   0.41427602   0.03628080
3886.00   0.46723073   0.03690066
3888.00   0.49595207   0.03728194
3890.00   0.38379270   0.03603935
3892.00   0.27005409   0.03530271
3894.00   0.37025710   0.03667435
3896.00   0.39528421   0.03713640
3898.00   0.36586327   0.03697323
3900.00   0.37048736   0.03680566
3902.00   0.42463556   0.03749668
3904.00   0.43285425   0.03873455
3906.00   0.53392531   0.04269991
3908.00   0.46566525   0.04503212
3910.00   0.41120677   0.04475414
3912.00   0.52425503   0.04462294
3914.00   0.43112831   0.04208296
3916.00   0.39769094   0.03907624
3918.00   0.43491996   0.03767740
3920.00   0.36864333   0.03621970
3922.00   0.39364391   0.03624004
3924.00   0.41003441   0.03577050
3926.00   0.44728463   0.03526141
3928.00   0.36211135   0.03452225
3930.00   0.46991621   0.03522434
3932.00   0.42448198   0.03617087
3934.00   0.46267420   0.03592447
3936.00   0.44394400   0.03465254
3938.00   0.54436114   0.03514597
3940.00   0.51651438   0.03583371
3942.00   0.61392003   0.03759104
3944.00   0.56381161   0.03890648
3946.00   0.63548715   0.03814254
3948.00   0.57980875   0.03666118
3950.00   0.57417142   0.03584276
3952.00   0.68190066   0.03657132
3954.00   0.63787435   0.03620898
3956.00   0.61081102   0.03567453
3958.00   0.62430431   0.03602096
3960.00   0.69032580   0.03805583
3962.00   0.75841931   0.03896739
3964.00   0.71387069   0.03683633
3966.00   0.75921687   0.03610612
3968.00   0.76282159   0.03606560
3970.00   0.80078159   0.03640210
3972.00   0.73981682   0.03657110
3974.00   0.76780147   0.03668659
3976.00   0.88976723   0.03753789
3978.00   0.87509148   0.03691620
3980.00   0.90130333   0.03739086
3982.00   0.93900591   0.03771741
3984.00   0.87572814   0.03746563
3986.00   0.84096300   0.03679090
3988.00   0.91087090   0.03740602
3990.00   0.94586603   0.03732065
3992.00   0.97419005   0.03789199
3994.00   1.02998359   0.03897953
3996.00   1.01813301   0.04019064
3998.00   0.93207717   0.03920375
4000.00   0.96261320   0.03791147
4002.00   1.03798478   0.03806025
4004.00   1.08791669   0.03798086
4006.00   1.00849379   0.03780307
4008.00   1.04658125   0.03865361
4010.00   1.04785725   0.03874324
4012.00   1.07322544   0.03894836
4014.00   1.03800377   0.03830005
4016.00   1.03513850   0.03843939
4018.00   1.07198205   0.04100154
4020.00   1.00708250   0.04392514
4022.00   1.16164381   0.04592709
4024.00   1.13511849   0.04446113
4026.00   1.07527290   0.04184262
4028.00   1.02516826   0.03976737
4030.00   1.13409313   0.04033861
4032.00   1.17841411   0.03996581
4034.00   1.11634180   0.03919517
4036.00   1.09373646   0.03903194
4038.00   1.12967307   0.03887977
4040.00   1.13037256   0.03892507
4042.00   1.04959231   0.03962484
4044.00   1.08204818   0.05528380
4046.00   1.16648489   0.06926712
4048.00   1.30818043   0.06503848
4050.00   1.17869441   0.04712923
4052.00   1.09510246   0.04034447
4054.00   1.09000711   0.03981442
4056.00   1.00190514   0.03863770
4058.00   1.11623465   0.03817663
4060.00   1.10703412   0.03749109
4062.00   1.08776162   0.03703866
4064.00   1.08751563   0.03689711
4066.00   1.02801688   0.03669629
4068.00   1.03898751   0.03660877
4070.00   1.01877253   0.03638541
4072.00   1.00484313   0.03540935
4074.00   0.97076639   0.03598804
4076.00   0.99128058   0.03954548
4078.00   0.99264469   0.04105103
4080.00   0.85770168   0.03916559
4082.00   0.95206120   0.03796949
4084.00   0.89713414   0.03690737
4086.00   0.91522377   0.03608537
4088.00   0.86743386   0.03465825
4090.00   0.82494530   0.03248770
4092.00   0.80519898   0.03213500
4094.00   0.88947097   0.03288076
4096.00   0.77353786   0.03229701
4098.00   0.73458293   0.03178443
4100.00   0.76020756   0.03225930
4102.00   0.76639565   0.03199545
4104.00   0.72496737   0.03115245
4106.00   0.68176787   0.03079615
4108.00   0.70921204   0.03110544
4110.00   0.70230726   0.03108077
4112.00   0.77740061   0.03139497
4114.00   0.66882755   0.03058738
4116.00   0.72857191   0.03098856
4118.00   0.76695119   0.03096533
4120.00   0.72326805   0.03033807
4122.00   0.76734041   0.03061835
4124.00   0.67858219   0.03029217
4126.00   0.75120351   0.03052077
4128.00   0.66306926   0.03040183
4130.00   0.70021430   0.03118394
4132.00   0.72902585   0.03209628
4134.00   0.72908326   0.03201767
4136.00   0.73051847   0.03121438
4138.00   0.76863435   0.03188402
4140.00   0.76600017   0.03233885
4142.00   0.74761159   0.03139954
4144.00   0.72490232   0.03027035
4146.00   0.78201759   0.03045700
4148.00   0.75265852   0.03024223
4150.00   0.79756280   0.03161696
4152.00   0.81923800   0.03254062
4154.00   0.85338843   0.03235644
4156.00   0.80412381   0.03146308
4158.00   0.84875439   0.03138070
4160.00   0.88320341   0.03163307
4162.00   0.91794266   0.03271016
4164.00   0.95011303   0.03416229
4166.00   0.93722104   0.03405968
4168.00   0.89988104   0.03257246
4170.00   0.97753991   0.03210935
4172.00   0.98478638   0.03162401
4174.00   0.86339657   0.03074643
4176.00   0.99509712   0.03174169
4178.00   0.97887928   0.03175931
4180.00   1.03793415   0.03172985
4182.00   1.04901943   0.03138827
4184.00   1.08843443   0.03122098
4186.00   1.02944377   0.03100962
4188.00   1.00526020   0.03093837
4190.00   0.99423010   0.03079390
4192.00   1.02619564   0.03124148
4194.00   1.07859029   0.03142387
4196.00   1.09542645   0.03092364
4198.00   0.95863095   0.03010016
4200.00   1.11278660   0.03101879
4202.00   1.09335324   0.03087854
4204.00   1.06694961   0.03106407
4206.00   0.96104034   0.03080793
4208.00   1.04754627   0.03140660
4210.00   1.09817303   0.03215779
4212.00   1.05567426   0.03150137
4214.00   1.09012865   0.03126695
4216.00   1.04947324   0.03127689
4218.00   0.99410814   0.03085591
4220.00   1.08377592   0.03109803
4222.00   1.02491421   0.03055262
4224.00   1.09239530   0.03056321
4226.00   1.13862628   0.03091586
4228.00   1.12460522   0.03095119
4230.00   1.15782680   0.03122990
4232.00   1.04301198   0.03149951
4234.00   1.08740714   0.03164399
4236.00   1.06451915   0.03157650
4238.00   1.02710005   0.03162968
4240.00   1.00820880   0.03093577
4242.00   0.96474785   0.03015305
4244.00   1.03881713   0.03248460
4246.00   0.97410640   0.03439792
4248.00   1.03027837   0.03417148
4250.00   0.99155775   0.03170352
4252.00   1.00640035   0.03063101
4254.00   1.02302040   0.03028803
4256.00   1.01050842   0.03046313
4258.00   0.97806777   0.03015572
4260.00   0.97852499   0.02980185
4262.00   0.98773812   0.02979630
4264.00   0.95928620   0.02936983
4266.00   1.02061295   0.02968131
4268.00   0.93186995   0.02924328
4270.00   0.89965096   0.02907007
4272.00   0.94216215   0.02912022
4274.00   0.95590171   0.02952476
4276.00   0.94358058   0.02940655
4278.00   0.98861843   0.02948434
4280.00   0.87684700   0.02925500
4282.00   0.93260029   0.02932217
4284.00   0.95466283   0.02966839
4286.00   0.86160959   0.02893486
4288.00   0.89291786   0.02858235
4290.00   0.90254783   0.02858359
4292.00   0.88915213   0.02877270
4294.00   0.93068224   0.02916122
4296.00   0.91666289   0.02889248
4298.00   0.93460723   0.02877745
4300.00   0.94525438   0.02867866
4302.00   0.85898746   0.02813650
4304.00   0.84625937   0.02844385
4306.00   0.86739413   0.02846761
4308.00   0.82595397   0.02832396
4310.00   0.87783488   0.02885790
4312.00   0.79760116   0.02991330
4314.00   0.84255903   0.03118280
4316.00   0.92093597   0.03081932
4318.00   0.83328534   0.03003473
4320.00   0.78382136   0.03010331
4322.00   0.79774935   0.03048655
4324.00   0.80840310   0.02980069
4326.00   0.81485733   0.02939444
4328.00   0.78004111   0.02849820
4330.00   0.76612774   0.02785716
4332.00   0.78303148   0.02777145
4334.00   0.81434764   0.02813969
4336.00   0.77320244   0.02848816
4338.00   0.74120731   0.02892525
4340.00   0.79657515   0.02973232
4342.00   0.66889632   0.02891632
4344.00   0.73627016   0.02966972
4346.00   0.65261269   0.03000051
4348.00   0.66273274   0.03048776
4350.00   0.68447058   0.02974178
4352.00   0.65374146   0.02914327
4354.00   0.67178675   0.03321993
4356.00   0.71311493   0.05358113
4358.00   0.81565059   0.06574065
4360.00   0.71596091   0.05906138
4362.00   0.61260595   0.04220152
4364.00   0.67471246   0.03239303
4366.00   0.61215848   0.02992236
4368.00   0.65409861   0.02939902
4370.00   0.69981670   0.02936627
4372.00   0.55060053   0.02934168
4374.00   0.63781967   0.03017294
4376.00   0.60120300   0.02949208
4378.00   0.63578702   0.02921942
4380.00   0.62710207   0.02779423
4382.00   0.65049570   0.02759668
4384.00   0.62899397   0.02727877
4386.00   0.58380185   0.02700101
4388.00   0.66682345   0.02732492
4390.00   0.54039878   0.02683654
4392.00   0.58101625   0.02699811
4394.00   0.55857960   0.02675446
4396.00   0.59179065   0.02678156
4398.00   0.62175247   0.02738214
4400.00   0.55443023   0.02771091
4402.00   0.52966853   0.02727771
4404.00   0.57999406   0.02705981
4406.00   0.53823315   0.02653885
4408.00   0.50777241   0.02663858
4410.00   0.49289580   0.02657861
4412.00   0.50448565   0.02665584
4414.00   0.50655399   0.02709257
4416.00   0.41912477   0.02666247
4418.00   0.45916825   0.02640973
4420.00   0.43979201   0.02601029
4422.00   0.52101131   0.02597163
4424.00   0.42499901   0.02551517
4426.00   0.43952387   0.02557615
4428.00   0.44720999   0.02530272
4430.00   0.44639657   0.02530002
4432.00   0.53022253   0.02557247
4434.00   0.45300426   0.02515293
4436.00   0.47644100   0.02500506
4438.00   0.45488628   0.02511909
4440.00   0.53194794   0.02541102
4442.00   0.44197895   0.02504315
4444.00   0.47532295   0.02518070
4446.00   0.41246645   0.02515670
4448.00   0.37936108   0.02474777
4450.00   0.44730064   0.02487885
4452.00   0.45374672   0.02477811
4454.00   0.50467597   0.02498797
4456.00   0.55236727   0.02527172
4458.00   0.48022766   0.02476009
4460.00   0.47209476   0.02498499
4462.00   0.47144356   0.02505609
4464.00   0.48966135   0.02495346
4466.00   0.43912391   0.02462514
4468.00   0.50963881   0.02488464
4470.00   0.51739288   0.02471316
4472.00   0.57438134   0.02495934
4474.00   0.55262888   0.02495776
4476.00   0.60972315   0.02531189
4478.00   0.52114500   0.02496539
4480.00   0.54012655   0.02494887
4482.00   0.56430459   0.02506994
4484.00   0.55974410   0.02501989
4486.00   0.56158967   0.02508333
4488.00   0.58828613   0.02535813
4490.00   0.59230191   0.02539425
4492.00   0.55860867   0.02545921
4494.00   0.61001346   0.02581908
4496.00   0.62176224   0.02589288
4498.00   0.61367220   0.02583008
4500.00   0.54162962   0.02548532
4502.00   0.60251106   0.02544600
4504.00   0.62978130   0.02542226
4506.00   0.65455732   0.02544219
4508.00   0.58620158   0.02478993
4510.00   0.66115218   0.02524950
4512.00   0.64749660   0.02500202
4514.00   0.66319796   0.02489707
4516.00   0.65475218   0.02481952
4518.00   0.60759503   0.02451509
4520.00   0.64991712   0.02469087
4522.00   0.63736006   0.02461522
4524.00   0.63680698   0.02453820
4526.00   0.59584319   0.02412169
4528.00   0.61451715   0.02431367
4530.00   0.62385045   0.02436303
4532.00   0.61612870   0.02439542
4534.00   0.62063784   0.02420219
4536.00   0.56313733   0.02380713
4538.00   0.65316134   0.02409345
4540.00   0.59973049   0.02392705
4542.00   0.59698566   0.02424174
4544.00   0.62103615   0.02455033
4546.00   0.59030697   0.02436070
4548.00   0.55836688   0.02389549
4550.00   0.56308347   0.02351594
4552.00   0.52876384   0.02339303
4554.00   0.55440048   0.02369842
4556.00   0.54580090   0.02342105
4558.00   0.53392956   0.02351212
4560.00   0.49739625   0.02325772
4562.00   0.56259390   0.02349120
4564.00   0.55622468   0.02315336
4566.00   0.56758266   0.02321044
4568.00   0.55792212   0.02311202
4570.00   0.54092395   0.02305921
4572.00   0.57096942   0.02329706
4574.00   0.62657007   0.02371391
4576.00   0.56780494   0.02334314
4578.00   0.57458311   0.02320867
4580.00   0.60056424   0.02335276
4582.00   0.58089721   0.02300342
4584.00   0.60244615   0.02316702
4586.00   0.56506211   0.02288436
4588.00   0.61756566   0.02332510
4590.00   0.61029753   0.02321336
4592.00   0.61787257   0.02318002
4594.00   0.66880165   0.02351101
4596.00   0.64752525   0.02354465
4598.00   0.64135371   0.02334982
4600.00   0.70068464   0.02353324
4602.00   0.62946301   0.02290730
4604.00   0.69131297   0.02341065
4606.00   0.75585531   0.02380274
4608.00   0.64996865   0.02341945
4610.00   0.65300291   0.02370571
4612.00   0.61264173   0.02335350
4614.00   0.74835263   0.02360524
4616.00   0.75587545   0.02360183
4618.00   0.67595578   0.02322838
4620.00   0.71027962   0.02314896
4622.00   0.71306414   0.02351112
4624.00   0.70915593   0.02341570
4626.00   0.75177037   0.02353260
4628.00   0.65429753   0.02317007
4630.00   0.74826624   0.02359334
4632.00   0.71137868   0.02340277
4634.00   0.75135891   0.02354848
4636.00   0.76348850   0.02353696
4638.00   0.68498165   0.02332786
4640.00   0.72900280   0.02351543
4642.00   0.70604641   0.02312573
4644.00   0.72708660   0.02342312
4646.00   0.73839442   0.02342130
4648.00   0.72611063   0.02346327
4650.00   0.76068710   0.02357855
4652.00   0.78970978   0.02380874
4654.00   0.76663187   0.02369398
4656.00   0.76653359   0.02384450
4658.00   0.74906867   0.02405666
4660.00   0.74090199   0.02404394
4662.00   0.76060975   0.02431396
4664.00   0.79090337   0.02534350
4666.00   0.69755751   0.02477810
4668.00   0.71579388   0.02512323
4670.00   0.71904477   0.02533764
4672.00   0.75472928   0.02513555
4674.00   0.73370183   0.02489595
4676.00   0.71460443   0.02432408
4678.00   0.69337988   0.02404016
4680.00   0.67237384   0.02363397
4682.00   0.69798601   0.02352630
4684.00   0.69386405   0.02340192
4686.00   0.73676633   0.02343493
4688.00   0.66531470   0.02297939
4690.00   0.64858779   0.02284408
4692.00   0.68941394   0.02301004
4694.00   0.66692267   0.02272039
4696.00   0.68831414   0.02285208
4698.00   0.69005143   0.02271108
4700.00   0.69949467   0.02284775
4702.00   0.67132627   0.02258361
4704.00   0.66141524   0.02275205
4706.00   0.72080837   0.02297028
4708.00   0.69311260   0.02320187
4710.00   0.66549562   0.02303304
4712.00   0.67609609   0.02303036
4714.00   0.68630743   0.02314163
4716.00   0.70522687   0.02279191
4718.00   0.68276647   0.02278922
4720.00   0.69030878   0.02292976
4722.00   0.74592071   0.02278949
4724.00   0.67260073   0.02238588
4726.00   0.64221078   0.02279245
4728.00   0.68560668   0.02384587
4730.00   0.65974498   0.02390841
4732.00   0.65444141   0.02391582
4734.00   0.68589080   0.02425441
4736.00   0.69372303   0.02456077
4738.00   0.71099251   0.02501320
4740.00   0.65023115   0.02541689
4742.00   0.62280443   0.02590199
4744.00   0.68460541   0.02565821
4746.00   0.67092444   0.02422409
4748.00   0.70063617   0.02333121
4750.00   0.67047100   0.02281441
4752.00   0.69898051   0.02310200
4754.00   0.69387359   0.02304060
4756.00   0.66811123   0.02239504
4758.00   0.65163438   0.02180531
4760.00   0.64121860   0.02152115
4762.00   0.61695726   0.02102065
4764.00   0.60916474   0.02090433
4766.00   0.60532535   0.02079427
4768.00   0.60520192   0.02064622
4770.00   0.58076295   0.02040716
4772.00   0.64549618   0.02061495
4774.00   0.57827310   0.02043291
4776.00   0.60373157   0.02096303
4778.00   0.60086046   0.02111378
4780.00   0.58464784   0.02107644
4782.00   0.57331291   0.02060887
4784.00   0.53342670   0.02007542
4786.00   0.54732782   0.02004495
4788.00   0.56326674   0.02002964
4790.00   0.54805648   0.02003006
4792.00   0.53996046   0.01996774
4794.00   0.51019389   0.01973888
4796.00   0.52531113   0.01978962
4798.00   0.46945830   0.01933912
4800.00   0.48984078   0.01956662
4802.00   0.45357300   0.01939626
4804.00   0.48459801   0.01940885
4806.00   0.51225570   0.01961228
4808.00   0.50685314   0.01962946
4810.00   0.50694963   0.01950017
4812.00   0.46919058   0.01935609
4814.00   0.53036032   0.01972417
4816.00   0.51524708   0.01975601
4818.00   0.50647684   0.01973285
4820.00   0.52629766   0.01991099
4822.00   0.53520326   0.02012158
4824.00   0.51528090   0.02003669
4826.00   0.45784383   0.02039585
4828.00   0.49726463   0.02056925
4830.00   0.51721486   0.02014379
4832.00   0.51029258   0.02023796
4834.00   0.51291552   0.02018100
4836.00   0.52282917   0.02037936
4838.00   0.54108647   0.02081892
4840.00   0.46536246   0.02046381
4842.00   0.55221698   0.02064741
4844.00   0.57318030   0.02059587
4846.00   0.53654132   0.02038272
4848.00   0.58393692   0.02060458
4850.00   0.56429442   0.02061712
4852.00   0.52424383   0.02022314
4854.00   0.52727954   0.02015829
4856.00   0.50828608   0.02010354
4858.00   0.47010862   0.02012486
4860.00   0.48782236   0.02104043
4862.00   0.51913907   0.02152983
4864.00   0.47025064   0.02086319
4866.00   0.49648232   0.02051139
4868.00   0.46156065   0.01998235
4870.00   0.50362228   0.01998792
4872.00   0.50325678   0.01974425
4874.00   0.47278594   0.01976825
4876.00   0.45949687   0.01976384
4878.00   0.48778256   0.01994898
4880.00   0.47664711   0.02003247
4882.00   0.46852983   0.01991762
4884.00   0.44081907   0.01965733
4886.00   0.46051073   0.01947102
4888.00   0.39046451   0.01893079
4890.00   0.47661463   0.01946538
4892.00   0.43316987   0.01914316
4894.00   0.41475168   0.01907901
4896.00   0.43308068   0.01904523
4898.00   0.42310641   0.01895051
4900.00   0.41214074   0.01870381
4902.00   0.39209323   0.01867253
4904.00   0.41214080   0.01879836
4906.00   0.37886374   0.01853941
4908.00   0.42675382   0.01880400
4910.00   0.42826786   0.01873864
4912.00   0.41822107   0.01871094
4914.00   0.42692889   0.01861599
4916.00   0.41892544   0.01866114
4918.00   0.39777671   0.01848341
4920.00   0.44688115   0.01863355
4922.00   0.40549545   0.01843307
4924.00   0.42289655   0.01836709
4926.00   0.43597881   0.01823450
4928.00   0.47994964   0.01830161
4930.00   0.43543610   0.01785978
4932.00   0.41354802   0.01777298
4934.00   0.40926740   0.01781598
4936.00   0.39461599   0.01770723
4938.00   0.39764392   0.01757708
4940.00   0.39362773   0.01775456
4942.00   0.43146455   0.01787091
4944.00   0.37081112   0.01748617
4946.00   0.38353137   0.01734267
4948.00   0.36171836   0.01723271
4950.00   0.37845203   0.01739627
4952.00   0.35973614   0.01745748
4954.00   0.36004862   0.01746594
4956.00   0.37791994   0.01735050
4958.00   0.35913051   0.01716021
4960.00   0.35726118   0.01706422
4962.00   0.40256757   0.01742229
4964.00   0.35641645   0.01722704
4966.00   0.35337265   0.01726460
4968.00   0.33461413   0.01727352
4970.00   0.32685461   0.01750406
4972.00   0.29730871   0.01773472
4974.00   0.29158659   0.01815795
4976.00   0.26515483   0.01843752
4978.00   0.29456530   0.01934110
4980.00   0.26469682   0.02015657
4982.00   0.24317483   0.02057177
4984.00   0.23453332   0.02033086
4986.00   0.17168961   0.01947115
4988.00   0.22219680   0.01905628
4990.00   0.24847423   0.01852146
4992.00   0.20276799   0.01766937
4994.00   0.19156520   0.01694376
4996.00   0.18290545   0.01640662
4998.00   0.19703883   0.01588941
5000.00   0.18404504   0.01544678
5002.00   0.17826883   0.01523218
5004.00   0.18526024   0.01508052
5006.00   0.21196690   0.01484219
5008.00   0.19218364   0.01464215
5010.00   0.18911401   0.01455269
5012.00   0.23099749   0.01459255
5014.00   0.18083735   0.01431375
5016.00   0.16031265   0.01441212
5018.00   0.18225457   0.01482031
5020.00   0.20022573   0.01482088
5022.00   0.18965490   0.01475964
5024.00   0.21055309   0.01448650
5026.00   0.18049245   0.01432515
5028.00   0.18612274   0.01442236
5030.00   0.20508655   0.01484652
5032.00   0.17044815   0.01459770
5034.00   0.20277889   0.01467963
5036.00   0.24362206   0.01460210
5038.00   0.20136796   0.01413462
5040.00   0.21054100   0.01419116
5042.00   0.18736223   0.01411708
5044.00   0.21569458   0.01438291
5046.00   0.23128651   0.01455062
5048.00   0.22808152   0.01447625
5050.00   0.23898918   0.01453528
5052.00   0.24828737   0.01468487
5054.00   0.25087917   0.01458044
5056.00   0.24598195   0.01460556
5058.00   0.26794395   0.01489810
5060.00   0.24919386   0.01475544
5062.00   0.25899265   0.01506262
5064.00   0.24045593   0.01538507
5066.00   0.22134094   0.01545857
5068.00   0.23713891   0.01602193
5070.00   0.26799024   0.01625903
5072.00   0.27862967   0.01614265
5074.00   0.27075824   0.01586024
5076.00   0.28046995   0.01582949
5078.00   0.30471867   0.01608415
5080.00   0.30105413   0.01735872
5082.00   0.29381948   0.01870064
5084.00   0.27768512   0.01975836
5086.00   0.32107980   0.02022523
5088.00   0.28081148   0.01916030
5090.00   0.28013898   0.01790063
5092.00   0.28380189   0.01694710
5094.00   0.22899289   0.01600151
5096.00   0.27926314   0.01644339
5098.00   0.28045350   0.01705002
5100.00   0.27936101   0.01711510
5102.00   0.28519262   0.01685173
5104.00   0.29464066   0.01647739
5106.00   0.32866656   0.01612878
5108.00   0.33442236   0.01612151
5110.00   0.29392241   0.01595509
5112.00   0.31648695   0.01609519
5114.00   0.29457378   0.01620314
5116.00   0.26737393   0.01619913
5118.00   0.28170086   0.01631893
5120.00   0.25863346   0.01567210
5122.00   0.33358001   0.01604283
5124.00   0.29422179   0.01580906
5126.00   0.29517437   0.01574579
5128.00   0.25511740   0.01558543
5130.00   0.29281720   0.01587344
5132.00   0.31962599   0.01600633
5134.00   0.30681543   0.01588958
5136.00   0.31189603   0.01588731
5138.00   0.30249361   0.01589998
5140.00   0.31690028   0.01599705
5142.00   0.29357811   0.01621007
5144.00   0.33224700   0.01630332
5146.00   0.29316614   0.01631084
5148.00   0.31885949   0.01678666
5150.00   0.33386073   0.01720996
5152.00   0.29678232   0.01751688
5154.00   0.31342658   0.01801110
5156.00   0.33657428   0.01788948
5158.00   0.29624211   0.01725516
5160.00   0.32966122   0.01711857
5162.00   0.31980518   0.01671081
5164.00   0.33462226   0.01662584
5166.00   0.29882435   0.01614645
5168.00   0.32134235   0.01625355
5170.00   0.31801217   0.01617324
5172.00   0.31999480   0.01606388
5174.00   0.33017906   0.01631820
5176.00   0.31138249   0.01640361
5178.00   0.32699706   0.01654130
5180.00   0.30739203   0.01634919
5182.00   0.31627009   0.01637939
5184.00   0.32036747   0.01653556
5186.00   0.32135218   0.01661248
5188.00   0.31581661   0.01681992
5190.00   0.34962390   0.01683162
5192.00   0.34245618   0.01683290
5194.00   0.34195208   0.01683810
5196.00   0.31094807   0.01711899
5198.00   0.33275606   0.01735668
5200.00   0.32367948   0.01753794
5202.00   0.39739589   0.01780205
5204.00   0.38785027   0.01760995
5206.00   0.34107611   0.01746190
5208.00   0.35987029   0.01767381
5210.00   0.39859144   0.01805578
5212.00   0.34251815   0.01797442
5214.00   0.34189344   0.01777549
5216.00   0.39533592   0.01790068
5218.00   0.36043865   0.01798695
5220.00   0.42267544   0.01830524
5222.00   0.37281436   0.01792148
5224.00   0.39358227   0.01779779
5226.00   0.38918684   0.01797231
5228.00   0.40846556   0.01807330
5230.00   0.38960283   0.01814993
5232.00   0.42417961   0.01815463
5234.00   0.40372292   0.01798781
5236.00   0.44579982   0.01847471
5238.00   0.40117573   0.01839963
5240.00   0.39181421   0.01827466
5242.00   0.40806841   0.01833563
5244.00   0.44770987   0.01865881
5246.00   0.43023263   0.01866655
5248.00   0.44418967   0.01864012
5250.00   0.40338661   0.01854916
5252.00   0.41263264   0.01839255
5254.00   0.41193685   0.01862437
5256.00   0.42462157   0.01886060
5258.00   0.43297767   0.01924298
5260.00   0.41910741   0.01933520
5262.00   0.42602242   0.01898242
5264.00   0.45398918   0.01917202
5266.00   0.38980266   0.01868289
5268.00   0.43929719   0.01901897
5270.00   0.45632747   0.01907298
5272.00   0.40594229   0.01881578
5274.00   0.41478155   0.01907605
5276.00   0.43517181   0.01918872
5278.00   0.43922389   0.01930416
5280.00   0.45090344   0.01941681
5282.00   0.48592869   0.01957064
5284.00   0.44693894   0.01966355
5286.00   0.40238003   0.01951148
5288.00   0.41167886   0.01971377
5290.00   0.39918104   0.01950778
5292.00   0.40308660   0.01937956
5294.00   0.37891846   0.01936701
5296.00   0.38957229   0.01949153
5298.00   0.41592810   0.01965523
5300.00   0.41547265   0.01966380
5302.00   0.42609416   0.01994198
5304.00   0.41348539   0.01981586
5306.00   0.41417156   0.01986868
5308.00   0.39467405   0.01997448
5310.00   0.41691929   0.01999361
5312.00   0.37657017   0.02016462
5314.00   0.38404623   0.02016766
5316.00   0.42208890   0.02018971
5318.00   0.43322753   0.02034881
5320.00   0.37866369   0.02012552
5322.00   0.43731816   0.02039014
5324.00   0.43882882   0.02048685
5326.00   0.46325409   0.02054455
5328.00   0.43018602   0.02036631
5330.00   0.39787322   0.02054677
5332.00   0.44816453   0.02077613
5334.00   0.47961210   0.02113235
5336.00   0.40266995   0.02070383
5338.00   0.46761172   0.02131430
5340.00   0.45134163   0.02148122
5342.00   0.40835920   0.02132779
5344.00   0.43715881   0.02159347
5346.00   0.41736276   0.02183044
5348.00   0.43493285   0.02238209
5350.00   0.40948245   0.02253746
5352.00   0.41563423   0.02250564
5354.00   0.44815924   0.02292774
5356.00   0.41811141   0.02300584
5358.00   0.45689996   0.02278381
5360.00   0.44363516   0.02258726
5362.00   0.43692363   0.02201232
5364.00   0.44006709   0.02150939
5366.00   0.46865633   0.02166393
5368.00   0.41076490   0.02130336
5370.00   0.41802720   0.02161099
5372.00   0.40908023   0.02195120
5374.00   0.38440115   0.02226091
5376.00   0.40448863   0.02249718
5378.00   0.43025636   0.02246510
5380.00   0.41902578   0.02239015
5382.00   0.37508625   0.02193773
5384.00   0.40088345   0.02191719
5386.00   0.35775295   0.02175480
5388.00   0.41963228   0.02205933
5390.00   0.35244823   0.02245876
5392.00   0.34915672   0.02269319
5394.00   0.36052444   0.02260287
5396.00   0.37849063   0.02265302
5398.00   0.35151239   0.02251827
5400.00   0.29042412   0.02227287
5402.00   0.26991088   0.02211546
5404.00   0.30627877   0.02205828
5406.00   0.21914347   0.02153702
5408.00   0.25609453   0.02229649
5410.00   0.28550220   0.02251707
5412.00   0.27935470   0.02291894
5414.00   0.25069446   0.02342367
5416.00   0.31354613   0.02412323
5418.00   0.22529570   0.02370386
5420.00   0.28827632   0.02426304
5422.00   0.23427601   0.02412728
5424.00   0.29376240   0.02426323
5426.00   0.22746535   0.02334835
5428.00   0.29710392   0.02406931
5430.00   0.29509615   0.02381374
5432.00   0.28906649   0.02390117
5434.00   0.25335439   0.02369674
5436.00   0.28766602   0.00758898
5438.00   0.28964992   0.00776600
5440.00   0.27983711   0.00810270
5442.00   0.28306820   0.00821772
5444.00   0.30076778   0.00816710
5446.00   0.30233938   0.00821031
5448.00   0.28871849   0.00816587
5450.00   0.27112822   0.00837765
5452.00   0.25024423   0.00897919
5454.00   0.22642881   0.00974525
5456.00   0.22814021   0.01048178
5458.00   0.25495570   0.01146050
5460.00   0.27515560   0.01200993
5462.00   0.30653508   0.01257042
5464.00   0.32257989   0.01252937
5466.00   0.30867577   0.01142846
5468.00   0.28308770   0.00964769
5470.00   0.28425591   0.00871995
5472.00   0.30738395   0.00838708
5474.00   0.30888219   0.00805067
5476.00   0.29785751   0.00805075
5478.00   0.28661694   0.00803231
5480.00   0.27443166   0.00797400
5482.00   0.26421431   0.00791292
5484.00   0.25738070   0.00793988
5486.00   0.25153509   0.00808552
5488.00   0.25138576   0.00793635
5490.00   0.25891420   0.00745001
5492.00   0.26299973   0.00712475
5494.00   0.26746014   0.00689056
5496.00   0.27149580   0.00674838
5498.00   0.26788691   0.00677251
5500.00   0.25677411   0.00693220
5502.00   0.25342641   0.00693797
5504.00   0.25084857   0.00684399
5506.00   0.25597293   0.00680285
5508.00   0.27191983   0.00674597
5510.00   0.28690101   0.00675348
5512.00   0.29302630   0.00687658
5514.00   0.29427479   0.00706758
5516.00   0.30236146   0.00721170
5518.00   0.31924887   0.00743333
5520.00   0.32571135   0.00745065
5522.00   0.32789974   0.00724479
5524.00   0.32190096   0.00707979
5526.00   0.30264965   0.00698854
5528.00   0.27981238   0.00696722
5530.00   0.27215913   0.00716797
5532.00   0.27216332   0.00772499
5534.00   0.26909500   0.00772826
5536.00   0.26319814   0.00723728
5538.00   0.26584387   0.00689416
5540.00   0.27855967   0.00673108
5542.00   0.29245147   0.00667576
5544.00   0.29651250   0.00675556
5546.00   0.29389647   0.00699398
5548.00   0.28841434   0.00704044
5550.00   0.27066523   0.00694392
5552.00   0.26672061   0.00692002
5554.00   0.27999751   0.00696083
5556.00   0.29345796   0.00699920
5558.00   0.29297076   0.00700133
5560.00   0.28345519   0.00698499
5562.00   0.27553152   0.00693528
5564.00   0.25934966   0.00654237
5566.00   0.25612077   0.00682978
5568.00   0.26230255   0.00749786
5570.00   0.27382320   0.00847987
5572.00   0.28978269   0.00996145
5574.00   0.30940111   0.01151363
5576.00   0.32540339   0.01198923
5578.00   0.34617883   0.01191568
5580.00   0.35164492   0.01144512
5582.00   0.34172778   0.01006131
5584.00   0.33222838   0.00871985
5586.00   0.32719304   0.00772768
5588.00   0.32261652   0.00694268
5590.00   0.31519578   0.00644053
5592.00   0.30470240   0.00644051
5594.00   0.30048496   0.00627852
5596.00   0.29912382   0.00617242
5598.00   0.30174515   0.00610514
5600.00   0.31216367   0.00609499
5602.00   0.32326446   0.00610508
5604.00   0.32499373   0.00608383
5606.00   0.31987558   0.00604782
5608.00   0.31923375   0.00607644
5610.00   0.31956550   0.00620669
5612.00   0.32018614   0.00623529
5614.00   0.32359654   0.00616847
5616.00   0.32598679   0.00607975
5618.00   0.32092002   0.00600677
5620.00   0.31091021   0.00593585
5622.00   0.31187367   0.00590613
5624.00   0.32406272   0.00591434
5626.00   0.32857172   0.00592582
5628.00   0.33172910   0.00597306
5630.00   0.32981247   0.00598910
5632.00   0.31860290   0.00594050
5634.00   0.30291241   0.00588068
5636.00   0.29490988   0.00590940
5638.00   0.28865317   0.00603702
5640.00   0.28678524   0.00604635
5642.00   0.29266673   0.00593891
5644.00   0.29586729   0.00590320
5646.00   0.29179235   0.00599182
5648.00   0.28638999   0.00613351
5650.00   0.29005992   0.00620783
5652.00   0.30290420   0.00626882
5654.00   0.30899693   0.00629659
5656.00   0.31376344   0.00628095
5658.00   0.31520677   0.00626095
5660.00   0.31519164   0.00621171
5662.00   0.31055269   0.00622770
5664.00   0.29633416   0.00644041
5666.00   0.27162860   0.00684069
5668.00   0.26433991   0.00699650
5670.00   0.26981950   0.00695811
5672.00   0.27407347   0.00702948
5674.00   0.28247419   0.00711814
5676.00   0.28733963   0.00736125
5678.00   0.28011516   0.00791377
5680.00   0.26432770   0.00863446
5682.00   0.26289149   0.00894098
5684.00   0.27076970   0.00896981
5686.00   0.27896684   0.00906245
5688.00   0.29509690   0.00919185
5690.00   0.30441102   0.00920066
5692.00   0.29962736   0.00902391
5694.00   0.28615414   0.00871414
5696.00   0.27297980   0.00831510
5698.00   0.24807849   0.00758127
5700.00   0.24203488   0.00722774
5702.00   0.25286798   0.00723335
5704.00   0.26181701   0.00718273
5706.00   0.26331267   0.00697604
5708.00   0.26421157   0.00675268
5710.00   0.26952671   0.00667783
5712.00   0.27612188   0.00672837
5714.00   0.27932532   0.00673567
5716.00   0.28113694   0.00682902
5718.00   0.28116949   0.00677701
5720.00   0.27692001   0.00649851
5722.00   0.27361771   0.00618184
5724.00   0.27372091   0.00605642
5726.00   0.27482288   0.00604351
5728.00   0.27611867   0.00600557
5730.00   0.27679113   0.00596762
5732.00   0.28098246   0.00600055
5734.00   0.29215035   0.00612348
5736.00   0.29931100   0.00623336
5738.00   0.29349564   0.00630112
5740.00   0.27890091   0.00635541
5742.00   0.27443530   0.00631147
5744.00   0.27422869   0.00612162
5746.00   0.27643424   0.00603032
5748.00   0.28667106   0.00596044
5750.00   0.29085623   0.00595079
5752.00   0.27988322   0.00605063
5754.00   0.26106994   0.00619983
5756.00   0.25425610   0.00626106
5758.00   0.25589541   0.00617684
5760.00   0.25071763   0.00635079
5762.00   0.24019793   0.00676284
5764.00   0.23425074   0.00709042
5766.00   0.23268152   0.00730642
5768.00   0.23173200   0.00742961
5770.00   0.23028898   0.00742068
5772.00   0.22817185   0.00726113
5774.00   0.23366653   0.00713129
5776.00   0.24927478   0.00692018
5778.00   0.25911301   0.00678708
5780.00   0.26347142   0.00664924
5782.00   0.26540801   0.00666247
5784.00   0.26641686   0.00704531
5786.00   0.26789719   0.00770756
5788.00   0.27270868   0.00797506
5790.00   0.28351939   0.00816022
5792.00   0.28662221   0.00807379
5794.00   0.28623347   0.00755899
5796.00   0.28336287   0.00702466
5798.00   0.27648655   0.00677021
5800.00   0.26555757   0.00667120
5802.00   0.26025105   0.00660686
5804.00   0.25639880   0.00670981
5806.00   0.25765373   0.00668171
5808.00   0.26001847   0.00651241
5810.00   0.26853950   0.00647255
5812.00   0.29021753   0.00668592
5814.00   0.31627008   0.00698079
5816.00   0.32525757   0.00710269
5818.00   0.32263118   0.00716179
5820.00   0.31954639   0.00719304
5822.00   0.31194788   0.00718200
5824.00   0.30245620   0.00713641
5826.00   0.28631116   0.00699891
5828.00   0.26824221   0.00686572
5830.00   0.26164028   0.00694401
5832.00   0.26403362   0.00720939
5834.00   0.26778015   0.00730028
5836.00   0.27598372   0.00734420
5838.00   0.28583589   0.00730697
5840.00   0.30072249   0.00712270
5842.00   0.31357844   0.00697508
5844.00   0.31790090   0.00704173
5846.00   0.31583269   0.00726530
5848.00   0.32534407   0.00730000
5850.00   0.35424082   0.00715707
5852.00   0.35840650   0.00716606
5854.00   0.33646290   0.00732403
5856.00   0.31287889   0.00750509
5858.00   0.29772094   0.00766473
5860.00   0.28661002   0.00781946
5862.00   0.28940441   0.00787077
5864.00   0.31331587   0.00774689
5866.00   0.32191415   0.00781775
5868.00   0.32603243   0.00813671
5870.00   0.32338946   0.00826828
5872.00   0.31272937   0.00797343
5874.00   0.29595323   0.00748129
5876.00   0.27888815   0.00745527
5878.00   0.24969778   0.00744561
5880.00   0.24779733   0.00834393
5882.00   0.27351034   0.00973872
5884.00   0.29173395   0.01131206
5886.00   0.29349774   0.01321269
5888.00   0.29367121   0.01500381
5890.00   0.31446978   0.01626017
5892.00   0.35682686   0.01748823
5894.00   0.36810309   0.01746704
5896.00   0.35554761   0.01624101
5898.00   0.34764557   0.01482879
5900.00   0.33889079   0.01269046
5902.00   0.33319965   0.01033091
5904.00   0.34220299   0.00880356
5906.00   0.36546521   0.00797979
5908.00   0.37347877   0.00745940
5910.00   0.36918691   0.00799502
5912.00   0.37315644   0.00810838
5914.00   0.38742377   0.00797865
5916.00   0.39797056   0.00782613
5918.00   0.39779676   0.00775053
5920.00   0.39322589   0.00770144
5922.00   0.39227971   0.00777115
5924.00   0.39344636   0.00802132
5926.00   0.39053679   0.00813051
5928.00   0.38417988   0.00821333
5930.00   0.37851672   0.00818652
5932.00   0.37515800   0.00799539
5934.00   0.37496088   0.00771331
5936.00   0.37830384   0.00750365
5938.00   0.38664834   0.00722129
5940.00   0.39046533   0.00720505
5942.00   0.39375202   0.00751138
5944.00   0.39369972   0.00767737
5946.00   0.38906470   0.00767354
5948.00   0.38161039   0.00760897
5950.00   0.37387297   0.00752264
5952.00   0.36337516   0.00736695
5954.00   0.35919684   0.00727474
5956.00   0.35856792   0.00723953
5958.00   0.36150096   0.00715903
5960.00   0.37006025   0.00696819
5962.00   0.37738851   0.00682663
5964.00   0.37909679   0.00694397
5966.00   0.37733942   0.00725370
5968.00   0.37118696   0.00723356
5970.00   0.35713202   0.00690724
5972.00   0.34796081   0.00675483
5974.00   0.33841747   0.00673692
5976.00   0.33287746   0.00672815
5978.00   0.33539234   0.00665168
5980.00   0.34401147   0.00654579
5982.00   0.35335539   0.00650597
5984.00   0.37020522   0.00648539
5986.00   0.37735812   0.00652657
5988.00   0.37845156   0.00671208
5990.00   0.37665045   0.00680441
5992.00   0.37124106   0.00665792
5994.00   0.36537033   0.00640527
5996.00   0.36662687   0.00637917
5998.00   0.37394090   0.00653484
6000.00   0.37827452   0.00653658
6002.00   0.38458376   0.00643939
6004.00   0.38686064   0.00639226
6006.00   0.38270648   0.00639493
6008.00   0.37511183   0.00639756
6010.00   0.36956272   0.00638845
6012.00   0.36382101   0.00637972
6014.00   0.36496276   0.00635755
6016.00   0.37324101   0.00631464
6018.00   0.38012628   0.00628892
6020.00   0.39293551   0.00627889
6022.00   0.39869332   0.00626108
6024.00   0.38238890   0.00621960
6026.00   0.35042708   0.00615949
6028.00   0.34038611   0.00613606
6030.00   0.34740916   0.00605545
6032.00   0.34503560   0.00616589
6034.00   0.33774336   0.00657763
6036.00   0.33129463   0.00681188
6038.00   0.32593790   0.00664629
6040.00   0.32161711   0.00626683
6042.00   0.32593678   0.00610385
6044.00   0.34387939   0.00598614
6046.00   0.34901445   0.00598750
6048.00   0.34499285   0.00620900
6050.00   0.34135410   0.00631140
6052.00   0.34269699   0.00620512
6054.00   0.34435743   0.00600611
6056.00   0.33756223   0.00588527
6058.00   0.32421535   0.00577078
6060.00   0.31061432   0.00571010
6062.00   0.29450797   0.00568716
6064.00   0.27670608   0.00570931
6066.00   0.25285862   0.00582985
6068.00   0.23211996   0.00594337
6070.00   0.22747447   0.00588959
6072.00   0.23474435   0.00569867
6074.00   0.24498044   0.00563847
6076.00   0.26678829   0.00562006
6078.00   0.28236230   0.00565205
6080.00   0.29315400   0.00579832
6082.00   0.30196634   0.00592383
6084.00   0.30925785   0.00591270
6086.00   0.31411031   0.00582840
6088.00   0.32082807   0.00583027
6090.00   0.33188577   0.00586641
6092.00   0.33500196   0.00591835
6094.00   0.32610224   0.00605412
6096.00   0.32139198   0.00613175
6098.00   0.33088765   0.00603485
6100.00   0.34673938   0.00584679
6102.00   0.35189205   0.00589116
6104.00   0.35094234   0.00612073
6106.00   0.35004428   0.00628618
6108.00   0.34412022   0.00650274
6110.00   0.34250493   0.00664124
6112.00   0.34965710   0.00661791
6114.00   0.35761814   0.00655960
6116.00   0.35269628   0.00674425
6118.00   0.33427288   0.00720174
6120.00   0.32887353   0.00725926
6122.00   0.32848717   0.00707940
6124.00   0.33288443   0.00681264
6126.00   0.34448661   0.00633608
6128.00   0.35789031   0.00584198
6130.00   0.36417042   0.00569865
6132.00   0.36548372   0.00581236
6134.00   0.37210217   0.00588694
6136.00   0.38768347   0.00605622
6138.00   0.39071745   0.00620067
6140.00   0.37894915   0.00637611
6142.00   0.36424649   0.00646996
6144.00   0.35368136   0.00636998
6146.00   0.34416842   0.00610629
6148.00   0.35304390   0.00599251
6150.00   0.39049554   0.00587569
6152.00   0.40378587   0.00592679
6154.00   0.40019377   0.00615330
6156.00   0.39136651   0.00641179
6158.00   0.38055770   0.00670752
6160.00   0.36792593   0.00699227
6162.00   0.36317301   0.00690786
6164.00   0.36421275   0.00640001
6166.00   0.36567697   0.00607645
6168.00   0.36973338   0.00569108
6170.00   0.37414534   0.00546334
6172.00   0.38054997   0.00551633
6174.00   0.38721725   0.00566787
6176.00   0.38923873   0.00564494
6178.00   0.38608637   0.00554038
6180.00   0.38713144   0.00550082
6182.00   0.38877752   0.00550119
6184.00   0.39373043   0.00547260
6186.00   0.40439709   0.00541515
6188.00   0.41343902   0.00534997
6190.00   0.41145068   0.00529503
6192.00   0.39919482   0.00524109
6194.00   0.39448732   0.00522337
6196.00   0.39212467   0.00522047
6198.00   0.39143379   0.00526433
6200.00   0.38974296   0.00538179
6202.00   0.39082108   0.00548088
6204.00   0.39838596   0.00552733
6206.00   0.41115770   0.00555858
6208.00   0.42022088   0.00553128
6210.00   0.42797303   0.00539083
6212.00   0.43586776   0.00535106
6214.00   0.44651709   0.00540306
6216.00   0.45535232   0.00545674
6218.00   0.45722744   0.00546372
6220.00   0.45554145   0.00545492
6222.00   0.45868236   0.00550365
6224.00   0.46641512   0.00563088
6226.00   0.46564218   0.00565998
6228.00   0.45200412   0.00555768
6230.00   0.45024878   0.00557028
6232.00   0.46967277   0.00580325
6234.00   0.49204741   0.00604784
6236.00   0.49136813   0.00603114
6238.00   0.47450945   0.00579128
6240.00   0.46389203   0.00574013
6242.00   0.44517246   0.00584259
6244.00   0.44021118   0.00582582
6246.00   0.45357336   0.00561448
6248.00   0.47016682   0.00538422
6250.00   0.47809294   0.00534738
6252.00   0.48361060   0.00542589
6254.00   0.48578407   0.00550424
6256.00   0.48233989   0.00567130
6258.00   0.48113880   0.00576589
6260.00   0.48078030   0.00579793
6262.00   0.48115627   0.00579372
6264.00   0.48318781   0.00576546
6266.00   0.48654376   0.00570987
6268.00   0.48922729   0.00562560
6270.00   0.49161687   0.00541049
6272.00   0.49487123   0.00538810
6274.00   0.50273430   0.00559176
6276.00   0.50355038   0.00575359
6278.00   0.49062912   0.00576345
6280.00   0.47177008   0.00570177
6282.00   0.46563774   0.00566528
6284.00   0.46487811   0.00558000
6286.00   0.47176465   0.00556110
6288.00   0.49386734   0.00553373
6290.00   0.50749165   0.00563037
6292.00   0.50629678   0.00585363
6294.00   0.50062613   0.00614649
6296.00   0.50548585   0.00646801
6298.00   0.51978128   0.00689132
6300.00   0.51775397   0.00708093
6302.00   0.49843787   0.00721258
6304.00   0.48884101   0.00711942
6306.00   0.49103142   0.00668111
6308.00   0.49742241   0.00616633
6310.00   0.49934697   0.00587936
6312.00   0.49793614   0.00568869
6314.00   0.50113516   0.00551924
6316.00   0.51113813   0.00541657
6318.00   0.51410025   0.00535926
6320.00   0.50678092   0.00535164
6322.00   0.50065725   0.00534776
6324.00   0.50326376   0.00533917
6326.00   0.50960618   0.00534919
6328.00   0.51288906   0.00538299
6330.00   0.51760033   0.00548808
6332.00   0.51782209   0.00549467
6334.00   0.51362680   0.00543096
6336.00   0.50566559   0.00531725
6338.00   0.49505188   0.00516515
6340.00   0.48284598   0.00500982
6342.00   0.47126958   0.00493013
6344.00   0.45803571   0.00487238
6346.00   0.44692928   0.00489400
6348.00   0.43436585   0.00505484
6350.00   0.42792618   0.00513466
6352.00   0.42838702   0.00506052
6354.00   0.43179418   0.00497631
6356.00   0.43764876   0.00506463
6358.00   0.44900683   0.00527321
6360.00   0.45518488   0.00540816
6362.00   0.45782684   0.00559854
6364.00   0.46218781   0.00564264
6366.00   0.46937117   0.00551061
6368.00   0.47435835   0.00533926
6370.00   0.47244747   0.00521190
6372.00   0.46407913   0.00505767
6374.00   0.45606375   0.00497565
6376.00   0.44193912   0.00491018
6378.00   0.43603133   0.00495824
6380.00   0.43688524   0.00521216
6382.00   0.43994685   0.00537264
6384.00   0.44228402   0.00521438
6386.00   0.44445723   0.00483796
6388.00   0.44783589   0.00474990
6390.00   0.45532477   0.00488586
6392.00   0.45633471   0.00491605
6394.00   0.45643707   0.00494358
6396.00   0.44747353   0.00491780
6398.00   0.41939618   0.00476381
6400.00   0.38478766   0.00454228
6402.00   0.37963137   0.00451225
6404.00   0.40369396   0.00466713
6406.00   0.40275884   0.00469623
6408.00   0.38547629   0.00465312
6410.00   0.37466685   0.00465404
6412.00   0.37194215   0.00474048
6414.00   0.37296776   0.00482880
6416.00   0.37732966   0.00482517
6418.00   0.38914934   0.00478416
6420.00   0.38678344   0.00470488
6422.00   0.36887068   0.00450614
6424.00   0.36034678   0.00440880
6426.00   0.36255690   0.00445891
6428.00   0.36668250   0.00455740
6430.00   0.36597584   0.00462201
6432.00   0.36265548   0.00469392
6434.00   0.36269353   0.00471932
6436.00   0.36777541   0.00469938
6438.00   0.36658013   0.00468408
6440.00   0.35582769   0.00467790
6442.00   0.34857896   0.00467434
6444.00   0.35265291   0.00464973
6446.00   0.36179654   0.00462028
6448.00   0.36540695   0.00463027
6450.00   0.36718918   0.00469954
6452.00   0.36883256   0.00469954
6454.00   0.36698957   0.00464491
6456.00   0.36658658   0.00461458
6458.00   0.37072317   0.00460203
6460.00   0.37655033   0.00460951
6462.00   0.37946436   0.00470517
6464.00   0.38150284   0.00493166
6466.00   0.37989485   0.00499514
6468.00   0.37205249   0.00497808
6470.00   0.36853640   0.00490888
6472.00   0.36994229   0.00472950
6474.00   0.37268318   0.00457496
6476.00   0.37532400   0.00463688
6478.00   0.38112235   0.00485743
6480.00   0.37704779   0.00493221
6482.00   0.36111000   0.00501875
6484.00   0.35198848   0.00495035
6486.00   0.34812142   0.00460416
6488.00   0.34727854   0.00428786
6490.00   0.35150769   0.00430278
6492.00   0.36102849   0.00452217
6494.00   0.36434235   0.00468041
6496.00   0.36403707   0.00494181
6498.00   0.36419100   0.00505662
6500.00   0.36442049   0.00505884
6502.00   0.36336225   0.00500866
6504.00   0.35935725   0.00489860
6506.00   0.35258080   0.00473326
6508.00   0.34792395   0.00473931
6510.00   0.33894920   0.00496152
6512.00   0.34265400   0.00497428
6514.00   0.36083177   0.00483659
6516.00   0.37512554   0.00471281
6518.00   0.38012850   0.00462642
6520.00   0.37944175   0.00455299
6522.00   0.37770188   0.00451745
6524.00   0.37127082   0.00451199
6526.00   0.36972806   0.00452587
6528.00   0.37229221   0.00458653
6530.00   0.37285741   0.00462597
6532.00   0.36927262   0.00463613
6534.00   0.36496490   0.00462720
6536.00   0.36403351   0.00460528
6538.00   0.36627978   0.00456337
6540.00   0.36362259   0.00454720
6542.00   0.35547432   0.00453153
6544.00   0.35111372   0.00454991
6546.00   0.34954739   0.00457976
6548.00   0.35157497   0.00464585
6550.00   0.36144026   0.00481696
6552.00   0.37982401   0.00507418
6554.00   0.38650611   0.00522048
6556.00   0.38468526   0.00535163
6558.00   0.38534030   0.00539597
6560.00   0.38613121   0.00533231
6562.00   0.38635482   0.00521492
6564.00   0.38826320   0.00508280
6566.00   0.39147349   0.00492503
6568.00   0.39215074   0.00482455
6570.00   0.39089748   0.00475276
6572.00   0.38989420   0.00471542
6574.00   0.38899150   0.00472858
6576.00   0.38717902   0.00474357
6578.00   0.38201608   0.00476577
6580.00   0.37706612   0.00479698
6582.00   0.38092360   0.00477129
6584.00   0.39408322   0.00468106
6586.00   0.39840144   0.00463025
6588.00   0.39798804   0.00458516
6590.00   0.39738168   0.00455475
6592.00   0.39638893   0.00455745
6594.00   0.39484642   0.00456129
6596.00   0.39203526   0.00450299
6598.00   0.38657242   0.00435807
6600.00   0.38931204   0.00438447
6602.00   0.40273082   0.00457396
6604.00   0.40838236   0.00470391
6606.00   0.40681821   0.00477297
6608.00   0.40263397   0.00481011
6610.00   0.39765997   0.00484204
6612.00   0.39087243   0.00484922
6614.00   0.39207949   0.00485084
6616.00   0.40388529   0.00486951
6618.00   0.40696467   0.00481743
6620.00   0.40365008   0.00465264
6622.00   0.39861007   0.00451889
6624.00   0.39211510   0.00448398
6626.00   0.38571689   0.00449919
6628.00   0.38890141   0.00450313
6630.00   0.40121289   0.00454879
6632.00   0.41111946   0.00452878
6634.00   0.42787340   0.00444642
6636.00   0.43514378   0.00437713
6638.00   0.42731301   0.00432122
6640.00   0.41341567   0.00427634
6642.00   0.40486695   0.00429511
6644.00   0.39481269   0.00438682
6646.00   0.39227755   0.00443519
6648.00   0.39791048   0.00444858
6650.00   0.40139915   0.00451290
6652.00   0.40275398   0.00464575
6654.00   0.40459429   0.00476274
6656.00   0.40815742   0.00481178
6658.00   0.41343248   0.00482291
6660.00   0.41284828   0.00483765
6662.00   0.40261440   0.00484215
6664.00   0.40256000   0.00483424
6666.00   0.41230559   0.00483278
6668.00   0.42446981   0.00479721
6670.00   0.43824680   0.00467297
6672.00   0.45526689   0.00448295
6674.00   0.45124158   0.00440697
6676.00   0.42026728   0.00442901
6678.00   0.40859136   0.00440728
6680.00   0.41101155   0.00438481
6682.00   0.41246004   0.00435510
6684.00   0.40859511   0.00429724
6686.00   0.40279052   0.00423359
6688.00   0.39515507   0.00425102
6690.00   0.37958331   0.00433960
6692.00   0.37768170   0.00442589
6694.00   0.38667016   0.00457734
6696.00   0.39720728   0.00465187
6698.00   0.40917693   0.00460003
6700.00   0.42129984   0.00450483
6702.00   0.42552434   0.00451200
6704.00   0.41940668   0.00458982
6706.00   0.42508106   0.00463436
6708.00   0.44325016   0.00468666
6710.00   0.45208763   0.00471489
6712.00   0.44934703   0.00471844
6714.00   0.44207497   0.00472041
6716.00   0.43295860   0.00474849
6718.00   0.41854653   0.00481145
6720.00   0.41365767   0.00486430
6722.00   0.41427632   0.00497393
6724.00   0.41776365   0.00496552
6726.00   0.42884788   0.00482507
6728.00   0.43840423   0.00465545
6730.00   0.43886359   0.00452190
6732.00   0.43434979   0.00440003
6734.00   0.43176195   0.00444007
6736.00   0.42685790   0.00474582
6738.00   0.42536950   0.00478666
6740.00   0.42605826   0.00462879
6742.00   0.42903988   0.00446727
6744.00   0.43734865   0.00434249
6746.00   0.44838732   0.00423419
6748.00   0.44781508   0.00425128
6750.00   0.43942402   0.00445450
6752.00   0.42798172   0.00448113
6754.00   0.40672159   0.00440464
6756.00   0.39061075   0.00431494
6758.00   0.38355190   0.00416918
6760.00   0.38112445   0.00404807
6762.00   0.37814857   0.00421038
6764.00   0.37554014   0.00467746
6766.00   0.37835293   0.00476274
6768.00   0.38470879   0.00461390
6770.00   0.39551249   0.00446995
6772.00   0.41517262   0.00428360
6774.00   0.43419158   0.00411098
6776.00   0.44131090   0.00407415
6778.00   0.44075495   0.00413898
6780.00   0.44437216   0.00420492
6782.00   0.44918688   0.00436626
6784.00   0.45189381   0.00442074
6786.00   0.45354974   0.00435694
6788.00   0.45363197   0.00429760
6790.00   0.45182966   0.00432750
6792.00   0.44903132   0.00439803
6794.00   0.44675757   0.00438288
6796.00   0.44321552   0.00430115
6798.00   0.44220917   0.00423437
6800.00   0.44468516   0.00411219
6802.00   0.44547130   0.00405946
6804.00   0.44298595   0.00417176
6806.00   0.43960245   0.00437089
6808.00   0.43787386   0.00441897
6810.00   0.43486719   0.00436344
6812.00   0.43609886   0.00433323
6814.00   0.44255544   0.00427476
6816.00   0.44763805   0.00423859
6818.00   0.44861126   0.00419019
6820.00   0.44853701   0.00419995
6822.00   0.45266525   0.00442701
6824.00   0.46212004   0.00485528
6826.00   0.45771018   0.00513336
6828.00   0.43884119   0.00549293
6830.00   0.42610376   0.00559349
6832.00   0.41398706   0.00537573
6834.00   0.40846391   0.00504102
6836.00   0.42174900   0.00479935
6838.00   0.45205174   0.00455102
6840.00   0.46076435   0.00440311
6842.00   0.45673673   0.00437250
6844.00   0.45246299   0.00432732
6846.00   0.44267941   0.00428617
6848.00   0.43477339   0.00426136
6850.00   0.43304612   0.00426094
6852.00   0.43407094   0.00428621
6854.00   0.43668039   0.00433462
6856.00   0.44440392   0.00433665
6858.00   0.44754872   0.00451902
6860.00   0.44882117   0.00482924
6862.00   0.44732505   0.00518210
6864.00   0.43946581   0.00567635
6866.00   0.42850195   0.00618358
6868.00   0.42745459   0.00620605
6870.00   0.43357997   0.00576205
6872.00   0.43924831   0.00547663
6874.00   0.44889854   0.00509324
6876.00   0.45649034   0.00479302
6878.00   0.46180223   0.00463308
6880.00   0.46465355   0.00458704
6882.00   0.46237241   0.00461572
6884.00   0.45415744   0.00477187
6886.00   0.44847158   0.00479832
6888.00   0.43862718   0.00472348
6890.00   0.43712945   0.00471750
6892.00   0.44781741   0.00479747
6894.00   0.45848823   0.00486699
6896.00   0.45836104   0.00487111
6898.00   0.45137075   0.00485327
6900.00   0.44693471   0.00479447
6902.00   0.43832625   0.00464997
6904.00   0.43741505   0.00456696
6906.00   0.44460084   0.00449433
6908.00   0.45252538   0.00449971
6910.00   0.45651902   0.00467665
6912.00   0.45748748   0.00495049
6914.00   0.45644242   0.00502385
6916.00   0.45121107   0.00497891
6918.00   0.44890702   0.00491858
6920.00   0.44477053   0.00477434
6922.00   0.44504921   0.00464737
6924.00   0.45475918   0.00456407
6926.00   0.46823837   0.00449776
6928.00   0.47087036   0.00444749
6930.00   0.46484192   0.00442363
6932.00   0.46271963   0.00440284
6934.00   0.46033229   0.00438426
6936.00   0.45894836   0.00438902
6938.00   0.45838650   0.00440056
6940.00   0.45814164   0.00445409
6942.00   0.45839916   0.00463125
6944.00   0.45896894   0.00495536
6946.00   0.46097749   0.00505917
6948.00   0.46970439   0.00505290
6950.00   0.46808402   0.00498273
6952.00   0.44947518   0.00478677
6954.00   0.43211997   0.00457925
6956.00   0.43404391   0.00452126
6958.00   0.44932230   0.00457607
6960.00   0.45905419   0.00453937
6962.00   0.47323352   0.00441276
6964.00   0.47946098   0.00439850
6966.00   0.47817840   0.00452154
6968.00   0.47484919   0.00461514
6970.00   0.47249135   0.00461628
6972.00   0.47059056   0.00457809
6974.00   0.47147615   0.00455972
6976.00   0.47606780   0.00451305
6978.00   0.47811013   0.00452533
6980.00   0.47894037   0.00462467
6982.00   0.47907367   0.00466642
6984.00   0.47997791   0.00457981
6986.00   0.48100533   0.00443686
6988.00   0.47964510   0.00439084
6990.00   0.47492844   0.00439775
6992.00   0.47396910   0.00438590
6994.00   0.47706342   0.00436805
6996.00   0.47713813   0.00437567
6998.00   0.47254968   0.00442464
7000.00   0.46674351   0.00447511
7002.00   0.46257900   0.00446105
7004.00   0.45658624   0.00437642
7006.00   0.46157514   0.00438973
7008.00   0.48223159   0.00447413
7010.00   0.49203017   0.00455400
7012.00   0.49016137   0.00465596
7014.00   0.48446624   0.00471264
7016.00   0.47919914   0.00464880
7018.00   0.47127801   0.00448048
7020.00   0.47093901   0.00437944
7022.00   0.47727554   0.00418721
7024.00   0.48229992   0.00422889
7026.00   0.48933542   0.00458620
7028.00   0.49501407   0.00488742
7030.00   0.49497487   0.00494517
7032.00   0.49131976   0.00486547
7034.00   0.49091652   0.00475661
7036.00   0.49260183   0.00446295
7038.00   0.49176070   0.00435917
7040.00   0.49093483   0.00439863
7042.00   0.48821732   0.00447193
7044.00   0.47986880   0.00456085
7046.00   0.47007428   0.00465783
7048.00   0.46954580   0.00466327
7050.00   0.47645873   0.00457838
7052.00   0.48084848   0.00455498
7054.00   0.48768230   0.00456707
7056.00   0.49148755   0.00455286
7058.00   0.49137013   0.00451357
7060.00   0.48933309   0.00446825
7062.00   0.48572050   0.00442449
7064.00   0.47764064   0.00437086
7066.00   0.47794840   0.00437171
7068.00   0.48669960   0.00437955
7070.00   0.49150661   0.00447878
7072.00   0.49260148   0.00473708
7074.00   0.49301229   0.00492973
7076.00   0.49187855   0.00489893
7078.00   0.48849979   0.00472268
7080.00   0.49425198   0.00469912
7082.00   0.51304127   0.00475510
7084.00   0.51990220   0.00480151
7086.00   0.51642828   0.00489762
7088.00   0.51266238   0.00493614
7090.00   0.51295201   0.00484330
7092.00   0.51499480   0.00467201
7094.00   0.51758242   0.00462283
7096.00   0.52192801   0.00467002
7098.00   0.52475312   0.00466567
7100.00   0.52629232   0.00464357
7102.00   0.52957574   0.00462390
7104.00   0.53481942   0.00460303
7106.00   0.53990251   0.00457776
7108.00   0.54350600   0.00455692
7110.00   0.54802316   0.00453664
7112.00   0.54697803   0.00451321
7114.00   0.54108611   0.00448802
7116.00   0.53423655   0.00446063
7118.00   0.52261180   0.00440834
7120.00   0.51179628   0.00438307
7122.00   0.51375693   0.00444559
7124.00   0.52725083   0.00455586
7126.00   0.52984971   0.00469677
7128.00   0.52561983   0.00498087
7130.00   0.52403466   0.00507460
7132.00   0.52403679   0.00492931
7134.00   0.52570081   0.00475072
7136.00   0.52993128   0.00469419
7138.00   0.53658110   0.00467378
7140.00   0.53649750   0.00465522
7142.00   0.53053945   0.00463145
7144.00   0.52586600   0.00467498
7146.00   0.51916957   0.00479321
7148.00   0.51556477   0.00490715
7150.00   0.51925525   0.00500901
7152.00   0.52673864   0.00508408
7154.00   0.52413848   0.00498780
7156.00   0.51073095   0.00462034
7158.00   0.50552538   0.00448993
7160.00   0.50190799   0.00448176
7162.00   0.50480294   0.00454193
7164.00   0.51859748   0.00469658
7166.00   0.53606609   0.00487189
7168.00   0.53952557   0.00492873
7170.00   0.53114149   0.00493059
7172.00   0.53028870   0.00490741
7174.00   0.53215104   0.00480833
7176.00   0.53355959   0.00474833
7178.00   0.53523222   0.00474270
7180.00   0.53559408   0.00474866
7182.00   0.53204554   0.00473942
7184.00   0.52550915   0.00471258
7186.00   0.52135289   0.00477353
7188.00   0.51640952   0.00493687
7190.00   0.51466760   0.00504504
7192.00   0.51556963   0.00512174
7194.00   0.51949008   0.00515865
7196.00   0.53033195   0.00513620
7198.00   0.54800162   0.00506356
7200.00   0.55411202   0.00498864
7202.00   0.55215484   0.00486190
7204.00   0.55092716   0.00478735
7206.00   0.54632017   0.00475797
7208.00   0.54224235   0.00472410
7210.00   0.54320109   0.00468138
7212.00   0.54605108   0.00464331
7214.00   0.54219535   0.00462013
7216.00   0.53168949   0.00457657
7218.00   0.52537626   0.00463452
7220.00   0.51814991   0.00484445
7222.00   0.51581076   0.00494524
7224.00   0.51938924   0.00482716
7226.00   0.52702472   0.00465353
7228.00   0.53819135   0.00478819
7230.00   0.55717528   0.00514979
7232.00   0.56671819   0.00548610
7234.00   0.57262483   0.00593556
7236.00   0.57361066   0.00627137
7238.00   0.56896496   0.00651356
7240.00   0.55878231   0.00666961
7242.00   0.54326165   0.00676407
7244.00   0.52052999   0.00682628
7246.00   0.51250222   0.00667536
7248.00   0.51202227   0.00616735
7250.00   0.51827921   0.00586195
7252.00   0.53917962   0.00579468
7254.00   0.55844617   0.00578527
7256.00   0.56384441   0.00570300
7258.00   0.56291848   0.00561581
7260.00   0.56117406   0.00545986
7262.00   0.55452466   0.00514047
7264.00   0.54896021   0.00500280
7266.00   0.54501215   0.00498521
7268.00   0.53951386   0.00510430
7270.00   0.52908087   0.00539757
7272.00   0.51706973   0.00580801
7274.00   0.51569659   0.00616033
7276.00   0.52374148   0.00668642
7278.00   0.52910823   0.00679392
7280.00   0.53970909   0.00655976
7282.00   0.54342830   0.00627506
7284.00   0.53310871   0.00595769
7286.00   0.51984805   0.00560824
7288.00   0.52310023   0.00541604
7290.00   0.54087496   0.00537076
7292.00   0.54597220   0.00526913
7294.00   0.54749650   0.00513896
7296.00   0.54309461   0.00508553
7298.00   0.53118402   0.00514072
7300.00   0.51767829   0.00522599
7302.00   0.50714579   0.00526055
7304.00   0.49706861   0.00527601
7306.00   0.48883705   0.00532889
7308.00   0.47990318   0.00537383
7310.00   0.47651806   0.00549257
7312.00   0.48094532   0.00572248
7314.00   0.48717153   0.00591789
7316.00   0.49088071   0.00601444
7318.00   0.49455687   0.00605224
7320.00   0.49717182   0.00598448
7322.00   0.49890326   0.00573519
7324.00   0.50014296   0.00559852
7326.00   0.50297204   0.00550642
7328.00   0.50137705   0.00542248
7330.00   0.49099295   0.00533125
7332.00   0.47731183   0.00526515
7334.00   0.47581881   0.00537877
7336.00   0.48428623   0.00565795
7338.00   0.48856750   0.00593472
7340.00   0.49529743   0.00643567
7342.00   0.49808912   0.00662252
7344.00   0.49315539   0.00635390
7346.00   0.48568565   0.00584875
7348.00   0.48404936   0.00547375
7350.00   0.48460473   0.00500809
7352.00   0.48718612   0.00484861
7354.00   0.49628636   0.00496682
7356.00   0.49884143   0.00515222
7358.00   0.49264498   0.00548393
7360.00   0.48466420   0.00580893
7362.00   0.47896627   0.00595339
7364.00   0.47170706   0.00601183
7366.00   0.47588728   0.00600608
7368.00   0.49426359   0.00588278
7370.00   0.50514007   0.00577536
7372.00   0.51188493   0.00571041
7374.00   0.51445529   0.00560961
7376.00   0.51075232   0.00536874
7378.00   0.50155820   0.00501840
7380.00   0.49986638   0.00487777
7382.00   0.50217462   0.00489885
7384.00   0.50559485   0.00492159
7386.00   0.51250264   0.00501518
7388.00   0.51734081   0.00511465
7390.00   0.51788649   0.00518935
7392.00   0.51642486   0.00525337
7394.00   0.51501706   0.00531345
7396.00   0.51159561   0.00537627
7398.00   0.50754857   0.00543153
7400.00   0.50222734   0.00551300
7402.00   0.49790664   0.00552362
7404.00   0.49262364   0.00545352
7406.00   0.48668984   0.00533975
7408.00   0.48258106   0.00520691
7410.00   0.47817567   0.00501617
7412.00   0.47875181   0.00489162
7414.00   0.48254593   0.00478511
7416.00   0.49019095   0.00473333
7418.00   0.50501908   0.00476843
7420.00   0.51952544   0.00482452
7422.00   0.52249646   0.00482530
7424.00   0.51529622   0.00478130
7426.00   0.51691799   0.00484701
7428.00   0.52590644   0.00501838
7430.00   0.52835205   0.00514489
7432.00   0.52147418   0.00524014
7434.00   0.51579225   0.00531815
7436.00   0.51872814   0.00538037
7438.00   0.52636036   0.00542697
7440.00   0.52720112   0.00546308
7442.00   0.52152328   0.00553237
7444.00   0.52142088   0.00548163
7446.00   0.52541068   0.00530092
7448.00   0.53044060   0.00513129
7450.00   0.53536236   0.00500242
7452.00   0.53979319   0.00490033
7454.00   0.54309475   0.00486819
7456.00   0.54592511   0.00489922
7458.00   0.54842559   0.00494800
7460.00   0.54944751   0.00506166
7462.00   0.55226111   0.00514757
7464.00   0.55771628   0.00515603
7466.00   0.56243777   0.00515554
7468.00   0.56311318   0.00527429
7470.00   0.55997261   0.00550655
7472.00   0.56018919   0.00558679
7474.00   0.56362465   0.00555543
7476.00   0.56392550   0.00555592
7478.00   0.55945471   0.00560306
7480.00   0.55505276   0.00563867
7482.00   0.55436435   0.00560556
7484.00   0.55490389   0.00552930
7486.00   0.55499300   0.00549452
7488.00   0.55601761   0.00547862
7490.00   0.55596715   0.00545539
7492.00   0.55517027   0.00546557
7494.00   0.55305290   0.00545002
7496.00   0.54638669   0.00535206
7498.00   0.53769964   0.00520247
7500.00   0.54197893   0.00511217
7502.00   0.56273308   0.00506839
7504.00   0.56990767   0.00498577
7506.00   0.57170111   0.00484964
7508.00   0.57049456   0.00477218
7510.00   0.56331825   0.00476358
7512.00   0.55330738   0.00481813
7514.00   0.55171400   0.00502006
7516.00   0.55593309   0.00542873
7518.00   0.56116092   0.00566116
7520.00   0.57190570   0.00583231
7522.00   0.57865602   0.00596831
7524.00   0.58175343   0.00609714
7526.00   0.58307770   0.00618309
7528.00   0.58236375   0.00619012
7530.00   0.57883427   0.00615399
7532.00   0.57848966   0.00597511
7534.00   0.57980195   0.00550868
7536.00   0.58166534   0.00523042
7538.00   0.58448762   0.00518533
7540.00   0.58636346   0.00523785
7542.00   0.58687094   0.00529657
7544.00   0.58612925   0.00540735
7546.00   0.58673996   0.00543531
7548.00   0.58896533   0.00540598
7550.00   0.58952445   0.00539042
7552.00   0.58713013   0.00536538
7554.00   0.58484626   0.00532913
7556.00   0.58570904   0.00529259
7558.00   0.58980244   0.00526526
7560.00   0.59237006   0.00533881
7562.00   0.59488332   0.00551276
7564.00   0.59653029   0.00566216
7566.00   0.59942025   0.00586835
7568.00   0.60111034   0.00601290
7570.00   0.59970790   0.00604225
7572.00   0.59709859   0.00596635
7574.00   0.59708393   0.00583395
7576.00   0.59739020   0.00557342
7578.00   0.60020345   0.00544283
7580.00   0.60830477   0.00538838
7582.00   0.61231586   0.00534566
7584.00   0.60942203   0.00529735
7586.00   0.60290605   0.00529574
7588.00   0.59663045   0.00537589
7590.00   0.58661944   0.00545759
7592.00   0.58989906   0.00593625
7594.00   0.60768396   0.00656847
7596.00   0.61940077   0.00744537
7598.00   0.63267091   0.00867244
7600.00   0.63642916   0.00976661
7602.00   0.61411363   0.01056020
7604.00   0.57052732   0.01124931
7606.00   0.55553636   0.01110030
7608.00   0.55180666   0.00984034
7610.00   0.56097773   0.00902622
7612.00   0.59577650   0.00838015
7614.00   0.62336081   0.00784050
7616.00   0.62517887   0.00747759
7618.00   0.61364740   0.00728081
7620.00   0.61098129   0.00714341
7622.00   0.60788223   0.00711072
7624.00   0.60907942   0.00721201
7626.00   0.61922520   0.00754746
7628.00   0.62153721   0.00776126
7630.00   0.60701093   0.00777576
7632.00   0.58645844   0.00768704
7634.00   0.58265337   0.00759917
7636.00   0.59021771   0.00745346
7638.00   0.58962408   0.00736099
7640.00   0.58073798   0.00730316
7642.00   0.58320105   0.00723475
7644.00   0.60085127   0.00716503
7646.00   0.61985028   0.00705998
7648.00   0.62290475   0.00690966
7650.00   0.61288995   0.00673747
7652.00   0.61325452   0.00655415
7654.00   0.61945015   0.00632623
7656.00   0.62326032   0.00612041
7658.00   0.62114218   0.00593582
7660.00   0.62172845   0.00580129
7662.00   0.63307047   0.00573702
7664.00   0.65177903   0.00572511
7666.00   0.66326216   0.00577563
7668.00   0.67739210   0.00602988
7670.00   0.67845568   0.00602904
7672.00   0.66040942   0.00571981
7674.00   0.64700279   0.00541009
7676.00   0.65170923   0.00531723
7678.00   0.66486943   0.00532728
7680.00   0.66630274   0.00528891
7682.00   0.65981376   0.00524115
7684.00   0.65733242   0.00524280
7686.00   0.65664738   0.00527378
7688.00   0.65506876   0.00533399
7690.00   0.64999962   0.00543735
7692.00   0.64455763   0.00557824
7694.00   0.64617559   0.00569406
7696.00   0.65406337   0.00582354
7698.00   0.66087750   0.00582936
7700.00   0.67399663   0.00564361
7702.00   0.67814630   0.00559558
7704.00   0.66964146   0.00564730
7706.00   0.65716735   0.00586677
7708.00   0.65004170   0.00638807
7710.00   0.64303946   0.00717897
7712.00   0.64737883   0.00762781
7714.00   0.66893893   0.00806354
7716.00   0.67819414   0.00819136
7718.00   0.67597553   0.00798412
7720.00   0.66942412   0.00764972
7722.00   0.66281968   0.00731311
7724.00   0.65503410   0.00687508
7726.00   0.65298873   0.00650038
7728.00   0.65457436   0.00608111
7730.00   0.65828785   0.00580803
7732.00   0.66794062   0.00569714
7734.00   0.67506933   0.00563518
7736.00   0.67422444   0.00553591
7738.00   0.67101735   0.00545781
7740.00   0.67976692   0.00564188
7742.00   0.70532665   0.00605214
7744.00   0.71097371   0.00645916
7746.00   0.70356217   0.00702382
7748.00   0.69406703   0.00740185
7750.00   0.68101496   0.00759238
7752.00   0.66688818   0.00765240
7754.00   0.66319719   0.00751599
7756.00   0.66697836   0.00708565
7758.00   0.67002857   0.00684621
7760.00   0.67764771   0.00669005
7762.00   0.68222958   0.00650902
7764.00   0.68092036   0.00630435
7766.00   0.67839292   0.00611431
7768.00   0.68067265   0.00593091
7770.00   0.68621442   0.00571252
7772.00   0.69139719   0.00568305
7774.00   0.70065841   0.00587591
7776.00   0.70359477   0.00598161
7778.00   0.70043054   0.00603385
7780.00   0.69406545   0.00604875
7782.00   0.68568200   0.00598166
7784.00   0.67507806   0.00582461
7786.00   0.67416543   0.00594312
7788.00   0.68577191   0.00633538
7790.00   0.68706968   0.00657377
7792.00   0.68300834   0.00679251
7794.00   0.67469698   0.00689060
7796.00   0.65748554   0.00677753
7798.00   0.63614452   0.00653759
7800.00   0.63748819   0.00646169
7802.00   0.66089791   0.00649711
7804.00   0.67396379   0.00644385
7806.00   0.69133326   0.00633961
7808.00   0.69799486   0.00624961
7810.00   0.68607274   0.00614668
7812.00   0.66754451   0.00609897
7814.00   0.66257191   0.00624478
7816.00   0.66610381   0.00654327
7818.00   0.66567627   0.00684059
7820.00   0.66725177   0.00734464
7822.00   0.66418114   0.00756074
7824.00   0.65555733   0.00744675
7826.00   0.64542219   0.00717161
7828.00   0.63718978   0.00684302
7830.00   0.62769485   0.00631336
7832.00   0.62466121   0.00609204
7834.00   0.62741384   0.00614814
7836.00   0.63066325   0.00614603
7838.00   0.63683051   0.00611667
7840.00   0.64228079   0.00612330
7842.00   0.64029998   0.00616568
7844.00   0.63260168   0.00623831
7846.00   0.63410461   0.00642785
7848.00   0.64408857   0.00674553
7850.00   0.64837554   0.00701966
7852.00   0.65066841   0.00733639
7854.00   0.65175188   0.00758187
7856.00   0.65131095   0.00773117
7858.00   0.64855969   0.00779427
7860.00   0.63868582   0.00769458
7862.00   0.61579970   0.00733496
7864.00   0.60774776   0.00715909
7866.00   0.60780892   0.00700101
7868.00   0.61195472   0.00697761
7870.00   0.62658271   0.00720886
7872.00   0.64152518   0.00747218
7874.00   0.63113934   0.00742461
7876.00   0.59362060   0.00714579
7878.00   0.58926818   0.00693548
7880.00   0.61074764   0.00661124
7882.00   0.62340119   0.00642880
7884.00   0.62999016   0.00643490
7886.00   0.63102815   0.00649729
7888.00   0.62146598   0.00650843
7890.00   0.60107461   0.00653403
7892.00   0.58986717   0.00648108
7894.00   0.58197334   0.00638524
7896.00   0.57542729   0.00622164
7898.00   0.56845835   0.00587763
7900.00   0.56566390   0.00558890
7902.00   0.57081914   0.00557779
7904.00   0.58153293   0.00576741
7906.00   0.58869657   0.00614878
7908.00   0.59487990   0.00681752
7910.00   0.60169065   0.00730832
7912.00   0.61365524   0.00775696
7914.00   0.62154323   0.00812164
7916.00   0.61585048   0.00847182
7918.00   0.60206640   0.00876012
7920.00   0.59564844   0.00871354
7922.00   0.58985513   0.00833551
7924.00   0.58717686   0.00797897
7926.00   0.58791506   0.00735459
7928.00   0.59010589   0.00690748
7930.00   0.59397987   0.00690532
7932.00   0.59891239   0.00704567
7934.00   0.59957540   0.00682241
7936.00   0.59787995   0.00631676
7938.00   0.59355128   0.00603173
7940.00   0.58370194   0.00574568
7942.00   0.57684520   0.00568938
7944.00   0.57632002   0.00603082
7946.00   0.57604343   0.00639564
7948.00   0.56632495   0.00637495
7950.00   0.54650754   0.00608213
7952.00   0.54862446   0.00604856
7954.00   0.56830719   0.00605501
7956.00   0.58717707   0.00624910
7958.00   0.61261460   0.00673202
7960.00   0.63329995   0.00716960
7962.00   0.64016601   0.00739653
7964.00   0.63759238   0.00754367
7966.00   0.62437308   0.00748687
7968.00   0.58561721   0.00710707
7970.00   0.57139197   0.00689281
7972.00   0.57353234   0.00675281
7974.00   0.58274245   0.00668994
7976.00   0.59958595   0.00672665
7978.00   0.62082896   0.00684515
7980.00   0.62600198   0.00689269
7982.00   0.61925662   0.00690279
7984.00   0.61510506   0.00687494
7986.00   0.60656533   0.00668980
7988.00   0.60069528   0.00671568
7990.00   0.59738949   0.00704831
7992.00   0.59690443   0.00744961
7994.00   0.60832429   0.00766151
7996.00   0.63818452   0.00784141
7998.00   0.63679484   0.00775195
8000.00   0.60519677   0.00731387
8002.00   0.58735281   0.00696397
8004.00   0.58079219   0.00663057
8006.00   0.58114195   0.00635833
8008.00   0.58942986   0.00629490
8010.00   0.60743630   0.00639682
8012.00   0.60972786   0.00658356
8014.00   0.59586692   0.00704773
8016.00   0.59327611   0.00723077
8018.00   0.60339963   0.00709971
8020.00   0.61417070   0.00696596
8022.00   0.61715797   0.00707920
8024.00   0.61644655   0.00730490
8026.00   0.61456597   0.00728857
8028.00   0.60913950   0.00713676
8030.00   0.60494167   0.00690098
8032.00   0.60247073   0.00641384
8034.00   0.59816387   0.00604780
8036.00   0.58673096   0.00602079
8038.00   0.57463837   0.00612714
8040.00   0.57936156   0.00601839
8042.00   0.60355285   0.00573378
8044.00   0.60897884   0.00565991
8046.00   0.60303673   0.00571922
8048.00   0.59783500   0.00581676
8050.00   0.59141439   0.00588536
8052.00   0.58805203   0.00600204
8054.00   0.59906426   0.00635769
8056.00   0.62959605   0.00697827
8058.00   0.63291517   0.00710826
8060.00   0.61360344   0.00685236
8062.00   0.60048738   0.00669606
8064.00   0.59627190   0.00663609
8066.00   0.59514529   0.00654763
8068.00   0.59053913   0.00632297
8070.00   0.58435503   0.00595178
8072.00   0.59184554   0.00579287
8074.00   0.61680847   0.00575190
8076.00   0.63044128   0.00580992
8078.00   0.63709360   0.00605247
8080.00   0.64119571   0.00620900
8082.00   0.64543271   0.00612458
8084.00   0.64795715   0.00589233
8086.00   0.63796976   0.00584106
8088.00   0.60200971   0.00587889
8090.00   0.59720111   0.00594662
8092.00   0.62076023   0.00603738
8094.00   0.64063025   0.00617227
8096.00   0.64976659   0.00641345
8098.00   0.65355912   0.00667311
8100.00   0.64213499   0.00669216
8102.00   0.60763532   0.00650099
8104.00   0.59315941   0.00629549
8106.00   0.58384523   0.00588404
8108.00   0.58442414   0.00562894
8110.00   0.60473770   0.00558214
8112.00   0.62990046   0.00564486
8114.00   0.63161176   0.00578790
8116.00   0.61674097   0.00614416
8118.00   0.61557108   0.00614854
8120.00   0.61871380   0.00580571
8122.00   0.62442935   0.00561820
8124.00   0.63831609   0.00564242
8126.00   0.65163183   0.00572556
8128.00   0.65586331   0.00575761
8130.00   0.65464860   0.00578951
8132.00   0.64748311   0.00581173
8134.00   0.62618133   0.00583573
8136.00   0.61794224   0.00583154
8138.00   0.62046868   0.00572960
8140.00   0.62393826   0.00573867
8142.00   0.62541789   0.00603089
8144.00   0.62689397   0.00643891
8146.00   0.62732697   0.00647543
8148.00   0.62740815   0.00619673
8150.00   0.62656331   0.00604023
8152.00   0.62562516   0.00579358
8154.00   0.62053511   0.00569272
8156.00   0.60776603   0.00588155
8158.00   0.59453815   0.00615529
8160.00   0.59708768   0.00615862
8162.00   0.61648336   0.00594386
8164.00   0.62021869   0.00590591
8166.00   0.61373824   0.00595458
8168.00   0.60989258   0.00599930
8170.00   0.61097044   0.00602568
8172.00   0.61434618   0.00608478
8174.00   0.61522487   0.00622748
8176.00   0.61483225   0.00644920
8178.00   0.61331210   0.00666985
8180.00   0.60980555   0.00691915
8182.00   0.60668892   0.00716191
8184.00   0.60343429   0.00742744
8186.00   0.60289815   0.00768551
8188.00   0.60565767   0.00792813
8190.00   0.61120510   0.00818527
8192.00   0.61510810   0.00824985
8194.00   0.62054250   0.00817098
8196.00   0.62157691   0.00801532
8198.00   0.61877927   0.00775087
8200.00   0.61700195   0.00745100
8202.00   0.61642665   0.00710790
8204.00   0.61676872   0.00671919
8206.00   0.62110159   0.00645833
8208.00   0.63124448   0.00623577
8210.00   0.63682783   0.00618445
8212.00   0.63991854   0.00640109
8214.00   0.64355695   0.00656020
8216.00   0.64907208   0.00656892
8218.00   0.65412858   0.00650098
8220.00   0.65455711   0.00639442
8222.00   0.64937723   0.00614431
8224.00   0.64994183   0.00609728
8226.00   0.65556413   0.00625175
8228.00   0.65822634   0.00631929
8230.00   0.65744650   0.00627427
8232.00   0.65396360   0.00616876
8234.00   0.64635792   0.00600446
8236.00   0.63241315   0.00572436
8238.00   0.63157314   0.00563865
8240.00   0.64272410   0.00572183
8242.00   0.64999840   0.00576601
8244.00   0.65694571   0.00580642
8246.00   0.66005608   0.00583529
8248.00   0.65497321   0.00580925
8250.00   0.64334050   0.00575175
8252.00   0.63771808   0.00582808
8254.00   0.63221046   0.00605860
8256.00   0.63233647   0.00617058
8258.00   0.63875568   0.00625927
8260.00   0.64557892   0.00626651
8262.00   0.64987653   0.00612960
8264.00   0.65326875   0.00591969
8266.00   0.65994099   0.00586203
8268.00   0.67104852   0.00582628
8270.00   0.67782107   0.00597016
8272.00   0.68179610   0.00624190
8274.00   0.68497145   0.00663391
8276.00   0.68812913   0.00719831
8278.00   0.69190001   0.00781456
8280.00   0.69483969   0.00822875
8282.00   0.69783539   0.00857181
8284.00   0.69433063   0.00879539
8286.00   0.68028688   0.00887172
8288.00   0.67351055   0.00896080
8290.00   0.67477664   0.00909882
8292.00   0.68508765   0.00921112
8294.00   0.70394346   0.00924065
8296.00   0.73460719   0.00922335
8298.00   0.73437458   0.00912759
8300.00   0.70747471   0.00904558
8302.00   0.68484104   0.00871314
8304.00   0.65797281   0.00791234
8306.00   0.63537246   0.00707138
8308.00   0.62657386   0.00670315
8310.00   0.62844065   0.00664720
8312.00   0.63489357   0.00649744
8314.00   0.65761214   0.00640072
8316.00   0.66495377   0.00635601
8318.00   0.66090101   0.00640158
8320.00   0.65261692   0.00641288
8322.00   0.64047644   0.00635790
8324.00   0.62548760   0.00625486
8326.00   0.62783778   0.00606156
8328.00   0.64895615   0.00557506
8330.00   0.65900791   0.00553317
8332.00   0.66726279   0.00562642
8334.00   0.67135960   0.00613245
8336.00   0.66741446   0.00709951
8338.00   0.65787876   0.00822770
8340.00   0.65424845   0.00925144
8342.00   0.65284020   0.01058675
8344.00   0.65523550   0.01096062
8346.00   0.66492385   0.01070327
8348.00   0.67018953   0.01025027
8350.00   0.66753346   0.00947487
8352.00   0.66353008   0.00858991
8354.00   0.66585577   0.00806028
8356.00   0.67269063   0.00777385
8358.00   0.66808653   0.00742794
8360.00   0.64986807   0.00710922
8362.00   0.64062113   0.00688985
8364.00   0.63826349   0.00681349
8366.00   0.64305064   0.00676578
8368.00   0.65562132   0.00665094
8370.00   0.67651165   0.00650685
8372.00   0.69070056   0.00644514
8374.00   0.70729324   0.00637738
8376.00   0.71255234   0.00647494
8378.00   0.70498294   0.00677863
8380.00   0.69874519   0.00706474
8382.00   0.70056063   0.00726618
8384.00   0.70516077   0.00742511
8386.00   0.70157921   0.00744383
8388.00   0.68548194   0.00706811
8390.00   0.68352407   0.00731251
8392.00   0.68852019   0.00801389
8394.00   0.70281473   0.00870194
8396.00   0.73239037   0.00946744
8398.00   0.76034477   0.01009629
8400.00   0.75141490   0.01001775
8402.00   0.70588011   0.00924783
8404.00   0.69013277   0.00867254
8406.00   0.68585595   0.00778255
8408.00   0.68603891   0.00720233
8410.00   0.69555473   0.00706848
8412.00   0.70581403   0.00714468
8414.00   0.70478931   0.00725093
8416.00   0.69736552   0.00753326
8418.00   0.69322163   0.00752866
8420.00   0.68840694   0.00701364
8422.00   0.68456316   0.00714126
8424.00   0.68714014   0.00798373
8426.00   0.68479136   0.00883104
8428.00   0.66360605   0.00944019
8430.00   0.62977582   0.00996737
8432.00   0.62664106   0.00982944
8434.00   0.65241751   0.00889022
8436.00   0.66365281   0.00816238
8438.00   0.67078626   0.00720992
8440.00   0.67602310   0.00643683
8442.00   0.67720687   0.00621153
8444.00   0.67565870   0.00635781
8446.00   0.67711985   0.00645562
8448.00   0.67794901   0.00672201
8450.00   0.68280545   0.00691685
8452.00   0.69970343   0.00705352
8454.00   0.70290989   0.00729505
8456.00   0.67845583   0.00766493
8458.00   0.64826894   0.00806078
8460.00   0.65005761   0.00843251
8462.00   0.67830360   0.00891344
8464.00   0.69044256   0.00902423
8466.00   0.70412180   0.00891142
8468.00   0.70527411   0.00862065
8470.00   0.68549293   0.00795538
8472.00   0.66734841   0.00720298
8474.00   0.67820078   0.00689966
8476.00   0.71050799   0.00692092
8478.00   0.72339270   0.00675823
8480.00   0.73008507   0.00651950
8482.00   0.73142457   0.00639541
8484.00   0.72216192   0.00629311
8486.00   0.71309683   0.00632733
8488.00   0.71122244   0.00666630
8490.00   0.71185005   0.00720992
8492.00   0.71789333   0.00734761
8494.00   0.73921743   0.00708046
8496.00   0.74104124   0.00714662
8498.00   0.72360036   0.00749648
8500.00   0.70708597   0.00781174
8502.00   0.69782513   0.00802417
8504.00   0.69018936   0.00816726
8506.00   0.68681750   0.00805316
8508.00   0.69053707   0.00762109
8510.00   0.69087869   0.00727393
8512.00   0.68833819   0.00680839
8514.00   0.68933764   0.00645020
8516.00   0.69650334   0.00627037
8518.00   0.70558912   0.00620469
8520.00   0.71070850   0.00615459
8522.00   0.71508157   0.00618775
8524.00   0.71469146   0.00613733
8526.00   0.70911428   0.00591962
8528.00   0.70312089   0.00593915
8530.00   0.69624221   0.00631935
8532.00   0.69011432   0.00670164
8534.00   0.68519253   0.00677410
8536.00   0.68008178   0.00666981
8538.00   0.68248552   0.00672840
8540.00   0.69744650   0.00688675
8542.00   0.70116121   0.00697272
8544.00   0.69227424   0.00703322
8546.00   0.68456307   0.00706475
8548.00   0.68563017   0.00704618
8550.00   0.68970972   0.00697833
8552.00   0.69340062   0.00688629
8554.00   0.70331705   0.00675166
8556.00   0.70267314   0.00660405
8558.00   0.68916085   0.00638792
8560.00   0.67916322   0.00622494
8562.00   0.67776945   0.00616166
8564.00   0.67922848   0.00613956
8566.00   0.67730638   0.00608821
8568.00   0.67175767   0.00599476
8570.00   0.67263609   0.00604394
8572.00   0.67982876   0.00628748
8574.00   0.68497109   0.00640191
8576.00   0.68844041   0.00632513
8578.00   0.69055060   0.00618477
8580.00   0.68643683   0.00613326
8582.00   0.67419556   0.00610666
8584.00   0.67243376   0.00614611
8586.00   0.68158135   0.00628215
8588.00   0.68251368   0.00637173
8590.00   0.67489088   0.00641866
8592.00   0.66506499   0.00647465
8594.00   0.65449896   0.00656789
8596.00   0.64020514   0.00669462
8598.00   0.63733715   0.00667043
8600.00   0.64525932   0.00649270
8602.00   0.65031779   0.00635446
8604.00   0.65415820   0.00619955
8606.00   0.65971676   0.00611241
8608.00   0.66830269   0.00612804
8610.00   0.67823961   0.00621774
8612.00   0.68095613   0.00641590
8614.00   0.67674607   0.00675311
8616.00   0.67508581   0.00705160
8618.00   0.67205673   0.00736853
8620.00   0.67030141   0.00765904
8622.00   0.67361966   0.00792399
8624.00   0.67822620   0.00813942
8626.00   0.67484105   0.00827127
8628.00   0.66378114   0.00837196
8630.00   0.66086161   0.00836228
8632.00   0.66491652   0.00822247
8634.00   0.66476762   0.00806806
8636.00   0.65791827   0.00788169
8638.00   0.65070200   0.00770095
8640.00   0.65027809   0.00763998
8642.00   0.65363857   0.00768116
8644.00   0.66053513   0.00772250
8646.00   0.67876971   0.00783802
8648.00   0.68485403   0.00789301
8650.00   0.67415488   0.00786293
8652.00   0.66197878   0.00784350
8654.00   0.66496781   0.00793541
8656.00   0.67885956   0.00810316
8658.00   0.68013662   0.00818224
8660.00   0.67311355   0.00822350
8662.00   0.66836888   0.00824510
8664.00   0.66402882   0.00827563
8666.00   0.65936422   0.00824028
8668.00   0.65531540   0.00804697
8670.00   0.65140846   0.00772788
8672.00   0.64676234   0.00755289
8674.00   0.63820535   0.00743738
8676.00   0.63713273   0.00737376
8678.00   0.64542004   0.00742594
8680.00   0.65208000   0.00743154
8682.00   0.65086845   0.00731049
8684.00   0.64357987   0.00715096
8686.00   0.63537398   0.00710713
8688.00   0.62287369   0.00721058
8690.00   0.61377290   0.00708494
8692.00   0.60128626   0.00671234
8694.00   0.59847349   0.00644434
8696.00   0.61223829   0.00629905
8698.00   0.62796399   0.00626149
8700.00   0.62351325   0.00643806
8702.00   0.60293362   0.00686833
8704.00   0.59730512   0.00690787
8706.00   0.59917647   0.00663633
8708.00   0.60076925   0.00647326
8710.00   0.60290051   0.00634705
8712.00   0.60785747   0.00624325
8714.00   0.61669913   0.00623295
8716.00   0.62904814   0.00630248
8718.00   0.62580734   0.00632047
8720.00   0.60280907   0.00635647
8722.00   0.59432840   0.00632973
8724.00   0.59813979   0.00619661
8726.00   0.60260692   0.00609382
8728.00   0.60098201   0.00611030
8730.00   0.59812304   0.00618213
8732.00   0.60236457   0.00622995
8734.00   0.61387867   0.00626920
8736.00   0.62088713   0.00635952
8738.00   0.62931713   0.00653321
8740.00   0.63450661   0.00662248
8742.00   0.63375700   0.00657297
8744.00   0.62899345   0.00644408
8746.00   0.61967874   0.00632947
8748.00   0.60238037   0.00603695
8750.00   0.58569336   0.00618677
8752.00   0.56019434   0.00649897
8754.00   0.54679194   0.00716557
8756.00   0.54780218   0.00820326
8758.00   0.55632350   0.00928594
8760.00   0.56653929   0.01022356
8762.00   0.58377385   0.01125927
8764.00   0.58908144   0.01155444
8766.00   0.58710963   0.01109037
8768.00   0.58240348   0.01094828
8770.00   0.56977361   0.01112703
8772.00   0.55906668   0.01128814
8774.00   0.55995014   0.01129115
8776.00   0.56914550   0.01123873
8778.00   0.57420817   0.01091722
8780.00   0.58436263   0.01020839
8782.00   0.58248433   0.00961657
8784.00   0.56930694   0.00895438
8786.00   0.55499548   0.00842415
8788.00   0.54457775   0.00825850
8790.00   0.53560802   0.00830928
8792.00   0.52152365   0.00803990
8794.00   0.50052328   0.00748922
8796.00   0.48634297   0.00712747
8798.00   0.47107860   0.00683673
8800.00   0.46547523   0.00661501
8802.00   0.47559164   0.00646086
8804.00   0.49593213   0.00636835
8806.00   0.51577634   0.00631552
8808.00   0.54386705   0.00625996
8810.00   0.55995584   0.00637676
8812.00   0.56512955   0.00653256
8814.00   0.57432750   0.00694901
8816.00   0.59156826   0.00745683
8818.00   0.60772106   0.00820635
8820.00   0.61071318   0.00945667
8822.00   0.59864151   0.01103531
8824.00   0.61849406   0.01217479
8826.00   0.67526388   0.01354404
8828.00   0.70756966   0.01408893
8830.00   0.72349802   0.01382179
8832.00   0.72082055   0.01319211
8834.00   0.68678108   0.01247457
8836.00   0.62249184   0.01147558
8838.00   0.60219553   0.01062345
8840.00   0.60997978   0.00963323
8842.00   0.61700791   0.00895471
8844.00   0.63322535   0.00863991
8846.00   0.64851832   0.00849683
8848.00   0.65730649   0.00856602
8850.00   0.66112334   0.00878126
8852.00   0.65606552   0.00858692
8854.00   0.63103896   0.00786879
8856.00   0.63087973   0.00769429
8858.00   0.65337396   0.00787237
8860.00   0.66955534   0.00811529
8862.00   0.67593086   0.00845887
8864.00   0.67278329   0.00879149
8866.00   0.64877462   0.00881672
8868.00   0.59145004   0.00863807
8870.00   0.57480267   0.00839496
8872.00   0.58394071   0.00773671
8874.00   0.59633532   0.00750465
8876.00   0.61382222   0.00767596
8878.00   0.63214993   0.00829015
8880.00   0.64209011   0.00959165
8882.00   0.64496174   0.01147109
8884.00   0.65461615   0.01216630
8886.00   0.67307952   0.01241421
8888.00   0.68145740   0.01223877
8890.00   0.67760545   0.01132890
8892.00   0.66840744   0.01023217
8894.00   0.65731648   0.00949394
8896.00   0.64200291   0.00890952
8898.00   0.64563841   0.00884099
8900.00   0.67572087   0.00966214
8902.00   0.68252924   0.00981025
8904.00   0.66953582   0.00943488
8906.00   0.65551767   0.00904039
8908.00   0.64994016   0.00880716
8910.00   0.64608851   0.00870498
8912.00   0.63271242   0.00925819
8914.00   0.61144701   0.01046872
8916.00   0.59088162   0.01129802
8918.00   0.56809348   0.01232475
8920.00   0.54457191   0.01282542
8922.00   0.51279196   0.01269036
8924.00   0.48553066   0.01210883
8926.00   0.49259052   0.01109689
8928.00   0.53012758   0.00888557
8930.00   0.56130552   0.00776748
8932.00   0.60914451   0.00750524
8934.00   0.63937899   0.00758655
8936.00   0.64715251   0.00817231
8938.00   0.64601716   0.00885795
8940.00   0.64882460   0.00919765
8942.00   0.65215802   0.00944436
8944.00   0.64704141   0.00958996
8946.00   0.62737802   0.00950810
8948.00   0.61975926   0.00960704
8950.00   0.62864700   0.00977567
8952.00   0.63884765   0.01013283
8954.00   0.63964307   0.01089493
8956.00   0.63671333   0.01190781
8958.00   0.62667817   0.01214913
8960.00   0.59783027   0.01202353
8962.00   0.59172344   0.01149961
8964.00   0.60968956   0.01009712
8966.00   0.62393257   0.00877411
8968.00   0.61792630   0.00824531
8970.00   0.60525274   0.00818872
8972.00   0.61980245   0.00796162
8974.00   0.66516516   0.00775289
8976.00   0.68374309   0.00775327
8978.00   0.69093361   0.00790880
8980.00   0.69013306   0.00821609
8982.00   0.67719361   0.00873364
8984.00   0.65908352   0.00932406
8986.00   0.65375087   0.00973928
8988.00   0.65574327   0.01014605
8990.00   0.65388769   0.01020138
8992.00   0.64445686   0.00965989
8994.00   0.64989051   0.00960256
8996.00   0.67659089   0.01018315
8998.00   0.70525169   0.01087189
9000.00   0.71514884   0.01132004
9002.00   0.71479064   0.01177873
9004.00   0.71022123   0.01152827
9006.00   0.68982676   0.01031810
9008.00   0.68314496   0.00948661
9010.00   0.69262367   0.00893196
9012.00   0.70462176   0.00855501
9014.00   0.71083435   0.00838373
9016.00   0.71497509   0.00840588
9018.00   0.69933632   0.00817037
9020.00   0.64484617   0.00765452
9022.00   0.63385773   0.00741452
9024.00   0.66598520   0.00737212
9026.00   0.69201994   0.00739694
9028.00   0.69107702   0.00741970
9030.00   0.67877206   0.00751311
9032.00   0.67233279   0.00782298
9034.00   0.66444433   0.00853458
9036.00   0.65895361   0.00865640
9038.00   0.65093017   0.00821501
9040.00   0.65015674   0.00800522
9042.00   0.66453037   0.00825017
9044.00   0.68477577   0.00864157
9046.00   0.69128081   0.00887091
9048.00   0.68821231   0.00910038
9050.00   0.69342196   0.00918473
9052.00   0.70722690   0.00921161
9054.00   0.71161962   0.00906407
9056.00   0.70533291   0.00863258
9058.00   0.69500548   0.00813602
9060.00   0.68578139   0.00784119
9062.00   0.67566791   0.00763342
9064.00   0.67453882   0.00756805
9066.00   0.68558598   0.00771606
9068.00   0.68732220   0.00781551
9070.00   0.68088639   0.00794783
9072.00   0.67465931   0.00803650
9074.00   0.67395079   0.00796921
9076.00   0.67758906   0.00779148
9078.00   0.68284357   0.00781005
9080.00   0.69253668   0.00794149
9082.00   0.69961277   0.00810882
9084.00   0.70133197   0.00840823
9086.00   0.70940146   0.00863708
9088.00   0.73557234   0.00869779
9090.00   0.76955226   0.00866730
9092.00   0.77877736   0.00866224
9094.00   0.76979575   0.00843907
9096.00   0.76202950   0.00869703
9098.00   0.73952022   0.00948750
9100.00   0.73142940   0.00999608
9102.00   0.75067419   0.01017198
9104.00   0.77588636   0.01012821
9106.00   0.77111319   0.00973044
9108.00   0.74337053   0.00872269
9110.00   0.72460327   0.00822768
9112.00   0.69656441   0.00803651
9114.00   0.68431216   0.00789080
9116.00   0.69131425   0.00782047
9118.00   0.70737714   0.00780048
9120.00   0.72248471   0.00772201
9122.00   0.74254298   0.00759115
9124.00   0.75276178   0.00767453
9126.00   0.76284578   0.00801750
9128.00   0.75723380   0.00818953
9130.00   0.73011002   0.00820709
9132.00   0.70274085   0.00821420
9134.00   0.68929967   0.00830454
9136.00   0.68330923   0.00843440
9138.00   0.68249509   0.00850467
9140.00   0.69444904   0.00859088
9142.00   0.69697592   0.00856273
9144.00   0.69221494   0.00833539
9146.00   0.68587664   0.00818794
9148.00   0.67980048   0.00826267
9150.00   0.67381278   0.00844007
9152.00   0.68021369   0.00860376
9154.00   0.70338741   0.00882925
9156.00   0.71405762   0.00904069
9158.00   0.72348791   0.00938969
9160.00   0.72437322   0.00950310
9162.00   0.70798206   0.00925486
9164.00   0.68706325   0.00881706
9166.00   0.68819278   0.00853146
9168.00   0.70558807   0.00824257
9170.00   0.71331352   0.00820283
9172.00   0.72131357   0.00854235
9174.00   0.72506553   0.00864062
9176.00   0.72333050   0.00842242
9178.00   0.71568054   0.00812007
9180.00   0.70071763   0.00798737
9182.00   0.67671630   0.00793307
9184.00   0.67414340   0.00786495
9186.00   0.69155836   0.00780633
9188.00   0.70154577   0.00777810
9190.00   0.71000758   0.00777658
9192.00   0.71429065   0.00781816
9194.00   0.70962754   0.00792751
9196.00   0.69930190   0.00807705
9198.00   0.70307386   0.00806507
9200.00   0.72617307   0.00786577
9202.00   0.72799259   0.00780002
9204.00   0.71000507   0.00773148
9206.00   0.69740969   0.00781071
9208.00   0.69714278   0.00815708
9210.00   0.70247173   0.00860464
9212.00   0.71282348   0.00875438
9214.00   0.73663667   0.00867197
9216.00   0.74708250   0.00870413
9218.00   0.74786392   0.00875745
9220.00   0.75060582   0.00880733
9222.00   0.76153806   0.00884849
9224.00   0.77031016   0.00887010
9226.00   0.76361674   0.00886854
9228.00   0.74471956   0.00884321
9230.00   0.73473895   0.00877625
9232.00   0.72479966   0.00858203
9234.00   0.72046492   0.00854287
9236.00   0.72756919   0.00874394
9238.00   0.73367903   0.00891381
9240.00   0.72388017   0.00873889
9242.00   0.70098504   0.00825080
9244.00   0.70293710   0.00822939
9246.00   0.73204324   0.00866531
9248.00   0.74155363   0.00880505
9250.00   0.73409551   0.00865225
9252.00   0.72345534   0.00848055
9254.00   0.71645704   0.00851520
9256.00   0.70985770   0.00865370
9258.00   0.70230514   0.00858548
9260.00   0.68780783   0.00825269
9262.00   0.68760854   0.00818380
9264.00   0.70392689   0.00825206
9266.00   0.71653205   0.00847030
9268.00   0.71464196   0.00894722
9270.00   0.70738468   0.00945991
9272.00   0.71737045   0.00940665
9274.00   0.74444085   0.00867220
9276.00   0.75702316   0.00858262
9278.00   0.77137920   0.00892697
9280.00   0.76847222   0.00919316
9282.00   0.73561364   0.00933064
9284.00   0.69588503   0.00942249
9286.00   0.68134195   0.00947523
9288.00   0.67647377   0.00939506
9290.00   0.68856350   0.00985036
9292.00   0.73237836   0.01096588
9294.00   0.75736567   0.01149585
9296.00   0.76459110   0.01126699
9298.00   0.75862834   0.01124431
9300.00   0.73776191   0.01209078
9302.00   0.70022854   0.01334178
9304.00   0.70317134   0.01519375
9306.00   0.74681103   0.01757007
9308.00   0.76832145   0.01972243
9310.00   0.77144298   0.02220165
9312.00   0.78048533   0.02409012
9314.00   0.81054437   0.02510871
9316.00   0.85126656   0.02560533
9318.00   0.86332092   0.02541466
9320.00   0.84831282   0.02405414
9322.00   0.84694576   0.02324325
9324.00   0.85572731   0.02275323
9326.00   0.85684365   0.02206421
9328.00   0.84646186   0.02076902
9330.00   0.82608527   0.01931321
9332.00   0.79158637   0.01878695
9334.00   0.72733170   0.01901454
9336.00   0.71254212   0.01911051
9338.00   0.73767400   0.01991184
9340.00   0.75871268   0.01977977
9342.00   0.77765921   0.01810032
9344.00   0.79512587   0.01589305
9346.00   0.80355808   0.01488924
9348.00   0.80709171   0.01471384
9350.00   0.79869670   0.01430325
9352.00   0.76786664   0.01407306
9354.00   0.75329140   0.01384103
9356.00   0.75717404   0.01352244
9358.00   0.76598844   0.01332521
9360.00   0.77222925   0.01345905
9362.00   0.78173670   0.01384344
9364.00   0.76638925   0.01500272
9366.00   0.71869490   0.01585509
9368.00   0.69204164   0.01869269
9370.00   0.67616853   0.02324387
9372.00   0.67247021   0.02698890
9374.00   0.68978778   0.02997400
9376.00   0.72171572   0.03238209
9378.00   0.71611485   0.03180663
9380.00   0.66419572   0.02759756
9382.00   0.65660152   0.02444118
9384.00   0.68220249   0.02026339
9386.00   0.70877799   0.01636150
9388.00   0.73029777   0.01383061
9390.00   0.74606904   0.01253634
9392.00   0.73745617   0.01171578
9394.00   0.69171280   0.01222924
9396.00   0.69466120   0.01277852
9398.00   0.73575127   0.01414898
9400.00   0.76974022   0.01497594
9402.00   0.79851982   0.01530311
9404.00   0.81550589   0.01534350
9406.00   0.81031474   0.01507384
9408.00   0.78298286   0.01433821
9410.00   0.77572194   0.01417297
9412.00   0.77650639   0.01424667
9414.00   0.78142121   0.01459237
9416.00   0.79047531   0.01530219
9418.00   0.79757088   0.01604606
9420.00   0.80057767   0.01676791
9422.00   0.79965663   0.01759420
9424.00   0.79638800   0.01747660
9426.00   0.78407404   0.01592280
9428.00   0.78427222   0.01558634
9430.00   0.81244656   0.01541581
9432.00   0.81199345   0.01676028
9434.00   0.74789274   0.02049664
9436.00   0.64721757   0.02484473
9438.00   0.59086388   0.02670450
9440.00   0.52584213   0.02810633
9442.00   0.53990927   0.02750966
9444.00   0.65513989   0.02396121
9446.00   0.73746955   0.02063111
9448.00   0.75391653   0.01836954
9450.00   0.74360588   0.01690305
9452.00   0.74816245   0.01741188
9454.00   0.75791800   0.02034337
9456.00   0.74629778   0.02139750
9458.00   0.71010336   0.02234179
9460.00   0.68301356   0.02227445
9462.00   0.66033861   0.02045315
9464.00   0.64631069   0.01791846
9466.00   0.65580165   0.01658906
9468.00   0.68643817   0.01561975
9470.00   0.69500625   0.01690998
9472.00   0.69186452   0.02046823
9474.00   0.68947122   0.02299773
9476.00   0.68297407   0.02584994
9478.00   0.68148693   0.02740036
9480.00   0.68493289   0.02621646
9482.00   0.68591753   0.02273678
9484.00   0.68358153   0.02032459
9486.00   0.68312815   0.01728925
9488.00   0.67289358   0.01518578
9490.00   0.63676950   0.01424921
9492.00   0.61779580   0.01411846
9494.00   0.63760120   0.01463676
9496.00   0.68046412   0.01580288
9498.00   0.72119540   0.01726393
9500.00   0.80371299   0.01995708
9502.00   0.80454752   0.02055085
9504.00   0.71525818   0.01971249
9506.00   0.65629515   0.01861635
9508.00   0.66166645   0.01710287
9510.00   0.69109333   0.01544668
9512.00   0.69465587   0.01529532
9514.00   0.68260965   0.01636647
9516.00   0.68715763   0.01735901
9518.00   0.70369169   0.01931279
9520.00   0.71872094   0.02011360
9522.00   0.73277074   0.01963348
9524.00   0.74053144   0.01857404
9526.00   0.73054969   0.01751523
9528.00   0.70268714   0.01598522
9530.00   0.69928342   0.01506645
9532.00   0.72137287   0.01457776
9534.00   0.72232312   0.01425177
9536.00   0.69403350   0.01428063
9538.00   0.67422360   0.01437432
9540.00   0.69327760   0.01413395
9542.00   0.73640442   0.01366483
9544.00   0.76142043   0.01408271
9546.00   0.80144769   0.01545699
9548.00   0.79784402   0.01616246
9550.00   0.72865751   0.01643857
9552.00   0.67569432   0.01666478
9554.00   0.68757385   0.01702282
9556.00   0.73033699   0.01740562
9558.00   0.73899043   0.01772745
9560.00   0.73071569   0.01771639
9562.00   0.73095551   0.01841724
9564.00   0.74107236   0.02002680
9566.00   0.73484570   0.02100717
9568.00   0.69801065   0.02119770
9570.00   0.65629941   0.02077686
9572.00   0.65269989   0.01955722
9574.00   0.67709953   0.01683307
9576.00   0.68846366   0.01535417
9578.00   0.70606211   0.01470792
9580.00   0.71144313   0.01416956
9582.00   0.69896686   0.01377344
9584.00   0.68198323   0.01358605
9586.00   0.67286599   0.01357142
9588.00   0.66710684   0.01375357
9590.00   0.66918120   0.01388398
9592.00   0.67416793   0.01400764
9594.00   0.69109282   0.01425791
9596.00   0.74081010   0.01476119
9598.00   0.77481297   0.01507801
9600.00   0.75342512   0.01485796
9602.00   0.69745848   0.01428194
9604.00   0.66736239   0.01426539
9606.00   0.62962294   0.01486500
9608.00   0.62533221   0.01484949
9610.00   0.66464084   0.01417794
9612.00   0.69297242   0.01377203
9614.00   0.68541318   0.01407388
9616.00   0.66481164   0.01471766
9618.00   0.67236403   0.01515753
9620.00   0.70557156   0.01588472
9622.00   0.71280652   0.01586595
9624.00   0.70741379   0.01515432
9626.00   0.69649738   0.01440917
9628.00   0.67295912   0.01365503
9630.00   0.64833805   0.01293483
9632.00   0.64498410   0.01267158
9634.00   0.65949565   0.01282551
9636.00   0.65805298   0.01289688
9638.00   0.64522746   0.01306395
9640.00   0.63942763   0.01327188
9642.00   0.64132902   0.01353874
9644.00   0.64731398   0.01375776
9646.00   0.65272093   0.01382766
9648.00   0.65692633   0.01380331
9650.00   0.67371604   0.01388248
9652.00   0.71871516   0.01401030
9654.00   0.72907332   0.01413272
9656.00   0.69766837   0.01423969
9658.00   0.66810867   0.01439268
9660.00   0.66301766   0.01469277
9662.00   0.66989419   0.01516121
9664.00   0.68768612   0.01557520
9666.00   0.73692316   0.01614923
9668.00   0.75054842   0.01636878
9670.00   0.74190587   0.01630679
9672.00   0.72337812   0.01624032
9674.00   0.69027188   0.01619525
9676.00   0.65038159   0.01616241
9678.00   0.64175138   0.01640414
9680.00   0.65967301   0.01711785
9682.00   0.67123845   0.01719980
9684.00   0.69764042   0.01673325
9686.00   0.70529708   0.01641909
9688.00   0.68270323   0.01636389
9690.00   0.65214244   0.01642363
9692.00   0.64397109   0.01655193
9694.00   0.64749202   0.01675131
9696.00   0.65020418   0.01708854
9698.00   0.66509801   0.01776633
9700.00   0.66535243   0.01807864
9702.00   0.63988695   0.01802612
9704.00   0.61683172   0.01780281
9706.00   0.62775227   0.01739055
9708.00   0.66198361   0.01665749
9710.00   0.67687881   0.01666507
9712.00   0.68885347   0.01717132
9714.00   0.69171771   0.01782434
9716.00   0.67604643   0.01891446
9718.00   0.66418350   0.01984557
9720.00   0.67550114   0.02035550
9722.00   0.69591886   0.02067538
9724.00   0.67782974   0.02049435
9726.00   0.61313200   0.01967284
9728.00   0.58578557   0.01893387
9730.00   0.56765544   0.01789201
9732.00   0.57495603   0.01707378
9734.00   0.62381476   0.01679880
9736.00   0.69050029   0.01689000
9738.00   0.71181092   0.01697637
9740.00   0.70210826   0.01738072
9742.00   0.69824252   0.01736057
9744.00   0.67964521   0.01703721
9746.00   0.67398223   0.01669399
9748.00   0.68794525   0.01635580
9750.00   0.70653901   0.01599158
9752.00   0.71431813   0.01566726
9754.00   0.71805352   0.01538152
9756.00   0.71595880   0.01510535
9758.00   0.70464352   0.01492143
9760.00   0.69722378   0.01460371
9762.00   0.68960238   0.01400469
9764.00   0.68276492   0.01346055
9766.00   0.68112621   0.01337739
9768.00   0.68264386   0.01362378
9770.00   0.67936689   0.01378963
9772.00   0.66985622   0.01411689
9774.00   0.66773403   0.01425928
9776.00   0.67127216   0.01398275
9778.00   0.67800650   0.01403885
9780.00   0.68909866   0.01472674
9782.00   0.70236850   0.01581888
9784.00   0.69748399   0.01774215
9786.00   0.66775820   0.02070969
9788.00   0.66030198   0.02261463
9790.00   0.66712859   0.02431059
9792.00   0.67283884   0.02542178
9794.00   0.67462549   0.02595426
9796.00   0.67441416   0.02595635
9798.00   0.67691994   0.02529645
9800.00   0.68995035   0.02349151
9802.00   0.68996942   0.02248884
9804.00   0.66770187   0.02181676
9806.00   0.66736382   0.02125506
9808.00   0.71299019   0.02090629
9810.00   0.76231551   0.02054882
9812.00   0.76077780   0.01991201
9814.00   0.72228572   0.01909809
9816.00   0.71756193   0.01869141
9818.00   0.73575357   0.01879700
9820.00   0.74049020   0.01854412
9822.00   0.73314655   0.01777075
9824.00   0.71438333   0.01699992
9826.00   0.68893117   0.01686750
9828.00   0.65888679   0.01719840
9830.00   0.64618012   0.01732026
9832.00   0.63733649   0.01753419
9834.00   0.64942700   0.01755069
9836.00   0.70135030   0.01744188
9838.00   0.73687187   0.01731152
9840.00   0.72212452   0.01704594
9842.00   0.68057355   0.01672924
9844.00   0.67969742   0.01706904
9846.00   0.71331939   0.01815524
9848.00   0.72169808   0.01871907
9850.00   0.71866095   0.01927185
9852.00   0.71048716   0.01945627
9854.00   0.69200975   0.01902554
9856.00   0.66599724   0.01818705
9858.00   0.65443578   0.01754127
9860.00   0.63725784   0.01628471
9862.00   0.66983125   0.01683545
9864.00   0.78974357   0.01833085
9866.00   0.83956584   0.02069820
9868.00   0.77339143   0.02446443
9870.00   0.67830968   0.02780408
9872.00   0.67122859   0.02900683
9874.00   0.72526205   0.02919499
9876.00   0.72143316   0.02823865
9878.00   0.67900881   0.02486175
9880.00   0.65461293   0.02237676
9882.00   0.64184827   0.02081491
9884.00   0.63753334   0.01983182
9886.00   0.64653769   0.01948721
9888.00   0.66763848   0.01989893
9890.00   0.68724912   0.02057892
9892.00   0.71848285   0.02224565
9894.00   0.73343858   0.02291634
9896.00   0.74481648   0.02290523
9898.00   0.73947850   0.02259452
9900.00   0.68884620   0.02194999
9902.00   0.60985687   0.02102365
9904.00   0.61190274   0.02106708
9906.00   0.70253593   0.02162690
9908.00   0.72589329   0.02273936
9910.00   0.70483971   0.02468875
9912.00   0.69104311   0.02630968
9914.00   0.69906026   0.02768397
9916.00   0.71350300   0.02871024
9918.00   0.72606081   0.02850187
9920.00   0.74757275   0.02693713
9922.00   0.75474185   0.02582912
9924.00   0.75247002   0.02442612
9926.00   0.74735892   0.02324517
9928.00   0.72502741   0.02204770
9930.00   0.70480379   0.02134495
9932.00   0.73929611   0.02213140
9934.00   0.82964924   0.02405755
9936.00   0.85654256   0.02576717
9938.00   0.83914462   0.02732111
9940.00   0.83544770   0.02970240
9942.00   0.85663071   0.03351276
9944.00   0.85388532   0.03652591
9946.00   0.77992538   0.03711698
9948.00   0.64782506   0.03606425
9950.00   0.61198565   0.03606026
9952.00   0.65293410   0.03632016
9954.00   0.66872504   0.03650271
9956.00   0.67316771   0.03690397
9958.00   0.67328012   0.03692783
9960.00   0.67994398   0.03609884
9962.00   0.68838152   0.03463484
9964.00   0.67948675   0.03342998
9966.00   0.63221931   0.03204944
9968.00   0.64248317   0.03090528
9970.00   0.71797779   0.03001124
9972.00   0.76701203   0.02906150
9974.00   0.75335798   0.02781417
9976.00   0.70714432   0.02650864
9978.00   0.69175333   0.02583143
9980.00   0.69830987   0.02589444
9982.00   0.68652418   0.02540169
9984.00   0.64729992   0.02461130
9986.00   0.63987404   0.02385325
9988.00   0.68617833   0.02290062
9990.00   0.74535757   0.02229190
9992.00   0.76015601   0.02301787
9994.00   0.74429318   0.02501444
9996.00   0.73970893   0.02552622
9998.00   0.74328527   0.02470336
10000.00   0.72465399   0.02496018
10002.00   0.67030421   0.02578340
10004.00   0.62383524   0.02760198
10006.00   0.61230761   0.03090011
10008.00   0.61976790   0.03502123
10010.00   0.63815516   0.03805655
10012.00   0.69117975   0.04206230
10014.00   0.71043447   0.04303345
10016.00   0.71170884   0.04086299
10018.00   0.70368475   0.03833872
10020.00   0.66134965   0.03685198
10022.00   0.60038683   0.03568494
10024.00   0.63507769   0.03481273
10026.00   0.79877618   0.03463142
10028.00   0.83086556   0.03396851
10030.00   0.76001778   0.03315785
10032.00   0.71265000   0.03202556
10034.00   0.71079779   0.03040044
10036.00   0.72536442   0.02865920
10038.00   0.74622503   0.02785906
10040.00   0.79954728   0.02789811
10042.00   0.79233286   0.02784038
10044.00   0.72766149   0.02841258
10046.00   0.67839393   0.02830218
10048.00   0.63844731   0.02679211
10050.00   0.62588474   0.02548576
10052.00   0.67560092   0.02661342
10054.00   0.79408407   0.02935805
10056.00   0.78774628   0.03062554
10058.00   0.65533260   0.03169030
10060.00   0.59656140   0.03208363
10062.00   0.60222834   0.03144351
10064.00   0.62994498   0.03063801
10066.00   0.65418804   0.03025544
10068.00   0.68197671   0.02996689
10070.00   0.70896137   0.03022209
10072.00   0.75271279   0.03064583
10074.00   0.76584452   0.03191168
10076.00   0.74895641   0.03411847
10078.00   0.71627000   0.03635695
10080.00   0.66396332   0.03865376
10082.00   0.60497761   0.04079053
10084.00   0.60592198   0.04097861
10086.00   0.66585752   0.03937153
10088.00   0.69489262   0.03801696
10090.00   0.71991393   0.03586247
10092.00   0.74196458   0.03393998
10094.00   0.75418621   0.03236195
10096.00   0.76162514   0.03125349
10098.00   0.78756166   0.03152988
10100.00   0.83930469   0.03336102
10102.00   0.83235627   0.03431526
10104.00   0.76595274   0.03560820
10106.00   0.72465789   0.03592873
10108.00   0.70377800   0.03475138
10110.00   0.68216243   0.03315756
10112.00   0.66051623   0.03256215
10114.00   0.64592049   0.03232218
10116.00   0.65244737   0.03372659
10118.00   0.71276194   0.03691712
10120.00   0.70655054   0.03945363
10122.00   0.60986987   0.04232289
10124.00   0.52307878   0.04421168
10126.00   0.53161024   0.04413277
10128.00   0.59935287   0.04263081
10130.00   0.62461853   0.04121091
10132.00   0.63111803   0.03867218
10134.00   0.65354815   0.03700463
10136.00   0.68118200   0.03574955
10138.00   0.72330016   0.03503553
10140.00   0.79952574   0.03500878
10142.00   0.88154620   0.03560711
10144.00   0.86359435   0.03654587
10146.00   0.71719578   0.03817184
10148.00   0.67903131   0.03930051
10150.00   0.70778972   0.04019262
10152.00   0.73571235   0.04118446
10154.00   0.74803397   0.04247974
10156.00   0.74387243   0.04374443
10158.00   0.70772752   0.04429732
10160.00   0.63100195   0.04420229
10162.00   0.59318852   0.04477553
10164.00   0.55942768   0.04480253
10166.00   0.56074856   0.04656566
10168.00   0.60996282   0.05117063
10170.00   0.67105171   0.05549760
10172.00   0.70512348   0.05680024
10174.00   0.73010439   0.05640080
10176.00   0.71749550   0.05527373
10178.00   0.63078418   0.05094962
10180.00   0.61151254   0.04985713
10182.00   0.66671279   0.05248582
10184.00   0.74546963   0.05522261
10186.00   0.81558511   0.05658375
10188.00   0.88733822   0.05751572
10190.00   0.84012830   0.05737633
10192.00   0.59642011   0.05564812
10194.00   0.54906487   0.05482007
10196.00   0.65838718   0.05352699
10198.00   0.77764004   0.05319219
10200.00   0.88774672   0.05506846
10202.00   0.99718624   0.05826527
10204.00   0.96039319   0.06083129
10206.00   0.72912771   0.06450112
10208.00   0.65124530   0.06561912
10210.00   0.64723679   0.06492111
10212.00   0.66072592   0.06353718
10214.00   0.66778561   0.06136005
10216.00   0.71092254   0.05887861
10218.00   0.84067011   0.05763774
10220.00   1.08984679   0.05711707
10222.00   1.12599581   0.05739116
10224.00   0.99365911   0.05934303
10226.00   0.88060504   0.06014146
10228.00   0.74831638   0.06009743
10230.00   0.62940499   0.05931023
10232.00   0.58666754   0.05719887
10234.00   0.59811832   0.05359189
10236.00   0.59249729   0.05141054
10238.00   0.57283270   0.04992799
10240.00   0.60630226   0.04864354
10242.00   0.71115574   0.04773391
10244.00   0.80550224   0.04734637
10246.00   0.84040791   0.04766042
10248.00   0.84064013   0.04845099
10250.00   0.84789461   0.04837949
10252.00   0.85064968   0.04755580
10254.00   0.84019715   0.04725229
10256.00   0.79952037   0.04668003
10258.00   0.77902928   0.04681621
10260.00   0.80745438   0.04858586
10262.00   0.86007178   0.05101047
10264.00   0.86246502   0.05167135
10266.00   0.80664229   0.05095693
10268.00   0.80738401   0.05133967
10270.00   0.83960310   0.05145134
10272.00   0.88495219   0.05288771
10274.00   0.95657018   0.05543444
10276.00   1.00889948   0.05943220
10278.00   0.95166370   0.06651266
10280.00   0.76224545   0.07638777
10282.00   0.75676423   0.08389625
10284.00   0.94030261   0.09354086
10286.00   1.00181293   0.09740343
10288.00   0.93184996   0.09477759
10290.00   0.79063430   0.08960919
10292.00   0.60527673   0.08629029
10294.00   0.34352851   0.08310830
10296.00   0.27973361   0.07985411
10298.00   0.39592481   0.07665387
10300.00   0.45875744   0.07322792
10302.00   0.51192710   0.06893486
10304.00   0.55787906   0.06532677
10306.00   0.58088446   0.06400068
10308.00   0.59596008   0.06432685
10310.00   0.61315227   0.06336915
10312.00   0.61627892   0.06176340
10314.00   0.63483427   0.06071718
10316.00   0.69876137   0.05981190
10318.00   0.74857956   0.05941387
10320.00   0.74986723   0.05985350
10322.00   0.73575160   0.06070475
10324.00   0.71459377   0.06092016
10326.00   0.63566342   0.06097275
10328.00   0.62939940   0.06041440
10330.00   0.70418608   0.05842149
10332.00   0.73572698   0.05769880
10334.00   0.69034341   0.05865928
10336.00   0.59974238   0.06066092
10338.00   0.48943198   0.06312699
10340.00   0.29078653   0.06674496
10342.00   0.27096436   0.06841816
10344.00   0.41260341   0.06871339
10346.00   0.52740839   0.06914775
10348.00   0.65004265   0.07014133
10350.00   0.70683095   0.07077139
10352.00   0.57228091   0.06974139
10354.00   0.27063139   0.06727987
10356.00   0.11839932   0.06747828
10358.00   -0.01024539   0.06988068
10360.00   -0.05153339   0.07143070
10362.00   0.05553498   0.06991458
10364.00   0.15792561   0.07313210
10366.00   0.13150563   0.08572938
10368.00   0.04266192   0.10061459
10370.00   0.05266778   0.10562842
10372.00   0.10355692   0.10735860
10374.00   0.20091540   0.10354804
10376.00   0.40562420   0.08838223
10378.00   0.54611327   0.07508136
10380.00   0.57345788   0.07054493
10382.00   0.52760138   0.07015907
10384.00   0.42713062   0.06884607
10386.00   0.17969524   0.06962620
10388.00   0.11542204   0.06988143
10390.00   0.16966420   0.07068243
10392.00   0.24281006   0.07106228
10394.00   0.35944229   0.07041700
10396.00   0.47160913   0.07013194
10398.00   0.45922361   0.07268262
10400.00   0.32497920   0.07811283
10402.00   0.25407947   0.07913662
10404.00   0.15832000   0.07715024
10406.00   0.14224321   0.07533998
10408.00   0.17380379   0.07187834
10410.00   0.26306508   0.06994926
10412.00   0.45421778   0.07378198
10414.00   0.74812776   0.08131892
10416.00   0.85981625   0.08537699
10418.00   0.82576978   0.08944629
10420.00   0.83075735   0.09092410
10422.00   0.89070454   0.09009057
10424.00   0.89279428   0.08755519
10426.00   0.74475124   0.08284611
10428.00   0.50814860   0.07592486
10430.00   0.37887213   0.07140995
10432.00   0.23856186   0.06774427
10434.00   0.25127731   0.06561780
10436.00   0.47191647   0.06593406
10438.00   0.62652990   0.06623647
10440.00   0.64188090   0.06568731
10442.00   0.58988377   0.06513081
10444.00   0.52519917   0.06557931
10446.00   0.38104142   0.06641878
10448.00   0.35021144   0.06838739
10450.00   0.42463602   0.07280219
10452.00   0.45557961   0.07484372
10454.00   0.40676742   0.07372139
10456.00   0.35917776   0.07155946
10458.00   0.41820976   0.07045957
10460.00   0.57447267   0.06927614
10462.00   0.59494886   0.06957485
10464.00   0.52350175   0.07192479
10466.00   0.45803003   0.07298176
10468.00   0.36570217   0.07309399
10470.00   0.28229095   0.07255152
10472.00   0.24292055   0.07117776
10474.00   0.21209404   0.06879741
10476.00   0.20296820   0.06746546
10478.00   0.20943769   0.06667876
10480.00   0.25565785   0.06605099
10482.00   0.35727940   0.06559859
10484.00   0.41345267   0.06521353
10486.00   0.37155857   0.06474768
10488.00   0.26631915   0.06420685
10490.00   0.23729262   0.06434062
10492.00   0.25500413   0.06540428
10494.00   0.26731702   0.06555864
10496.00   0.28393958   0.06530536
10498.00   0.28957433   0.06495463
10500.00   0.28754593   0.06388581
10502.00   0.28576032   0.06262758
10504.00   0.29789926   0.06293507
10506.00   0.33602640   0.06475160
10508.00   0.31144668   0.06539546
10510.00   0.19332588   0.06506357
10512.00   0.15055212   0.06560915
10514.00   0.22870789   0.06739060
10516.00   0.34648666   0.06966647
10518.00   0.37659422   0.07167520
10520.00   0.35074935   0.07393977
10522.00   0.30416760   0.07425740
10524.00   0.17546506   0.07233698
10526.00   0.12710391   0.07144423
10528.00   0.16539366   0.07152731
10530.00   0.22165203   0.07150203
10532.00   0.24417949   0.07075334
10534.00   0.25842781   0.06958348
10536.00   0.26922566   0.06889882
10538.00   0.29380075   0.06813885
10540.00   0.27032714   0.06815861
10542.00   0.17680066   0.06900573
10544.00   0.10105824   0.06991828
10546.00   0.10920494   0.07061166
10548.00   0.16232527   0.07137498
10550.00   0.14697117   0.07272338
10552.00   0.05971385   0.07544405
10554.00   0.05656219   0.07592571
10556.00   0.12327143   0.07444490
10558.00   0.17273030   0.07324214
10560.00   0.19266205   0.07262412
10562.00   0.19213148   0.07231266
10564.00   0.16224633   0.07252477
10566.00   0.06814461   0.07329259
10568.00   0.06972544   0.07405572
10570.00   0.15944338   0.07510243
10572.00   0.21890193   0.07606088
10574.00   0.23532090   0.07687805
10576.00   0.23240678   0.07774537
10578.00   0.21603676   0.07888186
10580.00   0.16928665   0.08022107
10582.00   0.18714386   0.08143156
10584.00   0.28877194   0.08279811
10586.00   0.32249463   0.08378831
10588.00   0.26791029   0.08437435
10590.00   0.20738119   0.08477027
10592.00   0.22779099   0.08511504
10594.00   0.29977132   0.08542267
10596.00   0.29428609   0.08592530
10598.00   0.21118402   0.08655306
10600.00   0.19288928   0.08719147
10602.00   0.22954604   0.08781973
10604.00   0.25152168   0.08869251
10606.00   0.23777735   0.09007241
10608.00   0.21174941   0.09179309
10610.00   0.18636377   0.09286319
10612.00   0.11622147   0.09318335
10614.00   0.14079122   0.09426131
10616.00   0.28327581   0.09623746
10618.00   0.36876827   0.09761037
10620.00   0.35148168   0.09781235
10622.00   0.29520693   0.09758195
10624.00   0.27577105   0.09802646
10626.00   0.27349693   0.09883013
10628.00   0.26393961   0.09940772
10630.00   0.27439665   0.10001917
10632.00   0.24118265   0.10043417
10634.00   0.11766687   0.10059870
10636.00   0.01715368   0.10070059
10638.00   0.10996849   0.10086719
10640.00   0.39007775   0.10103466
10642.00   0.40335748   0.10081015
10644.00   0.19364422   0.10050248
10646.00   0.07196974   0.09957827
10648.00   0.01465561   0.09768509
10650.00   0.00796939   0.09568702
10652.00   0.04297090   0.09435374
10654.00   0.11486695   0.09337368
10656.00   0.14340325   0.09202644
10658.00   0.14924636   0.09064255
10660.00   0.16011436   0.08891864
10662.00   0.16771706   0.08666433
10664.00   0.16683996   0.08439759
10666.00   0.15011273   0.08240240
10668.00   0.13159135   0.08061917
10670.00   0.16993712   0.07913227
10672.00   0.29302315   0.07839428
10674.00   0.31650263   0.07659074
10676.00   0.25765821   0.07365707
10678.00   0.22195102   0.07114167
10680.00   0.22954240   0.06946754
10682.00   0.24487873   0.06811267
10684.00   0.23767398   0.06630547
10686.00   0.22204620   0.06410466
10688.00   0.18222879   0.06238377
10690.00   0.09720791   0.06071630
10692.00   0.04623895   0.05967519
10694.00   0.02544811   0.05990424
10696.00   0.03041150   0.06002745
10698.00   0.05161086   0.05827463
10700.00   0.07713168   0.05499114
10702.00   0.14103064   0.05350374
10704.00   0.27860753   0.05347839
10706.00   0.35328344   0.05277978
10708.00   0.37992492   0.05177958
10710.00   0.36384949   0.05058609
10712.00   0.27491465   0.04892303
10714.00   0.11452141   0.04678202
10716.00   0.05859278   0.04552592
10718.00   0.09548021   0.04497660
10720.00   0.07185296   0.04440523
10722.00   -0.01768210   0.04417622
10724.00   -0.07040674   0.04381257
10726.00   -0.04238749   0.04311640
10728.00   0.02511040   0.04222861
10730.00   0.06945550   0.04097979
10732.00   0.13333200   0.03869399
10734.00   0.14399200   0.03764218
10736.00   0.09571121   0.03778579
10738.00   0.06721648   0.03771815
10740.00   0.06413878   0.03705092
10742.00   0.07563760   0.03618540
10744.00   0.10881325   0.03534594
10746.00   0.17758889   0.03411523
10748.00   0.19958083   0.03393622
10750.00   0.17818144   0.03485754
10752.00   0.18017069   0.03546121
10754.00   0.21410249   0.03606549
10756.00   0.25113273   0.03611876
10758.00   0.27073912   0.03474843
10760.00   0.28644210   0.03186528
10762.00   0.25900991   0.03071642
10764.00   0.14894404   0.03078479
10766.00   0.12329806   0.03075684
10768.00   0.18588457   0.03092182
10770.00   0.24196837   0.03089918
10772.00   0.25770310   0.03067560
10774.00   0.26701739   0.03049445
10776.00   0.25817805   0.02968549
10778.00   0.22658628   0.02793168
10780.00   0.19505453   0.02672975
10782.00   0.15088419   0.02573415
10784.00   0.10585609   0.02499597
10786.00   0.07184781   0.02498837
10788.00   0.05247823   0.02535804
10790.00   0.06923523   0.02469581
10792.00   0.12989103   0.02273755
10794.00   0.18199748   0.02219712
10796.00   0.27610798   0.02306506
10798.00   0.31036676   0.02326922
10800.00   0.23728262   0.02213768
10802.00   0.13401753   0.02060247
10804.00   0.14005249   0.02041458
10806.00   0.22908799   0.02121578
10808.00   0.26412320   0.02184060
10810.00   0.30947956   0.02337977
10812.00   0.30046618   0.02353605
10814.00   0.20042937   0.02156554
10816.00   0.09661803   0.01940389
10818.00   0.08542529   0.01972465
10820.00   0.13690570   0.02163966
10822.00   0.13645339   0.02210079
10824.00   0.08149291   0.02189880
10826.00   0.09540982   0.02189945
10828.00   0.22861195   0.02200850
10830.00   0.32527340   0.02197812
10832.00   0.24530833   0.02170121
10834.00   0.05666531   0.02121519
10836.00   0.02329638   0.02044385
10838.00   0.08559997   0.01881029
10840.00   0.13731337   0.01816909
10842.00   0.24440881   0.01856750
10844.00   0.31506509   0.01868954
10846.00   0.28935039   0.01820058
10848.00   0.20863444   0.01744843
10850.00   0.18426337   0.01670079
10852.00   0.18575770   0.01554270
10854.00   0.19577648   0.01511065
10856.00   0.24081807   0.01520419
10858.00   0.25635631   0.01556412
10860.00   0.21722598   0.01655446
10862.00   0.17203898   0.01734107
10864.00   0.18972053   0.01661810
10866.00   0.18972053   0.01661810
