# File created by shivutils (I.Shivvers)
# wl(A)   flm    er(optional)
3442.00   2.48883557   0.15352367
3444.00   2.17096639   0.15188773
3446.00   2.44967437   0.15687385
3448.00   2.41134191   0.15668559
3450.00   2.28638148   0.16095079
3452.00   2.50937533   0.16590923
3454.00   2.22360277   0.16200788
3456.00   2.22487974   0.16000170
3458.00   2.24894786   0.16205241
3460.00   2.40841341   0.16035941
3462.00   2.38411164   0.16181463
3464.00   2.17568350   0.15922196
3466.00   2.63272977   0.16320780
3468.00   2.35012603   0.16047576
3470.00   2.42720675   0.16074558
3472.00   1.98966813   0.15474604
3474.00   2.28250337   0.15761691
3476.00   2.44376135   0.16369273
3478.00   2.62002707   0.17200395
3480.00   2.44651699   0.17585836
3482.00   2.28028560   0.17355795
3484.00   2.67591548   0.17420880
3486.00   2.66561985   0.17650050
3488.00   2.92087245   0.17479250
3490.00   2.14421201   0.16360946
3492.00   2.63288093   0.16763331
3494.00   2.58654308   0.16600583
3496.00   2.76675391   0.16763659
3498.00   2.92891717   0.17048052
3500.00   2.67958307   0.16675259
3502.00   2.64606404   0.16342652
3504.00   2.34970737   0.16126780
3506.00   2.86255646   0.16751698
3508.00   2.85207176   0.16683123
3510.00   2.61248994   0.16434041
3512.00   2.46120501   0.16180012
3514.00   2.90237951   0.16388978
3516.00   2.89875650   0.16806498
3518.00   3.02727985   0.16910392
3520.00   2.85259104   0.16542734
3522.00   3.07368016   0.16570346
3524.00   2.84269691   0.16261545
3526.00   2.87724757   0.16233613
3528.00   2.63943291   0.15915599
3530.00   2.79254317   0.16044380
3532.00   2.83489084   0.16218476
3534.00   3.10545397   0.16439573
3536.00   3.10719705   0.16285430
3538.00   2.83671999   0.16205353
3540.00   2.87329745   0.16444300
3542.00   2.82839918   0.17020258
3544.00   2.89466381   0.17226095
3546.00   3.02376914   0.17092456
3548.00   3.21611905   0.17182191
3550.00   2.94276118   0.16598459
3552.00   3.17907858   0.17083904
3554.00   2.99143457   0.16794716
3556.00   2.92225003   0.16583931
3558.00   2.94131565   0.16523971
3560.00   2.96558619   0.16260749
3562.00   2.76169610   0.15700349
3564.00   2.98824573   0.15781596
3566.00   3.20604873   0.16101456
3568.00   3.22384953   0.15884066
3570.00   3.41510177   0.16031794
3572.00   2.94675374   0.15472540
3574.00   2.64999986   0.15270972
3576.00   2.88097835   0.15287259
3578.00   3.01209784   0.15263559
3580.00   3.24341035   0.15325834
3582.00   2.95384097   0.14741358
3584.00   3.05033231   0.14699310
3586.00   3.21972227   0.14627358
3588.00   3.30125952   0.14843720
3590.00   2.99806571   0.14743605
3592.00   3.06810665   0.14651151
3594.00   3.07722163   0.14367814
3596.00   3.13931370   0.14470582
3598.00   3.17213917   0.14360820
3600.00   3.12973642   0.14219853
3602.00   2.93598890   0.13924447
3604.00   2.93115878   0.13752116
3606.00   3.01951003   0.13586350
3608.00   3.22350526   0.13796279
3610.00   3.11816239   0.13821721
3612.00   3.13852429   0.14203420
3614.00   3.26105690   0.14663455
3616.00   3.15687609   0.14415638
3618.00   2.99858785   0.13758208
3620.00   3.25612330   0.13874091
3622.00   3.22190285   0.13694485
3624.00   2.99352884   0.13546871
3626.00   3.25581932   0.13618164
3628.00   3.13400841   0.13641687
3630.00   3.80076051   0.14641424
3632.00   3.14018440   0.13931054
3634.00   3.12727427   0.13675660
3636.00   3.24702501   0.13682128
3638.00   3.19598079   0.13562810
3640.00   3.18117476   0.13733180
3642.00   3.26889825   0.14161116
3644.00   3.03061008   0.14161368
3646.00   2.87227821   0.14276779
3648.00   2.93242049   0.17743002
3650.00   3.69285893   0.20341925
3652.00   3.15187693   0.18652759
3654.00   3.08684230   0.16793519
3656.00   2.96748114   0.15603460
3658.00   3.10135961   0.13654239
3660.00   3.14238167   0.13967031
3662.00   2.97646594   0.15069285
3664.00   2.96851563   0.14725275
3666.00   3.16041064   0.13017249
3668.00   3.11932921   0.12159958
3670.00   2.90723276   0.11793706
3672.00   2.81853986   0.11590972
3674.00   2.81002188   0.11412361
3676.00   3.03830743   0.11513373
3678.00   2.83571863   0.11247932
3680.00   2.77619672   0.11133418
3682.00   2.63168502   0.10869295
3684.00   2.66531944   0.10697568
3686.00   2.85210037   0.10838602
3688.00   2.74072719   0.10678437
3690.00   2.48844337   0.10585287
3692.00   2.85397053   0.10893708
3694.00   2.90624285   0.10893933
3696.00   2.93246865   0.10946583
3698.00   2.74425983   0.10907102
3700.00   2.66397572   0.10805525
3702.00   2.82463837   0.10995248
3704.00   2.81971645   0.10889033
3706.00   2.73104215   0.10707869
3708.00   2.74287915   0.10534572
3710.00   2.48758149   0.10318552
3712.00   2.52607274   0.10301882
3714.00   2.31491399   0.10024651
3716.00   2.57513523   0.10167411
3718.00   2.54107809   0.10148969
3720.00   2.46256351   0.10104482
3722.00   2.30944133   0.09702551
3724.00   2.43237519   0.09860870
3726.00   2.39362574   0.09890098
3728.00   1.94796956   0.09442367
3730.00   2.33410621   0.09817482
3732.00   2.20299768   0.09799460
3734.00   2.15237236   0.09670255
3736.00   2.18010283   0.09709416
3738.00   2.31858563   0.09933481
3740.00   2.00041246   0.09731173
3742.00   1.96194422   0.09641724
3744.00   1.93476415   0.09322293
3746.00   2.02714014   0.09200975
3748.00   1.95774913   0.08957943
3750.00   1.93678534   0.08938294
3752.00   1.81416011   0.08922324
3754.00   1.94494915   0.09011443
3756.00   2.01721859   0.09017815
3758.00   1.89486766   0.08846849
3760.00   1.61453545   0.08508176
3762.00   1.71754110   0.08570030
3764.00   1.85800624   0.08487280
3766.00   1.63732481   0.08157582
3768.00   1.71682632   0.08190182
3770.00   1.50352383   0.08249627
3772.00   1.73045766   0.08439070
3774.00   1.75421751   0.08384054
3776.00   1.88815272   0.08506679
3778.00   1.59180307   0.08090284
3780.00   1.72546422   0.08166694
3782.00   1.50592232   0.07927965
3784.00   1.67157543   0.08202062
3786.00   1.74170172   0.08067629
3788.00   1.55928564   0.07850046
3790.00   1.52738643   0.08042000
3792.00   1.39330435   0.07900120
3794.00   1.56247175   0.07927882
3796.00   1.42764616   0.07648483
3798.00   1.32789052   0.07599481
3800.00   1.58581853   0.07786921
3802.00   1.57865798   0.07847004
3804.00   1.67858171   0.07900015
3806.00   1.68589962   0.07699976
3808.00   1.60214269   0.07525032
3810.00   1.90450191   0.07904171
3812.00   2.87707543   0.08849849
3814.00   3.64790845   0.09637937
3816.00   3.34157038   0.09309733
3818.00   2.10887861   0.08133423
3820.00   1.74391365   0.07723266
3822.00   1.63480616   0.07614736
3824.00   1.57578909   0.07505275
3826.00   1.58712983   0.07538299
3828.00   1.83819652   0.08103641
3830.00   1.71878242   0.08064231
3832.00   1.86343348   0.07998060
3834.00   1.78204405   0.07811941
3836.00   1.66715121   0.07696336
3838.00   1.75291741   0.07657188
3840.00   1.80426359   0.07726898
3842.00   1.88109875   0.07734250
3844.00   1.90464973   0.07678172
3846.00   1.79938233   0.07487771
3848.00   1.83738279   0.07426552
3850.00   1.98818481   0.07470677
3852.00   1.81751728   0.07234763
3854.00   1.90162563   0.07384988
3856.00   1.64553404   0.07021032
3858.00   1.74730194   0.07077765
3860.00   1.76672697   0.07052463
3862.00   1.79316878   0.07177210
3864.00   1.93311679   0.07304429
3866.00   1.84870136   0.07048274
3868.00   2.03027678   0.07168108
3870.00   2.11586642   0.07170072
3872.00   1.91578865   0.07189354
3874.00   2.15037894   0.07588010
3876.00   1.87289965   0.07243856
3878.00   1.87707782   0.06998777
3880.00   1.93888319   0.06960928
3882.00   1.86179924   0.06803103
3884.00   1.95527184   0.06892586
3886.00   1.80591166   0.06697879
3888.00   1.88256061   0.06719492
3890.00   1.88692057   0.06734993
3892.00   2.12125373   0.06986331
3894.00   2.09141517   0.07024339
3896.00   1.93450224   0.06938017
3898.00   2.28509712   0.07191257
3900.00   2.28949523   0.07241047
3902.00   2.24340296   0.07246403
3904.00   2.30351186   0.07614402
3906.00   2.33101130   0.08293966
3908.00   2.26264405   0.08537541
3910.00   2.27972794   0.08623518
3912.00   2.30904269   0.08569485
3914.00   2.27900100   0.08177909
3916.00   2.34553361   0.07698078
3918.00   2.18635058   0.07370370
3920.00   2.41641808   0.07400822
3922.00   2.44212604   0.07218680
3924.00   2.34749842   0.07152506
3926.00   2.49038458   0.07199740
3928.00   2.40722942   0.07017306
3930.00   2.57314777   0.07196061
3932.00   2.68606901   0.07530965
3934.00   2.69702029   0.07513192
3936.00   2.77972317   0.07315747
3938.00   2.96823263   0.07403307
3940.00   3.07362366   0.07547496
3942.00   2.80057788   0.07737621
3944.00   3.07221580   0.07992955
3946.00   3.19636536   0.07952740
3948.00   3.06966352   0.07605530
3950.00   3.23429441   0.07609302
3952.00   3.33616710   0.07600114
3954.00   3.27177358   0.07517778
3956.00   3.29158473   0.07514345
3958.00   3.35713840   0.07666358
3960.00   3.24265289   0.07854269
3962.00   3.29802799   0.07866579
3964.00   3.32570362   0.07543304
3966.00   3.27844214   0.07380640
3968.00   3.29903316   0.07354525
3970.00   3.20447230   0.07224178
3972.00   3.44874716   0.07437812
3974.00   3.24917126   0.07337280
3976.00   3.30870461   0.07352301
3978.00   3.19152689   0.07563303
3980.00   3.52372575   0.07820643
3982.00   3.48020124   0.07480935
3984.00   3.42360997   0.07413994
3986.00   3.51804233   0.07451364
3988.00   3.51682281   0.07491508
3990.00   3.56939149   0.07613808
3992.00   3.50811458   0.07488401
3994.00   3.52248192   0.07703892
3996.00   3.67562079   0.07984371
3998.00   3.73693085   0.07920542
4000.00   3.68883371   0.07656409
4002.00   3.81650925   0.07620377
4004.00   3.88657641   0.07639078
4006.00   3.77849388   0.07666007
4008.00   3.77628779   0.07716076
4010.00   3.85799527   0.07817208
4012.00   3.94808435   0.07867898
4014.00   3.98833275   0.07853328
4016.00   3.93309116   0.07818687
4018.00   3.87690544   0.08220303
4020.00   3.96674132   0.08773124
4022.00   3.79228544   0.08851320
4024.00   3.70020509   0.08691151
4026.00   3.37083769   0.08037445
4028.00   3.50388455   0.07795418
4030.00   3.73848629   0.07892323
4032.00   3.84748960   0.07880286
4034.00   3.73920751   0.07709374
4036.00   3.66745996   0.07641872
4038.00   3.64140248   0.07576428
4040.00   3.66936898   0.07579609
4042.00   3.68767643   0.07948139
4044.00   3.76252890   0.11237647
4046.00   3.78663468   0.13737851
4048.00   3.77478600   0.12508635
4050.00   3.15692663   0.08798214
4052.00   3.48185253   0.07833195
4054.00   3.42432022   0.07783236
4056.00   3.30432653   0.07565642
4058.00   3.22991562   0.07206652
4060.00   3.01886153   0.07001914
4062.00   3.11895299   0.07046267
4064.00   3.06973743   0.06914376
4066.00   3.08067870   0.06941203
4068.00   3.23124790   0.06998583
4070.00   3.41136265   0.07021014
4072.00   3.15267611   0.06801323
4074.00   3.21993613   0.07016867
4076.00   3.25718355   0.07804461
4078.00   3.31221747   0.08071767
4080.00   3.18627024   0.07662609
4082.00   3.36317730   0.07495797
4084.00   3.39989591   0.07423044
4086.00   3.32582283   0.07354882
4088.00   3.24757528   0.07010698
4090.00   3.29325390   0.06758402
4092.00   3.25388718   0.06670289
4094.00   3.25443077   0.06666863
4096.00   3.24432635   0.06612215
4098.00   3.20804930   0.06583442
4100.00   3.15818143   0.06537026
4102.00   3.39206314   0.06592809
4104.00   3.34292912   0.06517322
4106.00   3.37808490   0.06605524
4108.00   3.47640038   0.06655613
4110.00   3.52015281   0.06674006
4112.00   3.63505197   0.06728026
4114.00   3.51540017   0.06676391
4116.00   3.50271082   0.06652317
4118.00   3.45153236   0.06544586
4120.00   3.61321068   0.06558041
4122.00   3.67744207   0.06642973
4124.00   3.55330896   0.06586386
4126.00   3.57052302   0.06628025
4128.00   3.71907973   0.06748452
4130.00   3.71155643   0.06797939
4132.00   3.75248551   0.06980438
4134.00   3.76339293   0.06954482
4136.00   3.76743007   0.06815313
4138.00   3.71872544   0.06868605
4140.00   3.68781114   0.06936262
4142.00   3.83778691   0.06823815
4144.00   3.80898714   0.06672458
4146.00   3.92299819   0.06719901
4148.00   3.85034442   0.06689198
4150.00   3.95127988   0.06904151
4152.00   3.93593025   0.07034204
4154.00   3.82815409   0.06896152
4156.00   3.94615340   0.06781192
4158.00   3.80339980   0.06640643
4160.00   3.73777699   0.06628909
4162.00   3.83647418   0.06859541
4164.00   3.95668149   0.07196855
4166.00   3.83824539   0.07152681
4168.00   3.86245918   0.06831940
4170.00   3.85469460   0.06656220
4172.00   3.83479190   0.06579328
4174.00   3.74461484   0.06456690
4176.00   3.87472701   0.06541926
4178.00   3.88826799   0.06578634
4180.00   3.79360652   0.06493356
4182.00   3.86220074   0.06441264
4184.00   3.90107632   0.06438237
4186.00   3.75369883   0.06371771
4188.00   3.77865028   0.06347511
4190.00   3.66439986   0.06285437
4192.00   3.57058716   0.06243230
4194.00   3.60193396   0.06233341
4196.00   3.49570060   0.06133788
4198.00   3.61619353   0.06160875
4200.00   3.54772639   0.06109325
4202.00   3.55963135   0.06117729
4204.00   3.48484492   0.06115493
4206.00   3.58024549   0.06206528
4208.00   3.62192535   0.06285906
4210.00   3.50702667   0.06280937
4212.00   3.64512706   0.06297407
4214.00   3.49595022   0.06152364
4216.00   3.33698940   0.06062895
4218.00   3.48574829   0.06136392
4220.00   3.58797431   0.06187918
4222.00   3.37916827   0.06059590
4224.00   3.39956832   0.06033548
4226.00   3.46933913   0.06067041
4228.00   3.40462089   0.06038875
4230.00   3.46108007   0.06126278
4232.00   3.36666822   0.06145900
4234.00   3.36735868   0.06154360
4236.00   3.37785077   0.06213802
4238.00   3.24889898   0.06148886
4240.00   3.34423804   0.06063798
4242.00   3.37723041   0.06014341
4244.00   3.46961594   0.06414676
4246.00   3.42377329   0.06792109
4248.00   3.24028063   0.06617046
4250.00   3.25000286   0.06145164
4252.00   3.20697570   0.05913366
4254.00   3.26016831   0.05943795
4256.00   3.21751595   0.05937642
4258.00   3.34876776   0.06070470
4260.00   3.28684402   0.05995478
4262.00   3.27588677   0.05895644
4264.00   3.20914650   0.05804382
4266.00   3.21159697   0.05823519
4268.00   3.30269742   0.05857540
4270.00   3.17478013   0.05830661
4272.00   3.11019516   0.05791952
4274.00   3.30646324   0.05904040
4276.00   3.23011565   0.05879119
4278.00   3.16059089   0.05836852
4280.00   3.18547082   0.05890391
4282.00   3.05242991   0.05825486
4284.00   3.14166713   0.05858455
4286.00   3.16215444   0.05814016
4288.00   3.08393860   0.05745492
4290.00   2.94622326   0.05663921
4292.00   3.06554461   0.05762625
4294.00   2.97547030   0.05735054
4296.00   2.93628216   0.05725377
4298.00   2.98016191   0.05694759
4300.00   3.02599716   0.05684867
4302.00   2.96778989   0.05655287
4304.00   2.89897728   0.05662912
4306.00   2.83038259   0.05667677
4308.00   2.89696217   0.05690150
4310.00   2.78587461   0.05718869
4312.00   2.86037993   0.06061021
4314.00   2.90771246   0.06235136
4316.00   2.81642866   0.06009398
4318.00   2.77513003   0.05961687
4320.00   2.74008489   0.06037217
4322.00   2.73285294   0.06036145
4324.00   2.64419508   0.05906924
4326.00   2.70284557   0.05825569
4328.00   2.78286338   0.05738404
4330.00   2.74329901   0.05625806
4332.00   2.65555263   0.05580344
4334.00   2.58493876   0.05533196
4336.00   2.68115687   0.05671495
4338.00   2.62300730   0.05725297
4340.00   2.63376665   0.05745959
4342.00   2.53348708   0.05711816
4344.00   2.60128307   0.05877210
4346.00   2.59548330   0.06095627
4348.00   2.47592402   0.06096476
4350.00   2.65053296   0.06003264
4352.00   2.65935683   0.05933017
4354.00   2.44561625   0.06998581
4356.00   2.31452084   0.11297631
4358.00   2.73093176   0.13501103
4360.00   2.39246154   0.11702555
4362.00   2.55202127   0.08366762
4364.00   2.39357543   0.06434448
4366.00   2.45120168   0.06033350
4368.00   2.32587290   0.05868831
4370.00   2.34261298   0.05806559
4372.00   2.38458204   0.05960136
4374.00   2.36558700   0.06031461
4376.00   2.28648710   0.05872346
4378.00   2.23026609   0.05658697
4380.00   2.23142552   0.05560792
4382.00   2.36657381   0.05549887
4384.00   2.32828164   0.05476272
4386.00   2.35529828   0.05474693
4388.00   2.15120888   0.05380661
4390.00   2.23231864   0.05424545
4392.00   2.21226025   0.05399516
4394.00   2.15194607   0.05348693
4396.00   2.21963811   0.05398479
4398.00   2.24004745   0.05513616
4400.00   2.20493388   0.05601467
4402.00   2.23816895   0.05555335
4404.00   2.37841272   0.05493046
4406.00   2.27381039   0.05426551
4408.00   2.41758418   0.05484418
4410.00   2.36820960   0.05488696
4412.00   2.38961434   0.05549052
4414.00   2.38958001   0.05656595
4416.00   2.40645576   0.05648681
4418.00   2.58525944   0.05648088
4420.00   2.47071433   0.05530433
4422.00   2.50453734   0.05546452
4424.00   2.51985312   0.05528316
4426.00   2.35402465   0.05421950
4428.00   2.48743582   0.05481017
4430.00   2.50200629   0.05480420
4432.00   2.44827604   0.05458974
4434.00   2.58210969   0.05504763
4436.00   2.61982059   0.05491997
4438.00   2.44697857   0.05437148
4440.00   2.61516666   0.05506590
4442.00   2.74814773   0.05546514
4444.00   2.65680981   0.05484731
4446.00   2.43947172   0.05559525
4448.00   2.54289889   0.05466806
4450.00   2.67269468   0.05487273
4452.00   2.64332080   0.05451503
4454.00   2.69885755   0.05488760
4456.00   2.79961467   0.05517280
4458.00   2.76510811   0.05508531
4460.00   2.66276979   0.05459719
4462.00   2.74475694   0.05492831
4464.00   2.77387428   0.05519938
4466.00   2.81590986   0.05514064
4468.00   2.93938446   0.05543883
4470.00   2.89361000   0.05514340
4472.00   2.84074473   0.05483839
4474.00   2.80083060   0.05472025
4476.00   2.75382400   0.05445447
4478.00   2.82215786   0.05483574
4480.00   2.88908195   0.05501439
4482.00   2.75233650   0.05446434
4484.00   2.84817266   0.05475593
4486.00   2.72090364   0.05448736
4488.00   2.68943000   0.05403230
4490.00   2.77130723   0.05456355
4492.00   2.65071201   0.05433249
4494.00   2.67107940   0.05472034
4496.00   2.64286923   0.05449524
4498.00   2.61166477   0.05436625
4500.00   2.69407558   0.05442554
4502.00   2.63142037   0.05395924
4504.00   2.60392332   0.05354697
4506.00   2.53591156   0.05311286
4508.00   2.42394662   0.05225846
4510.00   2.48421240   0.05222123
4512.00   2.50307918   0.05243143
4514.00   2.62714243   0.05269574
4516.00   2.54853725   0.05211220
4518.00   2.43307614   0.05152975
4520.00   2.54564142   0.05184267
4522.00   2.46611643   0.05146542
4524.00   2.50544024   0.05136307
4526.00   2.40970254   0.05053571
4528.00   2.51888275   0.05100640
4530.00   2.45965791   0.05088994
4532.00   2.51460934   0.05118332
4534.00   2.55793262   0.05123108
4536.00   2.47855711   0.05060442
4538.00   2.43399525   0.05037824
4540.00   2.56514406   0.05101623
4542.00   2.64694452   0.05180499
4544.00   2.64464593   0.05198922
4546.00   2.64090157   0.05170677
4548.00   2.71860313   0.05154562
4550.00   2.67073965   0.05093348
4552.00   2.64695764   0.05060431
4554.00   2.66076040   0.05071263
4556.00   2.71231818   0.05093611
4558.00   2.78015614   0.05147073
4560.00   2.77540755   0.05097861
4562.00   2.89822412   0.05093252
4564.00   2.84147859   0.05067192
4566.00   2.81288576   0.05052393
4568.00   2.87882948   0.05059023
4570.00   2.93604827   0.05087446
4572.00   2.82975912   0.05071052
4574.00   2.89995813   0.05120034
4576.00   2.94858885   0.05105311
4578.00   2.84451580   0.05135645
4580.00   3.02885413   0.05129353
4582.00   2.88680696   0.04987337
4584.00   2.85604596   0.04930791
4586.00   2.91461849   0.04965207
4588.00   2.95954490   0.04988028
4590.00   3.06207252   0.05050050
4592.00   3.06359935   0.05047894
4594.00   2.97279334   0.05021805
4596.00   3.04565763   0.05032426
4598.00   3.01508427   0.04978748
4600.00   3.05854273   0.04972075
4602.00   3.08032274   0.04978681
4604.00   3.09008145   0.04970979
4606.00   3.05435562   0.04979299
4608.00   3.29816818   0.05109363
4610.00   3.05709553   0.04977089
4612.00   3.04896927   0.04970858
4614.00   3.16302299   0.04989385
4616.00   3.12712336   0.04962647
4618.00   3.13191152   0.04943867
4620.00   3.13159347   0.04949040
4622.00   3.00585246   0.04886499
4624.00   3.06687140   0.04909427
4626.00   3.04366803   0.04892567
4628.00   2.99179530   0.04869243
4630.00   2.98535323   0.04838925
4632.00   2.94997716   0.04840878
4634.00   2.99889541   0.04851399
4636.00   2.96586776   0.04820643
4638.00   2.94704986   0.04798495
4640.00   2.99301624   0.04827303
4642.00   2.92969322   0.04822428
4644.00   2.97287893   0.04821035
4646.00   2.93617153   0.04806069
4648.00   3.04028463   0.04859838
4650.00   2.93621349   0.04839842
4652.00   2.98268938   0.04869382
4654.00   2.94239807   0.04865132
4656.00   2.93253088   0.04886398
4658.00   2.91132593   0.04903347
4660.00   2.82683420   0.04924293
4662.00   2.93193388   0.05004009
4664.00   2.99322820   0.05088376
4666.00   3.09570861   0.05211880
4668.00   3.10996246   0.05293436
4670.00   2.88090253   0.05200959
4672.00   2.97991848   0.05214027
4674.00   3.08589554   0.05181258
4676.00   3.00937486   0.05078393
4678.00   2.99459267   0.05021661
4680.00   3.00659704   0.04981293
4682.00   2.99781179   0.04918083
4684.00   2.94265676   0.04886733
4686.00   3.04989696   0.04904980
4688.00   3.00433159   0.04853479
4690.00   3.09719157   0.04864663
4692.00   3.04629946   0.04825127
4694.00   2.92113996   0.04756639
4696.00   2.88106561   0.04702922
4698.00   3.02875304   0.04754041
4700.00   2.99954343   0.04726586
4702.00   2.88203478   0.04671514
4704.00   3.01278043   0.04758713
4706.00   2.89919496   0.04753982
4708.00   2.86450410   0.04766274
4710.00   2.98127365   0.04799872
4712.00   2.87599802   0.04721585
4714.00   2.87361526   0.04688075
4716.00   2.80105853   0.04659604
4718.00   2.96247339   0.04692081
4720.00   2.73495221   0.04575202
4722.00   2.74365997   0.04579914
4724.00   2.81029153   0.04602010
4726.00   2.75429463   0.04694218
4728.00   2.72954464   0.04841299
4730.00   2.75335050   0.04901751
4732.00   2.73213100   0.04885720
4734.00   2.66488576   0.04910709
4736.00   2.73249197   0.04976417
4738.00   2.63007808   0.05040427
4740.00   2.60626078   0.05129974
4742.00   2.55955338   0.05185483
4744.00   2.55586886   0.05084507
4746.00   2.58566093   0.04831165
4748.00   2.60539222   0.04630040
4750.00   2.58057737   0.04616091
4752.00   2.51724243   0.04616984
4754.00   2.52873397   0.04581088
4756.00   2.36735845   0.04390104
4758.00   2.43764544   0.04347466
4760.00   2.51862240   0.04334828
4762.00   2.49063301   0.04284501
4764.00   2.43939614   0.04232318
4766.00   2.42078280   0.04212219
4768.00   2.41678143   0.04198755
4770.00   2.45157743   0.04213321
4772.00   2.39416170   0.04172304
4774.00   2.41447711   0.04180113
4776.00   2.36576986   0.04259658
4778.00   2.43941498   0.04367315
4780.00   2.46153378   0.04370539
4782.00   2.45034623   0.04276445
4784.00   2.45134521   0.04230853
4786.00   2.52951336   0.04233972
4788.00   2.50424981   0.04222846
4790.00   2.55140328   0.04277139
4792.00   2.47548246   0.04240110
4794.00   2.42758060   0.04172023
4796.00   2.58072948   0.04237402
4798.00   2.57624722   0.04212272
4800.00   2.52476358   0.04185971
4802.00   2.52040172   0.04179739
4804.00   2.47886515   0.04172675
4806.00   2.38851285   0.04141413
4808.00   2.52937102   0.04220480
4810.00   2.42982531   0.04165832
4812.00   2.38274074   0.04137529
4814.00   2.40771484   0.04148956
4816.00   2.34680247   0.04127903
4818.00   2.37393689   0.04164631
4820.00   2.38917041   0.04182790
4822.00   2.38705730   0.04189419
4824.00   2.33653331   0.04195613
4826.00   2.48538518   0.04291571
4828.00   2.34185505   0.04225532
4830.00   2.47814631   0.04288252
4832.00   2.39334631   0.04262760
4834.00   2.33174562   0.04213973
4836.00   2.38275051   0.04256741
4838.00   2.27917480   0.04278796
4840.00   2.29813147   0.04310905
4842.00   2.24566126   0.04221667
4844.00   2.22938251   0.04239907
4846.00   2.21508145   0.04195966
4848.00   2.23998284   0.04194991
4850.00   2.35776711   0.04253845
4852.00   2.27707553   0.04209728
4854.00   2.29702020   0.04205559
4856.00   2.33484745   0.04159290
4858.00   2.24516535   0.04114104
4860.00   2.26282811   0.04138904
4862.00   2.33724880   0.04194242
4864.00   2.33497548   0.04215494
4866.00   2.38620019   0.04238241
4868.00   2.37521505   0.04232939
4870.00   2.39229679   0.04223057
4872.00   2.39522219   0.04220464
4874.00   2.31631064   0.04198431
4876.00   2.24172711   0.04170636
4878.00   2.27180147   0.04210804
4880.00   2.39609027   0.04260345
4882.00   2.31494546   0.04217682
4884.00   2.39704776   0.04224968
4886.00   2.49326849   0.04234755
4888.00   2.35481524   0.04150166
4890.00   2.43472958   0.04179587
4892.00   2.33737946   0.04146705
4894.00   2.40010428   0.04185423
4896.00   2.32986736   0.04156551
4898.00   2.38659310   0.04159482
4900.00   2.27676630   0.04091679
4902.00   2.35844946   0.04098553
4904.00   2.26573992   0.04069610
4906.00   2.38082600   0.04164424
4908.00   2.30594110   0.04140427
4910.00   2.29180241   0.04145861
4912.00   2.26337385   0.04117263
4914.00   2.25933242   0.04135381
4916.00   2.20185351   0.04090993
4918.00   2.23021603   0.04083411
4920.00   2.24049330   0.04078547
4922.00   2.19625521   0.04060230
4924.00   2.14394045   0.04022965
4926.00   2.15627360   0.03971551
4928.00   2.14195323   0.03949831
4930.00   2.13600707   0.03928800
4932.00   2.10401058   0.03916917
4934.00   2.11864161   0.03942266
4936.00   1.99014175   0.03890893
4938.00   1.97567856   0.03894410
4940.00   1.99438000   0.03909793
4942.00   2.02635980   0.03912532
4944.00   1.98329437   0.03864000
4946.00   1.94020188   0.03820107
4948.00   1.88763404   0.03793802
4950.00   1.94390535   0.03848412
4952.00   2.02009177   0.03952171
4954.00   1.87980103   0.03900095
4956.00   1.92642128   0.03881204
4958.00   1.95791316   0.03878379
4960.00   1.95339060   0.03875180
4962.00   1.89267206   0.03866646
4964.00   1.84412289   0.03886542
4966.00   1.89013290   0.03934046
4968.00   1.86037147   0.03955024
4970.00   1.81508088   0.04018532
4972.00   2.01900005   0.04251039
4974.00   2.39958215   0.04536540
4976.00   2.28443146   0.04649184
4978.00   2.07011962   0.04759252
4980.00   1.89084184   0.04896252
4982.00   1.91521811   0.05020059
4984.00   1.81628335   0.04984897
4986.00   1.95014119   0.04894787
4988.00   1.98663807   0.04745340
4990.00   1.96080554   0.04596686
4992.00   1.90841889   0.04419825
4994.00   1.99521589   0.04319933
4996.00   1.89896882   0.04145653
4998.00   1.96011853   0.04066136
5000.00   1.88038063   0.03962483
5002.00   2.00678539   0.03972389
5004.00   1.94049418   0.03908708
5006.00   2.07245135   0.03933292
5008.00   1.99426305   0.03878971
5010.00   2.06948161   0.03869309
5012.00   2.03021121   0.03839583
5014.00   2.03109097   0.03872021
5016.00   2.09841371   0.03932176
5018.00   1.96033084   0.03888474
5020.00   2.01574445   0.03943321
5022.00   2.01985645   0.03901598
5024.00   2.03256917   0.03868739
5026.00   1.97898650   0.03813566
5028.00   2.13599610   0.03927969
5030.00   2.14195752   0.03972487
5032.00   2.00001788   0.03893086
5034.00   1.90199482   0.03812418
5036.00   1.99123931   0.03818539
5038.00   2.03221893   0.03808970
5040.00   2.00175476   0.03786767
5042.00   1.97281051   0.03775969
5044.00   2.00694203   0.03804735
5046.00   1.98832488   0.03804791
5048.00   2.01968479   0.03823564
5050.00   2.06205320   0.03839297
5052.00   1.97615874   0.03796352
5054.00   1.97443283   0.03790007
5056.00   2.02204418   0.03802081
5058.00   1.93169832   0.03898835
5060.00   2.04526806   0.03840962
5062.00   2.02605271   0.03915075
5064.00   2.06359577   0.04006146
5066.00   2.00506020   0.04028891
5068.00   1.98743069   0.04121527
5070.00   2.03368163   0.04174695
5072.00   2.06948590   0.04114432
5074.00   2.06191802   0.04065312
5076.00   2.08427024   0.04035826
5078.00   1.92814088   0.04045126
5080.00   1.98666716   0.04372292
5082.00   2.03357148   0.04719983
5084.00   2.03296232   0.04940667
5086.00   1.92740524   0.04884503
5088.00   1.95736003   0.04686691
5090.00   2.00760078   0.04420607
5092.00   1.99145222   0.04172661
5094.00   1.94072831   0.04022077
5096.00   2.03031063   0.04093809
5098.00   2.02754807   0.04194150
5100.00   1.98933971   0.04191734
5102.00   1.93392754   0.04069452
5104.00   1.96637905   0.03973632
5106.00   1.95327377   0.03881745
5108.00   1.99355650   0.03864721
5110.00   1.96084964   0.03862603
5112.00   2.00012851   0.03877930
5114.00   2.02084994   0.03944083
5116.00   2.03949237   0.03965939
5118.00   1.95734608   0.03878081
5120.00   2.11463690   0.03931625
5122.00   2.41066480   0.04060063
5124.00   2.56074786   0.04116454
5126.00   2.35688949   0.03989829
5128.00   2.25092793   0.03935829
5130.00   2.14688587   0.03894876
5132.00   2.05188489   0.03839000
5134.00   2.11829877   0.03882874
5136.00   2.04531479   0.03937380
5138.00   2.03546286   0.03866884
5140.00   2.09078240   0.03880022
5142.00   2.11546135   0.03908988
5144.00   2.11232710   0.03938390
5146.00   2.18631196   0.04024722
5148.00   2.13405776   0.04102218
5150.00   2.23202252   0.04264284
5152.00   2.23879313   0.04375102
5154.00   2.18357754   0.04382223
5156.00   2.06876493   0.04265305
5158.00   2.19020987   0.04223404
5160.00   2.17657065   0.04145871
5162.00   2.20379663   0.04089288
5164.00   2.26492643   0.04066899
5166.00   2.26545644   0.04010807
5168.00   2.18664742   0.03950834
5170.00   2.19783807   0.03968888
5172.00   2.19901633   0.03976101
5174.00   2.25745463   0.03992414
5176.00   2.28438139   0.04045635
5178.00   2.26832700   0.04031315
5180.00   2.26031995   0.04021638
5182.00   2.23616076   0.04003204
5184.00   2.21672726   0.03998559
5186.00   2.19660187   0.04020944
5188.00   2.33726931   0.04095153
5190.00   2.21873379   0.04048056
5192.00   2.26974344   0.04087140
5194.00   2.27716136   0.04084818
5196.00   2.22610307   0.04089544
5198.00   2.31942868   0.04161758
5200.00   2.27070951   0.04145896
5202.00   2.31712484   0.04151325
5204.00   2.29546213   0.04139351
5206.00   2.25349498   0.04126142
5208.00   2.33628941   0.04223968
5210.00   2.25706506   0.04233214
5212.00   2.35509372   0.04253624
5214.00   2.31746483   0.04231640
5216.00   2.24538183   0.04205799
5218.00   2.25074267   0.04238114
5220.00   2.35944223   0.04296746
5222.00   2.27380204   0.04227583
5224.00   2.34726906   0.04244847
5226.00   2.20600772   0.04131988
5228.00   2.35981226   0.04233092
5230.00   2.34114957   0.04227708
5232.00   2.32266021   0.04214644
5234.00   2.32280326   0.04217704
5236.00   2.25943708   0.04222390
5238.00   2.39027190   0.04305446
5240.00   2.31730819   0.04266023
5242.00   2.29988647   0.04265200
5244.00   2.30801582   0.04242197
5246.00   2.33702374   0.04248605
5248.00   2.31281328   0.04246123
5250.00   2.35688353   0.04267723
5252.00   2.27981544   0.04239470
5254.00   2.27178884   0.04291946
5256.00   2.25314927   0.04356150
5258.00   2.28256464   0.04384566
5260.00   2.16846609   0.04287211
5262.00   2.27218485   0.04326613
5264.00   2.26799083   0.04281482
5266.00   2.32710886   0.04307344
5268.00   2.31646132   0.04277114
5270.00   2.26259732   0.04285233
5272.00   2.27680492   0.04304194
5274.00   2.18255734   0.04272652
5276.00   2.27172399   0.04343550
5278.00   2.35265303   0.04395053
5280.00   2.34788561   0.04393109
5282.00   2.19848561   0.04332191
5284.00   2.28151822   0.04416912
5286.00   2.25004148   0.04416826
5288.00   2.25465250   0.04418626
5290.00   2.20430613   0.04379116
5292.00   2.21816969   0.04399989
5294.00   2.26210165   0.04432115
5296.00   2.24193668   0.04456668
5298.00   2.24349761   0.04471187
5300.00   2.22184515   0.04466767
5302.00   2.23464513   0.04498825
5304.00   2.29334235   0.04513502
5306.00   2.33332801   0.04540453
5308.00   2.28523445   0.04526530
5310.00   2.32762337   0.04547866
5312.00   2.36946917   0.04616509
5314.00   2.21555948   0.04557817
5316.00   2.22439384   0.04534695
5318.00   2.30884743   0.04588524
5320.00   2.21522379   0.04556997
5322.00   2.12817812   0.04550855
5324.00   2.18731666   0.04596991
5326.00   2.17452097   0.04591222
5328.00   2.11947608   0.04567670
5330.00   2.17587996   0.04635736
5332.00   2.18768215   0.04681369
5334.00   2.18252087   0.04679993
5336.00   2.11913490   0.04661015
5338.00   2.16177082   0.04741373
5340.00   2.06923175   0.04751263
5342.00   2.09366894   0.04760135
5344.00   2.02990174   0.04746562
5346.00   1.96217394   0.04779223
5348.00   1.97351825   0.04891629
5350.00   1.94619179   0.04890449
5352.00   2.01643229   0.04933104
5354.00   1.84274447   0.04928980
5356.00   1.87347901   0.04969687
5358.00   1.99695408   0.04940638
5360.00   2.01484489   0.04868935
5362.00   1.90723193   0.04734877
5364.00   1.96446538   0.04742119
5366.00   1.90295339   0.04691608
5368.00   1.84325314   0.04646702
5370.00   1.91617668   0.04725853
5372.00   1.78326750   0.04705315
5374.00   1.81018913   0.04824693
5376.00   1.90264142   0.04881510
5378.00   1.86045766   0.04848043
5380.00   1.82381499   0.04823931
5382.00   1.80997789   0.04787457
5384.00   1.89049053   0.04870320
5386.00   1.74945462   0.04787913
5388.00   1.72457159   0.04815493
5390.00   1.80589318   0.04980551
5392.00   1.61378348   0.05073497
5394.00   1.69202983   0.05076401
5396.00   1.72125924   0.05001194
5398.00   1.81497586   0.05082987
5400.00   1.81148338   0.05067786
5402.00   1.70655596   0.05049295
5404.00   1.73928654   0.05104581
5406.00   1.76348817   0.05170602
5408.00   1.79967177   0.05284451
5410.00   1.75425136   0.05345464
5412.00   1.89688325   0.05548544
5414.00   1.96980572   0.05734571
5416.00   1.94204235   0.05852138
5418.00   1.92514837   0.05918577
5420.00   1.80593479   0.05891778
5422.00   1.70662546   0.05851987
5424.00   1.81565595   0.05920190
5426.00   1.92671669   0.05974455
5428.00   1.90637553   0.02497150
5430.00   1.92043197   0.02405284
5432.00   1.91278350   0.02310174
5434.00   1.91854715   0.02362998
5436.00   1.92588747   0.02652975
5438.00   1.93683982   0.02734173
5440.00   1.95751822   0.02573509
5442.00   1.97386718   0.02369180
5444.00   1.97111189   0.02301621
5446.00   1.95458806   0.02292043
5448.00   1.94386470   0.02407624
5450.00   1.92453671   0.02641204
5452.00   1.92166543   0.02880934
5454.00   1.93117559   0.03124248
5456.00   1.95109081   0.03407854
5458.00   1.99548399   0.03844353
5460.00   2.05363083   0.04311166
5462.00   2.02731347   0.04200798
5464.00   1.87764120   0.03319444
5466.00   1.84955013   0.02858986
5468.00   1.91922045   0.02648176
5470.00   1.97447431   0.02520685
5472.00   1.97743618   0.02448531
5474.00   1.96219194   0.02455730
5476.00   1.96677220   0.02463087
5478.00   1.97760534   0.02539244
5480.00   1.99156022   0.02532145
5482.00   2.01894665   0.02476221
5484.00   2.03299952   0.02402586
5486.00   2.02925062   0.02293138
5488.00   2.01554847   0.02175694
5490.00   1.99618399   0.02115251
5492.00   1.95941544   0.02084192
5494.00   1.96049047   0.02114025
5496.00   1.99358368   0.02229504
5498.00   2.02348399   0.02315818
5500.00   2.06948614   0.02421483
5502.00   2.09677839   0.02469574
5504.00   2.05727386   0.02347651
5506.00   1.96229911   0.02051945
5508.00   1.93214476   0.01959158
5510.00   1.94433224   0.02029133
5512.00   1.94340777   0.02048755
5514.00   1.94049788   0.02057493
5516.00   1.93366516   0.02057598
5518.00   1.91896069   0.02033341
5520.00   1.89870417   0.01994072
5522.00   1.88250363   0.02021192
5524.00   1.87108970   0.02121849
5526.00   1.85085821   0.02170682
5528.00   1.82021523   0.02225258
5530.00   1.79285502   0.02224435
5532.00   1.77434599   0.02116320
5534.00   1.75962377   0.01947821
5536.00   1.74024618   0.01887977
5538.00   1.70487547   0.01910230
5540.00   1.70857620   0.01904790
5542.00   1.75208104   0.01908980
5544.00   1.78614628   0.01911161
5546.00   1.81158054   0.01909056
5548.00   1.82499039   0.01906378
5550.00   1.80439961   0.01908454
5552.00   1.74604475   0.01919740
5554.00   1.71725535   0.01905061
5556.00   1.69877887   0.01830314
5558.00   1.68474042   0.01829468
5560.00   1.67842531   0.01935487
5562.00   1.67383337   0.02044730
5564.00   1.66285467   0.02044972
5566.00   1.64762747   0.01950191
5568.00   1.64365327   0.02153960
5570.00   1.66293561   0.02494347
5572.00   1.65142620   0.02892512
5574.00   1.58108580   0.03554148
5576.00   1.54322958   0.03914068
5578.00   1.61288059   0.03666403
5580.00   1.74904692   0.02937244
5582.00   1.79073799   0.02548116
5584.00   1.76179755   0.02260811
5586.00   1.76901758   0.02090581
5588.00   1.79277778   0.02205010
5590.00   1.81316900   0.02258314
5592.00   1.82418060   0.02098884
5594.00   1.83019269   0.01838049
5596.00   1.83263743   0.01748184
5598.00   1.82810235   0.01788587
5600.00   1.82724071   0.01806685
5602.00   1.81771290   0.01887953
5604.00   1.82534099   0.01917288
5606.00   1.86477733   0.01859293
5608.00   1.91137350   0.01770863
5610.00   1.92399132   0.01740506
5612.00   1.91252840   0.01736153
5614.00   1.91102540   0.01751146
5616.00   1.90579844   0.01800803
5618.00   1.90584671   0.01842959
5620.00   1.90561724   0.01895469
5622.00   1.91547835   0.01927760
5624.00   1.95370591   0.01893024
5626.00   2.02012849   0.01794798
5628.00   2.04145145   0.01771205
5630.00   2.02935362   0.01807644
5632.00   2.02286315   0.01813237
5634.00   2.00954819   0.01791915
5636.00   2.00336123   0.01771406
5638.00   2.01710606   0.01767626
5640.00   2.04419303   0.01772490
5642.00   2.06480455   0.01779171
5644.00   2.09039044   0.01791217
5646.00   2.10593343   0.01804508
5648.00   2.11695194   0.01826202
5650.00   2.11871624   0.01839979
5652.00   2.10538912   0.01829545
5654.00   2.08326936   0.01812197
5656.00   2.07374883   0.01844942
5658.00   2.07602262   0.01911693
5660.00   2.06443381   0.01986533
5662.00   2.03078365   0.02113114
5664.00   2.01960421   0.02182708
5666.00   2.05205894   0.02160272
5668.00   2.09470296   0.02108500
5670.00   2.09090161   0.02126340
5672.00   2.04831314   0.02183526
5674.00   2.04009700   0.02231218
5676.00   2.05464196   0.02277300
5678.00   2.05858159   0.02341898
5680.00   2.05107498   0.02409547
5682.00   2.03855395   0.02505873
5684.00   2.02327585   0.02680620
5686.00   2.00230241   0.02930282
5688.00   1.99190462   0.02986474
5690.00   1.97944498   0.02903750
5692.00   1.98778403   0.02818901
5694.00   2.02447367   0.02688197
5696.00   2.06282425   0.02553181
5698.00   2.08844423   0.02462716
5700.00   2.10906744   0.02397257
5702.00   2.10362768   0.02283251
5704.00   2.05879879   0.02088188
5706.00   2.04194498   0.01980899
5708.00   2.04349232   0.01964154
5710.00   2.04629898   0.01955061
5712.00   2.04760170   0.01920775
5714.00   2.04764295   0.01883520
5716.00   2.03058147   0.01857076
5718.00   1.98443675   0.01814973
5720.00   1.97197068   0.01834195
5722.00   1.98022866   0.01928850
5724.00   1.99325359   0.01989724
5726.00   2.00992155   0.02004085
5728.00   2.03059983   0.01990379
5730.00   2.05194354   0.01946880
5732.00   2.08392286   0.01852864
5734.00   2.08591056   0.01795707
5736.00   2.05396342   0.01747453
5738.00   2.03706932   0.01715025
5740.00   2.04000211   0.01703770
5742.00   2.04719710   0.01704233
5744.00   2.04539967   0.01706460
5746.00   2.03930020   0.01717018
5748.00   2.03757787   0.01718568
5750.00   2.03871536   0.01700199
5752.00   2.03864217   0.01713457
5754.00   2.03537989   0.01758381
5756.00   2.03503776   0.01813634
5758.00   2.04455256   0.01869444
5760.00   2.06106877   0.01930596
5762.00   2.06138563   0.01979359
5764.00   2.04577994   0.02015898
5766.00   2.03927326   0.02061887
5768.00   2.03506446   0.02141098
5770.00   2.03567863   0.02177872
5772.00   2.04493976   0.02128712
5774.00   2.05917311   0.02026992
5776.00   2.06414700   0.01969066
5778.00   2.07151079   0.01911702
5780.00   2.05900335   0.01887788
5782.00   2.00739932   0.01887614
5784.00   1.98825252   0.01914908
5786.00   2.03222704   0.01983621
5788.00   2.09662557   0.02066248
5790.00   2.11007428   0.02109005
5792.00   2.09391642   0.02127717
5794.00   2.07859778   0.02155606
5796.00   2.03265285   0.02213367
5798.00   2.02092314   0.02210147
5800.00   2.06502557   0.02121123
5802.00   2.11491156   0.01998154
5804.00   2.11135626   0.01898523
5806.00   2.07182384   0.01783135
5808.00   2.05573249   0.01758088
5810.00   2.03889179   0.01825673
5812.00   2.03659439   0.01883746
5814.00   2.05574942   0.01969730
5816.00   2.07519126   0.02028399
5818.00   2.07839298   0.02007819
5820.00   2.07307506   0.01930160
5822.00   2.07147050   0.01890830
5824.00   2.06597495   0.01849216
5826.00   2.06770921   0.01833515
5828.00   2.08495426   0.01854268
5830.00   2.09012842   0.01869848
5832.00   2.06627321   0.01836465
5834.00   2.02624774   0.01792102
5836.00   2.00227714   0.01896031
5838.00   1.98142147   0.02176808
5840.00   1.96795511   0.02280030
5842.00   1.97291052   0.02295225
5844.00   1.96245623   0.02304218
5846.00   1.91265178   0.02337635
5848.00   1.85771644   0.02356186
5850.00   1.87096703   0.02292270
5852.00   1.95448291   0.02119803
5854.00   1.97380543   0.02039249
5856.00   1.96466374   0.01935746
5858.00   1.94365680   0.01981676
5860.00   1.89439690   0.02271101
5862.00   1.84858835   0.02544043
5864.00   1.85721409   0.02564729
5866.00   1.91026044   0.02417267
5868.00   1.92716730   0.02351427
5870.00   1.93243062   0.02295957
5872.00   1.93060303   0.02222658
5874.00   1.92385161   0.02076291
5876.00   1.90578699   0.01985006
5878.00   1.86735499   0.01997808
5880.00   1.81105793   0.02064485
5882.00   1.77564454   0.02688462
5884.00   1.74332690   0.03765166
5886.00   1.72907901   0.04270855
5888.00   1.72368026   0.04556392
5890.00   1.74225128   0.04703721
5892.00   1.81083107   0.04709991
5894.00   1.90650451   0.04594678
5896.00   1.91469038   0.04496248
5898.00   1.84476268   0.04462128
5900.00   1.80411828   0.04149709
5902.00   1.74511850   0.03354894
5904.00   1.71354866   0.02605319
5906.00   1.72280550   0.02291301
5908.00   1.75861108   0.02256127
5910.00   1.80871451   0.02127450
5912.00   1.90590096   0.02079378
5914.00   1.93104279   0.02038701
5916.00   1.89042056   0.02028477
5918.00   1.87197876   0.02055594
5920.00   1.88744211   0.02162336
5922.00   1.90963507   0.02257300
5924.00   1.91293144   0.02210216
5926.00   1.90321171   0.02028464
5928.00   1.91245949   0.01991679
5930.00   1.94715357   0.02060791
5932.00   1.95597291   0.02094784
5934.00   1.93319488   0.02119969
5936.00   1.90640426   0.02119091
5938.00   1.89800549   0.02055243
5940.00   1.89868164   0.01933050
5942.00   1.88438451   0.01884956
5944.00   1.84908831   0.01882065
5946.00   1.83823109   0.01885755
5948.00   1.84978676   0.01924082
5950.00   1.86487830   0.01946392
5952.00   1.87447464   0.01918465
5954.00   1.88411701   0.01862803
5956.00   1.89930010   0.01847583
5958.00   1.93245459   0.01856558
5960.00   1.93527770   0.01864828
5962.00   1.90968430   0.01884661
5964.00   1.88735020   0.01901372
5966.00   1.87440646   0.01921945
5968.00   1.86653161   0.01933634
5970.00   1.86885333   0.01889182
5972.00   1.88497806   0.01761404
5974.00   1.89194667   0.01721069
5976.00   1.89621401   0.01739223
5978.00   1.89937925   0.01759657
5980.00   1.90090990   0.01788194
5982.00   1.90179837   0.01814521
5984.00   1.90418983   0.01812529
5986.00   1.90812361   0.01790892
5988.00   1.90788615   0.01764098
5990.00   1.91026103   0.01701057
5992.00   1.90012228   0.01680160
5994.00   1.86828554   0.01699833
5996.00   1.83930242   0.01745468
5998.00   1.83624732   0.01812068
6000.00   1.84991181   0.01900864
6002.00   1.85601377   0.01981004
6004.00   1.85775638   0.02121297
6006.00   1.87096465   0.02134042
6008.00   1.90070450   0.02013228
6010.00   1.92638779   0.01864638
6012.00   1.93717587   0.01735667
6014.00   1.93942928   0.01601289
6016.00   1.93822777   0.01544397
6018.00   1.93601203   0.01557905
6020.00   1.91859508   0.01597209
6022.00   1.88019788   0.01721351
6024.00   1.84690607   0.01791797
6026.00   1.82198763   0.01762247
6028.00   1.80507588   0.01687152
6030.00   1.81115520   0.01662962
6032.00   1.84245598   0.01665289
6034.00   1.86723351   0.01649557
6036.00   1.91052771   0.01616305
6038.00   1.92809129   0.01602303
6040.00   1.90375876   0.01625231
6042.00   1.86831021   0.01651897
6044.00   1.86324370   0.01632979
6046.00   1.87590373   0.01569333
6048.00   1.87986732   0.01569416
6050.00   1.88074315   0.01636948
6052.00   1.88699603   0.01655864
6054.00   1.89933980   0.01621137
6056.00   1.91420281   0.01572792
6058.00   1.93174243   0.01537933
6060.00   1.95429122   0.01501004
6062.00   1.95201063   0.01501093
6064.00   1.91804945   0.01539209
6066.00   1.90594208   0.01570698
6068.00   1.91480422   0.01598770
6070.00   1.92118347   0.01636403
6072.00   1.91178131   0.01709158
6074.00   1.89436889   0.01795387
6076.00   1.88252509   0.01764137
6078.00   1.86183536   0.01573509
6080.00   1.86429715   0.01496940
6082.00   1.89474702   0.01475350
6084.00   1.91730022   0.01495324
6086.00   1.92060912   0.01584123
6088.00   1.91432261   0.01691820
6090.00   1.90634549   0.01679090
6092.00   1.89666998   0.01537910
6094.00   1.87370706   0.01502848
6096.00   1.82252049   0.01529711
6098.00   1.79581320   0.01552139
6100.00   1.80575275   0.01560354
6102.00   1.83072150   0.01571907
6104.00   1.84682846   0.01602533
6106.00   1.86580765   0.01650821
6108.00   1.87708580   0.01683514
6110.00   1.88915479   0.01707657
6112.00   1.88647461   0.01735131
6114.00   1.85341442   0.01741886
6116.00   1.82746911   0.01778108
6118.00   1.85516000   0.01925545
6120.00   1.92605293   0.02160268
6122.00   1.91918850   0.02122376
6124.00   1.84325552   0.01752257
6126.00   1.79804683   0.01567341
6128.00   1.76288986   0.01591420
6130.00   1.74300706   0.01633011
6132.00   1.74980843   0.01582030
6134.00   1.77640927   0.01496920
6136.00   1.78229570   0.01503494
6138.00   1.77934289   0.01606576
6140.00   1.77533221   0.01642388
6142.00   1.76745200   0.01650500
6144.00   1.75778139   0.01645231
6146.00   1.74538016   0.01620223
6148.00   1.73194015   0.01585503
6150.00   1.72520387   0.01589683
6152.00   1.72530544   0.01638796
6154.00   1.72073722   0.01640708
6156.00   1.71409142   0.01609175
6158.00   1.70785367   0.01584051
6160.00   1.70458150   0.01577196
6162.00   1.69971299   0.01569569
6164.00   1.68464601   0.01534166
6166.00   1.65874994   0.01469843
6168.00   1.64383507   0.01431778
6170.00   1.63732660   0.01406915
6172.00   1.62633073   0.01385808
6174.00   1.60833657   0.01362295
6176.00   1.59116876   0.01352110
6178.00   1.58391333   0.01379357
6180.00   1.58500946   0.01441210
6182.00   1.56895578   0.01441492
6184.00   1.53419244   0.01395948
6186.00   1.51222205   0.01355404
6188.00   1.50254285   0.01288022
6190.00   1.49282753   0.01246962
6192.00   1.47742963   0.01281266
6194.00   1.45932329   0.01362328
6196.00   1.43261385   0.01412385
6198.00   1.38992596   0.01499926
6200.00   1.36237121   0.01490953
6202.00   1.34151185   0.01341905
6204.00   1.32877493   0.01244676
6206.00   1.32654917   0.01315688
6208.00   1.33210611   0.01453312
6210.00   1.33727467   0.01508450
6212.00   1.35909843   0.01571780
6214.00   1.34586477   0.01532674
6216.00   1.29674613   0.01332166
6218.00   1.25787687   0.01194842
6220.00   1.23652232   0.01197686
6222.00   1.22251952   0.01269186
6224.00   1.20957124   0.01348504
6226.00   1.19972777   0.01483523
6228.00   1.19546676   0.01521183
6230.00   1.19885135   0.01481915
6232.00   1.20139706   0.01465903
6234.00   1.20151842   0.01447482
6236.00   1.20396757   0.01466502
6238.00   1.21560991   0.01599982
6240.00   1.23682594   0.01824733
6242.00   1.23625171   0.01845405
6244.00   1.21777046   0.01703105
6246.00   1.20156336   0.01596283
6248.00   1.18239176   0.01483279
6250.00   1.16464210   0.01383649
6252.00   1.15274775   0.01328752
6254.00   1.14443767   0.01309631
6256.00   1.13258672   0.01293690
6258.00   1.11215079   0.01288622
6260.00   1.10781276   0.01309173
6262.00   1.11898601   0.01378966
6264.00   1.13126314   0.01421765
6266.00   1.13888979   0.01406056
6268.00   1.14630151   0.01359755
6270.00   1.15888739   0.01334077
6272.00   1.18236864   0.01304694
6274.00   1.18894708   0.01291832
6276.00   1.18070948   0.01292689
6278.00   1.17509913   0.01299535
6280.00   1.17348468   0.01305556
6282.00   1.17487466   0.01321799
6284.00   1.18362415   0.01372479
6286.00   1.20226002   0.01470162
6288.00   1.21001816   0.01490024
6290.00   1.21087134   0.01452849
6292.00   1.21226621   0.01419985
6294.00   1.21852100   0.01375864
6296.00   1.21954179   0.01344492
6298.00   1.20022440   0.01374104
6300.00   1.16059554   0.01456843
6302.00   1.15626717   0.01462518
6304.00   1.17984390   0.01409942
6306.00   1.19759262   0.01375670
6308.00   1.21320498   0.01352155
6310.00   1.23075902   0.01329688
6312.00   1.25279975   0.01305777
6314.00   1.27818131   0.01281833
6316.00   1.29779470   0.01248350
6318.00   1.31663764   0.01185821
6320.00   1.32864320   0.01166018
6322.00   1.33041036   0.01192023
6324.00   1.33454776   0.01215139
6326.00   1.34678853   0.01217381
6328.00   1.36279309   0.01211821
6330.00   1.37631059   0.01208129
6332.00   1.38743985   0.01205502
6334.00   1.40391004   0.01194171
6336.00   1.42733419   0.01163633
6338.00   1.44680583   0.01150419
6340.00   1.45948493   0.01171804
6342.00   1.46912754   0.01202296
6344.00   1.47996318   0.01201300
6346.00   1.48994195   0.01176845
6348.00   1.50081801   0.01167472
6350.00   1.51424444   0.01136614
6352.00   1.52372432   0.01157335
6354.00   1.52704024   0.01263188
6356.00   1.52951956   0.01362044
6358.00   1.53872645   0.01369484
6360.00   1.55470657   0.01318898
6362.00   1.55147505   0.01275585
6364.00   1.52863598   0.01179988
6366.00   1.51372194   0.01143304
6368.00   1.49742186   0.01180221
6370.00   1.49180603   0.01225725
6372.00   1.51054144   0.01242799
6374.00   1.54765904   0.01251255
6376.00   1.57112741   0.01245083
6378.00   1.59273076   0.01202564
6380.00   1.60987222   0.01200207
6382.00   1.63275075   0.01242822
6384.00   1.63663781   0.01271733
6386.00   1.59563506   0.01257786
6388.00   1.53391969   0.01224025
6390.00   1.54172206   0.01222732
6392.00   1.62220109   0.01257089
6394.00   1.65127230   0.01251069
6396.00   1.66036904   0.01199125
6398.00   1.66423559   0.01177345
6400.00   1.66166580   0.01224385
6402.00   1.65636110   0.01284830
6404.00   1.66301763   0.01269559
6406.00   1.67838430   0.01180112
6408.00   1.69105041   0.01163304
6410.00   1.71408129   0.01192094
6412.00   1.71944141   0.01217467
6414.00   1.69716406   0.01238193
6416.00   1.67007935   0.01261492
6418.00   1.66425896   0.01296408
6420.00   1.66966307   0.01351254
6422.00   1.67733252   0.01331647
6424.00   1.69282782   0.01222345
6426.00   1.70792019   0.01153973
6428.00   1.72520494   0.01121517
6430.00   1.74137866   0.01106352
6432.00   1.75431681   0.01101774
6434.00   1.76534069   0.01112021
6436.00   1.76761174   0.01125425
6438.00   1.75782073   0.01162290
6440.00   1.75425148   0.01168467
6442.00   1.75327563   0.01142167
6444.00   1.75366950   0.01119516
6446.00   1.75806606   0.01117481
6448.00   1.76358175   0.01125511
6450.00   1.75335968   0.01135284
6452.00   1.72338247   0.01157252
6454.00   1.70789051   0.01165632
6456.00   1.69781864   0.01156043
6458.00   1.69044578   0.01161916
6460.00   1.68298435   0.01201878
6462.00   1.67956829   0.01248044
6464.00   1.69051957   0.01250277
6466.00   1.72206652   0.01208094
6468.00   1.72936881   0.01212119
6470.00   1.72332156   0.01257268
6472.00   1.71242666   0.01275818
6474.00   1.69111788   0.01259030
6476.00   1.66996622   0.01230613
6478.00   1.66667008   0.01213196
6480.00   1.67799747   0.01196393
6482.00   1.67449427   0.01185926
6484.00   1.65882027   0.01178468
6486.00   1.65201926   0.01179191
6488.00   1.64797461   0.01183187
6490.00   1.65428412   0.01200030
6492.00   1.68549860   0.01249352
6494.00   1.73789299   0.01323735
6496.00   1.74443555   0.01315326
6498.00   1.71049738   0.01206722
6500.00   1.69210756   0.01168145
6502.00   1.67642081   0.01195150
6504.00   1.66517723   0.01215324
6506.00   1.66015935   0.01194671
6508.00   1.66024804   0.01154888
6510.00   1.66453326   0.01130336
6512.00   1.67908037   0.01105251
6514.00   1.68456185   0.01092267
6516.00   1.68392503   0.01092680
6518.00   1.68428457   0.01094315
6520.00   1.68947840   0.01093767
6522.00   1.69453979   0.01094573
6524.00   1.68960178   0.01100633
6526.00   1.67688262   0.01114765
6528.00   1.66313970   0.01118292
6530.00   1.64024425   0.01111703
6532.00   1.62580550   0.01110417
6534.00   1.62000918   0.01116036
6536.00   1.62170410   0.01124688
6538.00   1.63525832   0.01131276
6540.00   1.66633737   0.01132069
6542.00   1.66683412   0.01164432
6544.00   1.63937461   0.01232735
6546.00   1.62319708   0.01279415
6548.00   1.61277640   0.01330908
6550.00   1.60958743   0.01347871
6552.00   1.62132668   0.01275867
6554.00   1.64662421   0.01116487
6556.00   1.64726615   0.01062879
6558.00   1.62789023   0.01092706
6560.00   1.61500669   0.01100953
6562.00   1.59954822   0.01115939
6564.00   1.59035873   0.01122092
6566.00   1.59535074   0.01097646
6568.00   1.60888803   0.01058203
6570.00   1.61074615   0.01086183
6572.00   1.60644650   0.01180868
6574.00   1.60172153   0.01233152
6576.00   1.59212112   0.01298027
6578.00   1.58535755   0.01314938
6580.00   1.58561587   0.01242528
6582.00   1.58779693   0.01126685
6584.00   1.58086658   0.01105510
6586.00   1.56048751   0.01161721
6588.00   1.56187439   0.01169958
6590.00   1.58400929   0.01156424
6592.00   1.59877849   0.01156874
6594.00   1.60396075   0.01186508
6596.00   1.60447216   0.01214275
6598.00   1.60225034   0.01200058
6600.00   1.59621882   0.01152980
6602.00   1.58798325   0.01114815
6604.00   1.57363820   0.01058142
6606.00   1.56352878   0.01023416
6608.00   1.55676067   0.01016549
6610.00   1.55267537   0.01019058
6612.00   1.55094171   0.01017138
6614.00   1.55137622   0.01017484
6616.00   1.55875862   0.01017778
6618.00   1.58176219   0.01015368
6620.00   1.58752704   0.01021217
6622.00   1.57818007   0.01033363
6624.00   1.56490159   0.01050729
6626.00   1.55054533   0.01079447
6628.00   1.53404379   0.01113511
6630.00   1.52928972   0.01111530
6632.00   1.53808665   0.01073529
6634.00   1.53792596   0.01048386
6636.00   1.53404772   0.01013875
6638.00   1.52894914   0.00993484
6640.00   1.52253950   0.00996848
6642.00   1.51534390   0.01015378
6644.00   1.51051712   0.01038692
6646.00   1.50923765   0.01083645
6648.00   1.50200868   0.01095528
6650.00   1.48419201   0.01077301
6652.00   1.47740531   0.01070567
6654.00   1.48817968   0.01084971
6656.00   1.50412536   0.01102303
6658.00   1.50992429   0.01103461
6660.00   1.51211035   0.01097634
6662.00   1.50963604   0.01078134
6664.00   1.49762785   0.01028131
6666.00   1.49188042   0.01001769
6668.00   1.49401081   0.01001984
6670.00   1.49675417   0.01013349
6672.00   1.49300957   0.01027187
6674.00   1.48476875   0.01048596
6676.00   1.48821437   0.01060538
6678.00   1.50287402   0.01075619
6680.00   1.51306009   0.01072483
6682.00   1.52388000   0.01044267
6684.00   1.53021407   0.01017032
6686.00   1.52556503   0.01007386
6688.00   1.51416945   0.01006435
6690.00   1.51892328   0.01001787
6692.00   1.54028106   0.00990800
6694.00   1.54984570   0.00996853
6696.00   1.55267179   0.01009581
6698.00   1.55553722   0.01039086
6700.00   1.55147898   0.01094446
6702.00   1.55148506   0.01159942
6704.00   1.59543073   0.01202026
6706.00   1.66221189   0.01231363
6708.00   1.77531946   0.01262971
6710.00   1.97493279   0.01288196
6712.00   2.12598825   0.01319597
6714.00   2.23082328   0.01357051
6716.00   2.28222895   0.01399766
6718.00   2.22887611   0.01454981
6720.00   2.06657553   0.01537826
6722.00   1.93429029   0.01541179
6724.00   1.74488044   0.01491728
6726.00   1.62871528   0.01412309
6728.00   1.57923079   0.01228232
6730.00   1.58357990   0.01064297
6732.00   1.65927565   0.01150232
6734.00   1.81743121   0.01399488
6736.00   1.84845865   0.01438716
6738.00   1.80467665   0.01375144
6740.00   1.74079609   0.01303984
6742.00   1.61686468   0.01165997
6744.00   1.50578439   0.01039654
6746.00   1.45509565   0.01010784
6748.00   1.43850470   0.01045648
6750.00   1.42451501   0.01045885
6752.00   1.43223906   0.01048040
6754.00   1.43498862   0.01045317
6756.00   1.44515741   0.01036561
6758.00   1.44827557   0.01029415
6760.00   1.43589783   0.01024789
6762.00   1.41666973   0.01022983
6764.00   1.41003597   0.01031577
6766.00   1.41095769   0.01063814
6768.00   1.41093290   0.01057915
6770.00   1.41541541   0.01016520
6772.00   1.41619110   0.00982938
6774.00   1.41047561   0.00963478
6776.00   1.40299225   0.00950979
6778.00   1.40041471   0.00943924
6780.00   1.40109253   0.00943648
6782.00   1.39942670   0.00947637
6784.00   1.39767456   0.00963291
6786.00   1.39435017   0.00970459
6788.00   1.38978755   0.00960288
6790.00   1.38354015   0.00955902
6792.00   1.37467027   0.00980948
6794.00   1.36321414   0.01024774
6796.00   1.35301304   0.01070450
6798.00   1.33364916   0.01156593
6800.00   1.33397305   0.01174741
6802.00   1.36072016   0.01119247
6804.00   1.38523388   0.01053363
6806.00   1.39003909   0.01016567
6808.00   1.38445866   0.00990092
6810.00   1.37624228   0.00984208
6812.00   1.35501754   0.01007479
6814.00   1.34607053   0.01021675
6816.00   1.34353447   0.01040511
6818.00   1.34599006   0.01053214
6820.00   1.35747409   0.01050114
6822.00   1.37255800   0.01041935
6824.00   1.36909401   0.01060583
6826.00   1.34149611   0.01101377
6828.00   1.34073496   0.01133784
6830.00   1.36063528   0.01177651
6832.00   1.37548625   0.01202425
6834.00   1.38278174   0.01206466
6836.00   1.38538849   0.01193206
6838.00   1.38034785   0.01156966
6840.00   1.36410332   0.01085052
6842.00   1.36061954   0.01038571
6844.00   1.36828315   0.00998391
6846.00   1.36948717   0.00968755
6848.00   1.36290920   0.00947424
6850.00   1.35418403   0.00941339
6852.00   1.34779024   0.00961114
6854.00   1.34193850   0.01004808
6856.00   1.33467817   0.01035232
6858.00   1.31920004   0.01042910
6860.00   1.31888711   0.01096268
6862.00   1.32893336   0.01193229
6864.00   1.35142362   0.01293155
6866.00   1.39370477   0.01390276
6868.00   1.45222402   0.01488238
6870.00   1.48705041   0.01505442
6872.00   1.51954448   0.01451711
6874.00   1.52504361   0.01399633
6876.00   1.49115372   0.01311741
6878.00   1.46619141   0.01229856
6880.00   1.47158968   0.01174317
6882.00   1.49015725   0.01135566
6884.00   1.49636412   0.01112152
6886.00   1.51102495   0.01117710
6888.00   1.49319065   0.01111280
6890.00   1.44091594   0.01107252
6892.00   1.39394844   0.01099647
6894.00   1.35647559   0.01086880
6896.00   1.32444525   0.01070929
6898.00   1.30238545   0.01053451
6900.00   1.28873301   0.01029977
6902.00   1.28229690   0.01018233
6904.00   1.29028809   0.01010108
6906.00   1.29238856   0.01014298
6908.00   1.28405619   0.01039379
6910.00   1.27758408   0.01065171
6912.00   1.28733778   0.01069599
6914.00   1.31085241   0.01060792
6916.00   1.31583691   0.01056021
6918.00   1.30764425   0.01046180
6920.00   1.30253434   0.01041966
6922.00   1.29976368   0.01041239
6924.00   1.29493523   0.01045160
6926.00   1.28397620   0.01053717
6928.00   1.26871514   0.01066611
6930.00   1.26320565   0.01092723
6932.00   1.26603973   0.01158324
6934.00   1.26598072   0.01164068
6936.00   1.26605916   0.01109671
6938.00   1.26537788   0.01057171
6940.00   1.26152039   0.01031694
6942.00   1.25710201   0.01019684
6944.00   1.26294398   0.01025912
6946.00   1.28476954   0.01060902
6948.00   1.28851449   0.01080271
6950.00   1.27867973   0.01103266
6952.00   1.27095032   0.01113549
6954.00   1.26803911   0.01105832
6956.00   1.26690507   0.01087856
6958.00   1.26682246   0.01070222
6960.00   1.26998782   0.01043234
6962.00   1.26747644   0.01031330
6964.00   1.25530338   0.01023562
6966.00   1.25343025   0.01031079
6968.00   1.26697612   0.01068344
6970.00   1.28312266   0.01102275
6972.00   1.28861523   0.01093336
6974.00   1.28901100   0.01051335
6976.00   1.28614485   0.01033264
6978.00   1.27824628   0.01024529
6980.00   1.26896358   0.01014305
6982.00   1.25321960   0.01005096
6984.00   1.24164033   0.00994912
6986.00   1.24382126   0.00980877
6988.00   1.25538528   0.00964065
6990.00   1.26103532   0.00951837
6992.00   1.26505065   0.00929875
6994.00   1.27057207   0.00936997
6996.00   1.28119445   0.00980228
6998.00   1.28578687   0.01015643
7000.00   1.27572823   0.01026806
7002.00   1.25849521   0.01026492
7004.00   1.25799561   0.01025979
7006.00   1.28300393   0.00996429
7008.00   1.27344012   0.01022678
7010.00   1.23080587   0.01116478
7012.00   1.20019782   0.01165190
7014.00   1.18781030   0.01140581
7016.00   1.18867481   0.01085410
7018.00   1.21149075   0.01065210
7020.00   1.26971483   0.01063809
7022.00   1.28720784   0.01042639
7024.00   1.27923119   0.00999309
7026.00   1.27009690   0.00973382
7028.00   1.25753069   0.00975271
7030.00   1.24399376   0.00983296
7032.00   1.23658919   0.00970214
7034.00   1.23300231   0.00937030
7036.00   1.22779560   0.00957771
7038.00   1.22098029   0.01039815
7040.00   1.21796775   0.01077540
7042.00   1.22050464   0.01081621
7044.00   1.22275174   0.01070674
7046.00   1.21896291   0.01050077
7048.00   1.21141350   0.01015148
7050.00   1.21417558   0.00993238
7052.00   1.22730160   0.00975518
7054.00   1.23507798   0.00961752
7056.00   1.24215198   0.00951890
7058.00   1.24564612   0.00946894
7060.00   1.24206936   0.00948910
7062.00   1.23445106   0.00955903
7064.00   1.23482907   0.00957906
7066.00   1.24330115   0.00943095
7068.00   1.24480116   0.00963642
7070.00   1.24309468   0.01031052
7072.00   1.23997259   0.01065772
7074.00   1.23343432   0.01042281
7076.00   1.22693062   0.00995562
7078.00   1.23042154   0.00985734
7080.00   1.24504852   0.00991056
7082.00   1.24890661   0.01007981
7084.00   1.24884593   0.01060155
7086.00   1.24454761   0.01078700
7088.00   1.23272276   0.01048487
7090.00   1.21996927   0.01005911
7092.00   1.21494603   0.00997329
7094.00   1.21317720   0.01010325
7096.00   1.21989334   0.01001256
7098.00   1.24099874   0.00977944
7100.00   1.25312889   0.00958457
7102.00   1.25730550   0.00937155
7104.00   1.25830877   0.00921700
7106.00   1.25818920   0.00922494
7108.00   1.25574231   0.00935949
7110.00   1.25502491   0.00937061
7112.00   1.25619519   0.00927180
7114.00   1.25430644   0.00929382
7116.00   1.25126600   0.00945945
7118.00   1.24495482   0.00958103
7120.00   1.23023498   0.00955605
7122.00   1.21171427   0.00945652
7124.00   1.21421754   0.00944121
7126.00   1.23996294   0.00941546
7128.00   1.25141752   0.00950652
7130.00   1.25661421   0.00979542
7132.00   1.26300430   0.00995006
7134.00   1.27771795   0.00980602
7136.00   1.29071355   0.00957810
7138.00   1.27738726   0.00971976
7140.00   1.23286939   0.01021246
7142.00   1.21791649   0.01035531
7144.00   1.21910942   0.01034593
7146.00   1.22135234   0.01025920
7148.00   1.22479689   0.01004814
7150.00   1.22979331   0.00979261
7152.00   1.23490012   0.00963415
7154.00   1.24262714   0.00951809
7156.00   1.24086046   0.00943319
7158.00   1.22757638   0.00927130
7160.00   1.22087193   0.00937949
7162.00   1.22231936   0.00986463
7164.00   1.22327769   0.01034391
7166.00   1.21440196   0.01052974
7168.00   1.19827151   0.01055902
7170.00   1.20573282   0.01074362
7172.00   1.24470520   0.01105259
7174.00   1.25636172   0.01123491
7176.00   1.24629807   0.01141925
7178.00   1.23128569   0.01142657
7180.00   1.21637738   0.01108289
7182.00   1.19925404   0.01048945
7184.00   1.19195437   0.01017945
7186.00   1.18842041   0.00991559
7188.00   1.19454074   0.00990587
7190.00   1.21694720   0.01029071
7192.00   1.23317289   0.01052832
7194.00   1.23682106   0.01043013
7196.00   1.23394930   0.01021311
7198.00   1.22906387   0.01023403
7200.00   1.21459723   0.01043561
7202.00   1.21450460   0.01049208
7204.00   1.22836339   0.01056736
7206.00   1.23628449   0.01047831
7208.00   1.23542404   0.01006957
7210.00   1.23167849   0.00961603
7212.00   1.23057699   0.00958483
7214.00   1.23094642   0.00985554
7216.00   1.22589290   0.01003800
7218.00   1.21095109   0.01040640
7220.00   1.20643628   0.01049508
7222.00   1.21410894   0.01022181
7224.00   1.22482622   0.00989327
7226.00   1.23287034   0.00971676
7228.00   1.24166083   0.00955945
7230.00   1.24118733   0.00998470
7232.00   1.23768783   0.01069571
7234.00   1.22195566   0.01181600
7236.00   1.18491709   0.01360836
7238.00   1.15375280   0.01498577
7240.00   1.14385962   0.01565435
7242.00   1.14607906   0.01592680
7244.00   1.14890170   0.01567846
7246.00   1.16317225   0.01456183
7248.00   1.16632712   0.01376179
7250.00   1.16119289   0.01281854
7252.00   1.15677762   0.01208200
7254.00   1.15465093   0.01182651
7256.00   1.15403616   0.01181508
7258.00   1.15796685   0.01145243
7260.00   1.16629541   0.01080443
7262.00   1.17501509   0.01043291
7264.00   1.18981659   0.00993482
7266.00   1.19785047   0.01003097
7268.00   1.19679952   0.01085202
7270.00   1.19103336   0.01200714
7272.00   1.18528557   0.01315500
7274.00   1.17900133   0.01437225
7276.00   1.16409910   0.01576387
7278.00   1.12611556   0.01811493
7280.00   1.11669409   0.01878962
7282.00   1.14600182   0.01768665
7284.00   1.17958605   0.01586875
7286.00   1.18831718   0.01417432
7288.00   1.18506455   0.01194231
7290.00   1.17822659   0.01071736
7292.00   1.15476358   0.01065840
7294.00   1.14724898   0.01055619
7296.00   1.15380573   0.01078210
7298.00   1.16358304   0.01102787
7300.00   1.17378664   0.01106319
7302.00   1.18554413   0.01102750
7304.00   1.18329680   0.01122015
7306.00   1.15868866   0.01154097
7308.00   1.15775645   0.01193992
7310.00   1.17410684   0.01251928
7312.00   1.19200289   0.01300240
7314.00   1.21316314   0.01338304
7316.00   1.23241389   0.01364844
7318.00   1.22150052   0.01356542
7320.00   1.17581701   0.01313886
7322.00   1.15453303   0.01267026
7324.00   1.14092541   0.01176737
7326.00   1.13165414   0.01120793
7328.00   1.12766182   0.01113600
7330.00   1.12712312   0.01141531
7332.00   1.12520814   0.01203024
7334.00   1.12059200   0.01312344
7336.00   1.13139951   0.01360615
7338.00   1.16140854   0.01391334
7340.00   1.18193495   0.01390571
7342.00   1.19529414   0.01348988
7344.00   1.20236027   0.01287517
7346.00   1.19988871   0.01222708
7348.00   1.18773210   0.01139106
7350.00   1.18365240   0.01095019
7352.00   1.18699205   0.01085251
7354.00   1.18116319   0.01077968
7356.00   1.16378689   0.01077664
7358.00   1.14815199   0.01088467
7360.00   1.14385676   0.01113794
7362.00   1.14543939   0.01150490
7364.00   1.13555443   0.01182074
7366.00   1.11264229   0.01222692
7368.00   1.10200846   0.01244458
7370.00   1.09753311   0.01267327
7372.00   1.09801066   0.01259954
7374.00   1.10558891   0.01197775
7376.00   1.11721027   0.01100418
7378.00   1.12129354   0.01037953
7380.00   1.12035799   0.00963403
7382.00   1.12126815   0.00966891
7384.00   1.12082279   0.01064770
7386.00   1.12224114   0.01129343
7388.00   1.12618494   0.01152630
7390.00   1.13159156   0.01157285
7392.00   1.13803315   0.01148474
7394.00   1.14843988   0.01111020
7396.00   1.14835644   0.01111596
7398.00   1.13725543   0.01148536
7400.00   1.13037121   0.01163649
7402.00   1.12831581   0.01162672
7404.00   1.12698889   0.01145322
7406.00   1.12270343   0.01097610
7408.00   1.11608219   0.01012418
7410.00   1.11740077   0.00979171
7412.00   1.12371075   0.00985240
7414.00   1.13361108   0.00989179
7416.00   1.15414560   0.01003601
7418.00   1.16887081   0.01015505
7420.00   1.16463757   0.01013744
7422.00   1.14850831   0.01004380
7424.00   1.14359605   0.01004773
7426.00   1.14534438   0.01012946
7428.00   1.14220715   0.01015456
7430.00   1.13801217   0.01011311
7432.00   1.13036346   0.01012137
7434.00   1.11471212   0.01026159
7436.00   1.09644043   0.01044593
7438.00   1.09437644   0.01044975
7440.00   1.10978758   0.01035944
7442.00   1.11224711   0.01016673
7444.00   1.10818970   0.00971168
7446.00   1.10519600   0.00942233
7448.00   1.10228193   0.00942674
7450.00   1.10167778   0.00955830
7452.00   1.11134017   0.00963296
7454.00   1.13478518   0.00977472
7456.00   1.13819921   0.00972999
7458.00   1.12722325   0.00932635
7460.00   1.11663520   0.00930766
7462.00   1.10129976   0.00979700
7464.00   1.08979249   0.01038173
7466.00   1.09599566   0.01074926
7468.00   1.11756420   0.01105375
7470.00   1.11988008   0.01129852
7472.00   1.10946786   0.01143401
7474.00   1.10153699   0.01163210
7476.00   1.09043741   0.01201933
7478.00   1.08359277   0.01221588
7480.00   1.08851218   0.01186503
7482.00   1.10141838   0.01111380
7484.00   1.10537028   0.01104607
7486.00   1.10222757   0.01165085
7488.00   1.10516071   0.01176820
7490.00   1.11246836   0.01173660
7492.00   1.12013948   0.01143540
7494.00   1.12912929   0.01058760
7496.00   1.13752770   0.00937125
7498.00   1.13360977   0.00896636
7500.00   1.11830306   0.00924459
7502.00   1.10382450   0.00942875
7504.00   1.08044219   0.00990544
7506.00   1.06520998   0.01020635
7508.00   1.06173277   0.01027557
7510.00   1.06516159   0.01020700
7512.00   1.07130253   0.00999118
7514.00   1.08320785   0.00934833
7516.00   1.09420967   0.00958669
7518.00   1.11558366   0.01050676
7520.00   1.12002027   0.01133635
7522.00   1.10204804   0.01222271
7524.00   1.07680058   0.01297741
7526.00   1.05700624   0.01337294
7528.00   1.03437746   0.01357386
7530.00   1.03087330   0.01340171
7532.00   1.04788005   0.01274178
7534.00   1.05865610   0.01206697
7536.00   1.06446195   0.01112044
7538.00   1.07239270   0.01025272
7540.00   1.08820355   0.00983971
7542.00   1.10926187   0.00976426
7544.00   1.11933494   0.00984741
7546.00   1.12504947   0.01041300
7548.00   1.12303317   0.01058030
7550.00   1.11339021   0.01051140
7552.00   1.09793651   0.01036003
7554.00   1.07345128   0.01014042
7556.00   1.04404783   0.00985432
7558.00   1.03055298   0.00968545
7560.00   1.02586246   0.00942477
7562.00   1.02810597   0.00958506
7564.00   1.04515982   0.01007879
7566.00   1.05663705   0.01066395
7568.00   1.05951250   0.01149350
7570.00   1.05685234   0.01224089
7572.00   1.04703188   0.01222622
7574.00   1.02444708   0.01151714
7576.00   1.01822233   0.01113449
7578.00   1.02465391   0.01075705
7580.00   1.02798116   0.01040152
7582.00   1.02567506   0.00994139
7584.00   1.02469814   0.00963922
7586.00   1.03076398   0.00985319
7588.00   1.03995669   0.01042083
7590.00   1.06315589   0.01123698
7592.00   1.12089479   0.01231491
7594.00   1.13836789   0.01345885
7596.00   1.10885429   0.01399343
7598.00   1.07448256   0.01553382
7600.00   1.06372559   0.01930416
7602.00   1.06268644   0.02383088
7604.00   1.05798650   0.02525972
7606.00   1.06791186   0.02540454
7608.00   1.04788983   0.02445302
7610.00   0.98144364   0.02110262
7612.00   0.93748295   0.01767701
7614.00   0.95223296   0.01599956
7616.00   0.99848378   0.01539736
7618.00   1.02373242   0.01473647
7620.00   1.05112159   0.01461214
7622.00   1.06686485   0.01466609
7624.00   1.07495606   0.01523492
7626.00   1.07563770   0.01566385
7628.00   1.06557846   0.01589762
7630.00   1.05030107   0.01598341
7632.00   1.04283464   0.01575483
7634.00   1.03840435   0.01513000
7636.00   1.03549409   0.01470580
7638.00   1.03923583   0.01439650
7640.00   1.03593206   0.01391857
7642.00   1.02312434   0.01310978
7644.00   1.00699961   0.01225158
7646.00   0.99264389   0.01177417
7648.00   0.97587776   0.01157238
7650.00   0.97089684   0.01139054
7652.00   0.97506666   0.01131754
7654.00   0.98232651   0.01135983
7656.00   0.99743026   0.01163809
7658.00   1.01133573   0.01186180
7660.00   1.01532209   0.01176683
7662.00   1.01314020   0.01146128
7664.00   1.01834857   0.01146374
7666.00   1.03304458   0.01187297
7668.00   1.03547049   0.01179745
7670.00   1.02652860   0.01125088
7672.00   1.01632857   0.01066360
7674.00   1.00769222   0.01018723
7676.00   0.99940449   0.00975959
7678.00   0.99830657   0.00968666
7680.00   1.01063144   0.01006723
7682.00   1.00694120   0.01023001
7684.00   0.98371059   0.01045709
7686.00   0.97431237   0.01051699
7688.00   0.99351794   0.01020697
7690.00   1.02210951   0.00980942
7692.00   1.02605641   0.01002914
7694.00   1.01145315   0.01083165
7696.00   1.00941384   0.01107709
7698.00   1.01300728   0.01105689
7700.00   1.01452124   0.01100642
7702.00   1.00949466   0.01070787
7704.00   1.00733078   0.01057679
7706.00   1.02216554   0.01126299
7708.00   1.05361319   0.01246551
7710.00   1.06365454   0.01361803
7712.00   1.05929220   0.01536691
7714.00   1.05665827   0.01614286
7716.00   1.05157757   0.01610461
7718.00   1.04873693   0.01566433
7720.00   1.05608940   0.01495833
7722.00   1.07132888   0.01381243
7724.00   1.06433022   0.01304503
7726.00   1.03229392   0.01248240
7728.00   1.01716590   0.01189500
7730.00   1.01471055   0.01130474
7732.00   1.01273036   0.01080027
7734.00   1.00423968   0.01042436
7736.00   0.99417847   0.01017544
7738.00   0.99544686   0.01010478
7740.00   1.00344360   0.00974470
7742.00   1.01804757   0.01061838
7744.00   1.04743898   0.01262488
7746.00   1.06937861   0.01415087
7748.00   1.07845449   0.01520264
7750.00   1.07978320   0.01591942
7752.00   1.07568610   0.01591552
7754.00   1.06160629   0.01514733
7756.00   1.05298483   0.01448879
7758.00   1.04758680   0.01343592
7760.00   1.03816795   0.01255331
7762.00   1.02066469   0.01193895
7764.00   1.00335169   0.01148496
7766.00   0.99719518   0.01112060
7768.00   0.99813145   0.01090868
7770.00   1.00253689   0.01076443
7772.00   1.01385283   0.01058291
7774.00   1.02509797   0.01078783
7776.00   1.03979361   0.01159180
7778.00   1.05190110   0.01230116
7780.00   1.05733049   0.01240869
7782.00   1.05893016   0.01215891
7784.00   1.04240501   0.01210088
7786.00   0.99788940   0.01186951
7788.00   0.97251612   0.01204293
7790.00   0.95555115   0.01265522
7792.00   0.94931883   0.01325947
7794.00   0.95930475   0.01378025
7796.00   0.98123521   0.01424044
7798.00   0.99298680   0.01406294
7800.00   1.00446069   0.01282086
7802.00   1.00895548   0.01255680
7804.00   1.00100863   0.01318057
7806.00   1.00051284   0.01347067
7808.00   1.01732385   0.01295612
7810.00   1.03979862   0.01214781
7812.00   1.04495323   0.01206847
7814.00   1.03507459   0.01237676
7816.00   1.03682053   0.01293733
7818.00   1.04702723   0.01399502
7820.00   1.05135679   0.01480012
7822.00   1.04845440   0.01551158
7824.00   1.04120195   0.01593182
7826.00   1.03098440   0.01559163
7828.00   1.01657856   0.01452604
7830.00   1.00185895   0.01346530
7832.00   0.97704816   0.01146116
7834.00   0.96817023   0.01034857
7836.00   0.98106259   0.01066546
7838.00   0.99604172   0.01131115
7840.00   0.99444157   0.01142727
7842.00   0.98291928   0.01138493
7844.00   0.99099803   0.01181365
7846.00   1.02035487   0.01254436
7848.00   1.03400373   0.01331292
7850.00   1.03536665   0.01420235
7852.00   1.03434515   0.01507897
7854.00   1.03520894   0.01602829
7856.00   1.03554809   0.01696078
7858.00   1.03542340   0.01702747
7860.00   1.03771150   0.01618647
7862.00   1.03273857   0.01564534
7864.00   1.02267122   0.01490986
7866.00   1.00878537   0.01440412
7868.00   0.98677015   0.01444607
7870.00   0.96310627   0.01469768
7872.00   0.95870441   0.01437670
7874.00   0.96954930   0.01352729
7876.00   0.98001391   0.01304668
7878.00   1.00195205   0.01247172
7880.00   1.01495445   0.01239974
7882.00   1.01640308   0.01311405
7884.00   1.01118660   0.01402764
7886.00   1.00054038   0.01449077
7888.00   0.97639209   0.01486152
7890.00   0.98202038   0.01481351
7892.00   1.02204347   0.01439825
7894.00   1.04080892   0.01375592
7896.00   1.03729999   0.01252444
7898.00   1.02653503   0.01129341
7900.00   1.01373816   0.01083779
7902.00   0.99247944   0.01089011
7904.00   1.01102328   0.01169721
7906.00   1.07957971   0.01327422
7908.00   1.11447835   0.01475134
7910.00   1.12598646   0.01664433
7912.00   1.12841427   0.01800244
7914.00   1.12679219   0.01843793
7916.00   1.11846519   0.01831279
7918.00   1.10819411   0.01796819
7920.00   1.09159696   0.01695957
7922.00   1.07765627   0.01625445
7924.00   1.06425905   0.01557962
7926.00   1.05066240   0.01499984
7928.00   1.03390348   0.01462328
7930.00   1.01802361   0.01434269
7932.00   1.01632595   0.01379399
7934.00   1.02973020   0.01300329
7936.00   1.03527451   0.01229597
7938.00   1.04211664   0.01137824
7940.00   1.04393196   0.01079072
7942.00   1.03604972   0.01067123
7944.00   1.02697170   0.01090034
7946.00   1.03158689   0.01144961
7948.00   1.05027485   0.01256580
7950.00   1.04761112   0.01266151
7952.00   1.02652884   0.01168962
7954.00   1.01194274   0.01136169
7956.00   1.00397873   0.01170702
7958.00   0.99725330   0.01237601
7960.00   0.98746318   0.01331311
7962.00   0.97539467   0.01459239
7964.00   0.97383153   0.01489058
7966.00   0.98147768   0.01449296
7968.00   0.98900878   0.01407107
7970.00   0.99881852   0.01326334
7972.00   1.00924993   0.01258427
7974.00   1.01971030   0.01251829
7976.00   1.03045666   0.01282773
7978.00   1.03706217   0.01282851
7980.00   1.03979075   0.01269611
7982.00   1.04290557   0.01264413
7984.00   1.04359198   0.01241817
7986.00   1.04638600   0.01254786
7988.00   1.05331898   0.01332034
7990.00   1.06252599   0.01435671
7992.00   1.07106268   0.01501490
7994.00   1.08394897   0.01587319
7996.00   1.08642745   0.01577455
7998.00   1.08237481   0.01471399
8000.00   1.07339513   0.01360863
8002.00   1.05618787   0.01237455
8004.00   1.03681338   0.01117629
8006.00   1.02756894   0.01086575
8008.00   1.02671087   0.01139423
8010.00   1.01724148   0.01172336
8012.00   0.99885947   0.01223089
8014.00   0.98850930   0.01271496
8016.00   0.98471463   0.01324138
8018.00   0.98759222   0.01370495
8020.00   1.00265479   0.01397464
8022.00   1.03191924   0.01410239
8024.00   1.03146517   0.01429655
8026.00   1.00516760   0.01468540
8028.00   0.98649591   0.01464867
8030.00   0.96416724   0.01426586
8032.00   0.95125169   0.01358097
8034.00   0.96077263   0.01237961
8036.00   0.98574626   0.01059378
8038.00   0.99654227   0.00983128
8040.00   1.00218999   0.01008076
8042.00   1.00696683   0.01013809
8044.00   1.01108527   0.01036720
8046.00   1.01114416   0.01060857
8048.00   1.00274885   0.01077560
8050.00   0.99092364   0.01094916
8052.00   0.99255008   0.01128764
8054.00   1.00847137   0.01188052
8056.00   1.01254547   0.01213363
8058.00   1.01545954   0.01222616
8060.00   1.00917339   0.01219912
8062.00   0.98634624   0.01202659
8064.00   0.95948064   0.01175042
8066.00   0.95199984   0.01146094
8068.00   0.96157634   0.01106592
8070.00   0.95259553   0.01081813
8072.00   0.92639726   0.01064176
8074.00   0.91226172   0.01054993
8076.00   0.91324747   0.01063796
8078.00   0.91827393   0.01070619
8080.00   0.91822994   0.01049729
8082.00   0.91720033   0.01005951
8084.00   0.91508102   0.00988439
8086.00   0.90974891   0.00980383
8088.00   0.90797019   0.00986655
8090.00   0.90980411   0.01010012
8092.00   0.91240335   0.01040577
8094.00   0.91481817   0.01073478
8096.00   0.91758531   0.01110724
8098.00   0.91571134   0.01144121
8100.00   0.90713769   0.01191180
8102.00   0.90429497   0.01204305
8104.00   0.90626693   0.01190559
8106.00   0.90748519   0.01164357
8108.00   0.90580648   0.01119241
8110.00   0.90282810   0.01063139
8112.00   0.90017754   0.01055654
8114.00   0.89957774   0.01093244
8116.00   0.89269894   0.01114248
8118.00   0.87628758   0.01158191
8120.00   0.86642343   0.01165361
8122.00   0.86753625   0.01109208
8124.00   0.87330109   0.01026050
8126.00   0.87565368   0.00987447
8128.00   0.87650186   0.00965172
8130.00   0.88216078   0.00975065
8132.00   0.89287400   0.01020731
8134.00   0.90207589   0.01072927
8136.00   0.91116756   0.01156145
8138.00   0.91808814   0.01218194
8140.00   0.91919166   0.01193794
8142.00   0.91538912   0.01091115
8144.00   0.91241592   0.01067381
8146.00   0.90665722   0.01084861
8148.00   0.90354711   0.01110042
8150.00   0.90634030   0.01172231
8152.00   0.90528810   0.01210768
8154.00   0.88984102   0.01174452
8156.00   0.86472213   0.01083801
8158.00   0.86323053   0.01054139
8160.00   0.88474441   0.01061990
8162.00   0.89382195   0.01064282
8164.00   0.89748585   0.01069391
8166.00   0.89938420   0.01082151
8168.00   0.89710695   0.01095001
8170.00   0.89400625   0.01117068
8172.00   0.90877014   0.01192229
8174.00   0.94090462   0.01315549
8176.00   0.96815193   0.01415605
8178.00   1.01051056   0.01520179
8180.00   1.03072393   0.01612332
8182.00   1.00819314   0.01696183
8184.00   0.97392523   0.01768022
8186.00   0.98695368   0.01813292
8188.00   1.05050921   0.01838077
8190.00   1.04102933   0.01853135
8192.00   0.96593881   0.01860979
8194.00   0.91650689   0.01845884
8196.00   0.89640421   0.01803786
8198.00   0.88812375   0.01742029
8200.00   0.88404530   0.01666651
8202.00   0.89091462   0.01569071
8204.00   0.88266873   0.01468069
8206.00   0.85779583   0.01331302
8208.00   0.84731501   0.01228523
8210.00   0.85438985   0.01167093
8212.00   0.86073059   0.01127468
8214.00   0.84998065   0.01096833
8216.00   0.82914639   0.01083803
8218.00   0.83694279   0.01086533
8220.00   0.87706017   0.01117409
8222.00   0.89436734   0.01137724
8224.00   0.89634538   0.01159200
8226.00   0.89643204   0.01174887
8228.00   0.89718378   0.01184012
8230.00   0.89804167   0.01186341
8232.00   0.91133261   0.01169779
8234.00   0.94510883   0.01113809
8236.00   0.95642847   0.01100482
8238.00   0.95508933   0.01127644
8240.00   0.94914138   0.01136607
8242.00   0.93529379   0.01108659
8244.00   0.91992313   0.01066895
8246.00   0.92256588   0.01046829
8248.00   0.94517887   0.01035250
8250.00   0.94458330   0.01032716
8252.00   0.93202496   0.01034061
8254.00   0.91364664   0.01054239
8256.00   0.88268852   0.01114066
8258.00   0.85233575   0.01165316
8260.00   0.84123123   0.01149355
8262.00   0.84233499   0.01077993
8264.00   0.84848595   0.01043025
8266.00   0.87207687   0.00991228
8268.00   0.88195843   0.00998852
8270.00   0.88095933   0.01062089
8272.00   0.87267590   0.01156087
8274.00   0.85365671   0.01271512
8276.00   0.82390660   0.01406055
8278.00   0.82400262   0.01514691
8280.00   0.86242545   0.01611087
8282.00   0.86696440   0.01711510
8284.00   0.84212935   0.01843943
8286.00   0.81748343   0.01926972
8288.00   0.80434620   0.01914454
8290.00   0.79596323   0.01847413
8292.00   0.79409903   0.01847969
8294.00   0.79484266   0.01913400
8296.00   0.80925417   0.01904088
8298.00   0.84653986   0.01849082
8300.00   0.87252742   0.01777497
8302.00   0.87471813   0.01684272
8304.00   0.86849397   0.01575649
8306.00   0.87791920   0.01493163
8308.00   0.89986444   0.01425722
8310.00   0.90727907   0.01364793
8312.00   0.90515143   0.01326636
8314.00   0.90320569   0.01277808
8316.00   0.90309554   0.01209799
8318.00   0.90091634   0.01137158
8320.00   0.89042467   0.01073221
8322.00   0.86859554   0.01000656
8324.00   0.87352741   0.01005601
8326.00   0.91292417   0.01097240
8328.00   0.92535383   0.01158730
8330.00   0.91197759   0.01186283
8332.00   0.88864464   0.01230949
8334.00   0.85840160   0.01305277
8336.00   0.81676412   0.01390478
8338.00   0.82091117   0.01615541
8340.00   0.87991244   0.01970706
8342.00   0.90209752   0.02197066
8344.00   0.90216017   0.02440286
8346.00   0.89285326   0.02543683
8348.00   0.87428778   0.02403086
8350.00   0.84796166   0.02074780
8352.00   0.83958691   0.01846158
8354.00   0.84624803   0.01572574
8356.00   0.84666789   0.01389262
8358.00   0.84091258   0.01326561
8360.00   0.84539193   0.01296020
8362.00   0.87156725   0.01288493
8364.00   0.90408736   0.01305863
8366.00   0.90918916   0.01298889
8368.00   0.89293820   0.01289422
8370.00   0.88461393   0.01264805
8372.00   0.87735462   0.01203959
8374.00   0.86505502   0.01175835
8376.00   0.84468228   0.01188579
8378.00   0.82242268   0.01227255
8380.00   0.80501813   0.01290344
8382.00   0.78645456   0.01393897
8384.00   0.78675616   0.01412345
8386.00   0.80913466   0.01346792
8388.00   0.82411963   0.01326179
8390.00   0.82595700   0.01286865
8392.00   0.83583462   0.01341361
8394.00   0.87806165   0.01613186
8396.00   0.94602597   0.01988397
8398.00   0.96033740   0.02118156
8400.00   0.93303537   0.02168826
8402.00   0.91132098   0.02114123
8404.00   0.87189519   0.01857219
8406.00   0.84862196   0.01597621
8408.00   0.86942089   0.01508274
8410.00   0.91486734   0.01520544
8412.00   0.91735160   0.01513082
8414.00   0.88976061   0.01567191
8416.00   0.86979413   0.01557333
8418.00   0.84599203   0.01479567
8420.00   0.82089192   0.01435822
8422.00   0.78687638   0.01434123
8424.00   0.75585091   0.01484597
8426.00   0.76501691   0.01673649
8428.00   0.81664866   0.02048016
8430.00   0.84332633   0.02122320
8432.00   0.87354976   0.02038722
8434.00   0.88437855   0.01891029
8436.00   0.86263800   0.01597260
8438.00   0.83407933   0.01217564
8440.00   0.83635169   0.01047566
8442.00   0.86085057   0.01078519
8444.00   0.86483097   0.01119089
8446.00   0.85544240   0.01266113
8448.00   0.85242409   0.01380238
8450.00   0.85168052   0.01494632
8452.00   0.85739899   0.01580780
8454.00   0.87704498   0.01601600
8456.00   0.90880525   0.01572626
8458.00   0.92948705   0.01592617
8460.00   0.95255542   0.01636873
8462.00   0.95982856   0.01675660
8464.00   0.95302939   0.01746186
8466.00   0.93689430   0.01770219
8468.00   0.90945798   0.01695637
8470.00   0.87280381   0.01545903
8472.00   0.85332382   0.01406633
8474.00   0.84428048   0.01180817
8476.00   0.83691210   0.01051490
8478.00   0.83372480   0.01027629
8480.00   0.83439857   0.01026603
8482.00   0.84234357   0.01018595
8484.00   0.85253769   0.01031551
8486.00   0.84913522   0.01094806
8488.00   0.83686024   0.01210237
8490.00   0.82084537   0.01292526
8492.00   0.79539949   0.01361849
8494.00   0.77238345   0.01440170
8496.00   0.74823135   0.01545075
8498.00   0.72973078   0.01638411
8500.00   0.73139614   0.01671793
8502.00   0.74987680   0.01666553
8504.00   0.77002919   0.01643186
8506.00   0.80348098   0.01595457
8508.00   0.82956201   0.01516849
8510.00   0.84992445   0.01374861
8512.00   0.86562300   0.01218307
8514.00   0.87588829   0.01117552
8516.00   0.88097948   0.01054410
8518.00   0.88207084   0.01008333
8520.00   0.87809753   0.01010080
8522.00   0.87120062   0.01001139
8524.00   0.85879833   0.00988738
8526.00   0.84623843   0.00983047
8528.00   0.83485335   0.00983972
8530.00   0.82419020   0.00992343
8532.00   0.82546538   0.01036268
8534.00   0.84059197   0.01114965
8536.00   0.85007334   0.01183018
8538.00   0.85749912   0.01263270
8540.00   0.86711723   0.01325515
8542.00   0.88323015   0.01370722
8544.00   0.90055144   0.01397583
8546.00   0.90399176   0.01376658
8548.00   0.89493239   0.01287859
8550.00   0.88999522   0.01242988
8552.00   0.88602448   0.01204489
8554.00   0.87769300   0.01188169
8556.00   0.85680681   0.01217584
8558.00   0.83838934   0.01250168
8560.00   0.84956378   0.01212745
8562.00   0.88812518   0.01102606
8564.00   0.90556884   0.01073035
8566.00   0.91848087   0.01105778
8568.00   0.92305255   0.01122007
8570.00   0.91489375   0.01128207
8572.00   0.90435278   0.01127392
8574.00   0.90203434   0.01113019
8576.00   0.90369320   0.01084841
8578.00   0.90276968   0.01072263
8580.00   0.90022945   0.01065140
8582.00   0.89990115   0.01065800
8584.00   0.90298587   0.01068220
8586.00   0.90484178   0.01085962
8588.00   0.90210336   0.01135979
8590.00   0.89666384   0.01204485
8592.00   0.89417279   0.01223687
8594.00   0.89310849   0.01210606
8596.00   0.89195484   0.01194799
8598.00   0.88843322   0.01158398
8600.00   0.88962722   0.01126471
8602.00   0.90103412   0.01101147
8604.00   0.91661036   0.01085904
8606.00   0.91996968   0.01114577
8608.00   0.91486144   0.01191794
8610.00   0.91024053   0.01241156
8612.00   0.89560807   0.01272134
8614.00   0.89309150   0.01325462
8616.00   0.90708256   0.01372305
8618.00   0.93065548   0.01460866
8620.00   0.95990527   0.01693180
8622.00   1.00873423   0.02066297
8624.00   1.01295304   0.02146123
8626.00   0.97674650   0.02024840
8628.00   0.94809502   0.01927872
8630.00   0.92648840   0.01843536
8632.00   0.90443814   0.01759701
8634.00   0.87418377   0.01690700
8636.00   0.83360040   0.01633448
8638.00   0.83714694   0.01572457
8640.00   0.89099765   0.01492746
8642.00   0.91910279   0.01458602
8644.00   0.92736405   0.01460189
8646.00   0.93366313   0.01501018
8648.00   0.94884801   0.01597363
8650.00   0.96714467   0.01730473
8652.00   0.97110367   0.01794551
8654.00   0.95941657   0.01824414
8656.00   0.95641857   0.01845700
8658.00   0.96326625   0.01854065
8660.00   0.96079075   0.01846201
8662.00   0.93751305   0.01813920
8664.00   0.90455300   0.01765847
8666.00   0.88912308   0.01738215
8668.00   0.88466203   0.01733334
8670.00   0.87816405   0.01695441
8672.00   0.87742680   0.01631906
8674.00   0.87145841   0.01563423
8676.00   0.85135227   0.01482657
8678.00   0.83215433   0.01401782
8680.00   0.84169030   0.01360967
8682.00   0.87699562   0.01361669
8684.00   0.89692295   0.01335351
8686.00   0.91876423   0.01299905
8688.00   0.92935616   0.01264322
8690.00   0.92702574   0.01224833
8692.00   0.91735977   0.01187694
8694.00   0.90389407   0.01157330
8696.00   0.88328284   0.01125763
8698.00   0.87114245   0.01151668
8700.00   0.85911930   0.01260008
8702.00   0.85733187   0.01300810
8704.00   0.86989337   0.01296332
8706.00   0.88293958   0.01264266
8708.00   0.88671041   0.01192975
8710.00   0.88618875   0.01078791
8712.00   0.89024174   0.01060291
8714.00   0.89462394   0.01142932
8716.00   0.90318662   0.01165615
8718.00   0.92251629   0.01160839
8720.00   0.93294853   0.01150829
8722.00   0.92367506   0.01138258
8724.00   0.90410125   0.01123369
8726.00   0.89504439   0.01126960
8728.00   0.89413643   0.01147119
8730.00   0.88237280   0.01162840
8732.00   0.86386514   0.01182577
8734.00   0.84297764   0.01199853
8736.00   0.81504673   0.01222166
8738.00   0.78851241   0.01236186
8740.00   0.78332096   0.01209000
8742.00   0.79693222   0.01130263
8744.00   0.80331481   0.01101050
8746.00   0.81116903   0.01070223
8748.00   0.81874633   0.01102787
8750.00   0.82525206   0.01172922
8752.00   0.83257616   0.01306928
8754.00   0.84350103   0.01533286
8756.00   0.85804290   0.01810928
8758.00   0.86605531   0.02049690
8760.00   0.87582904   0.02338995
8762.00   0.87183470   0.02505961
8764.00   0.84085202   0.02598570
8766.00   0.81997091   0.02626082
8768.00   0.84167522   0.02565625
8770.00   0.89069825   0.02420673
8772.00   0.90462184   0.02354195
8774.00   0.90479785   0.02323444
8776.00   0.89169216   0.02295502
8778.00   0.84484088   0.02316635
8780.00   0.81699038   0.02289037
8782.00   0.83777547   0.02143395
8784.00   0.88300741   0.01919181
8786.00   0.89916790   0.01782284
8788.00   0.90465945   0.01698127
8790.00   0.90368867   0.01616338
8792.00   0.88689387   0.01585124
8794.00   0.87684560   0.01525461
8796.00   0.88035017   0.01391980
8798.00   0.88826245   0.01231712
8800.00   0.88859284   0.01166758
8802.00   0.88605899   0.01183460
8804.00   0.88075578   0.01189911
8806.00   0.86179465   0.01237594
8808.00   0.86122167   0.01257468
8810.00   0.88911867   0.01217123
8812.00   0.92129856   0.01192210
8814.00   0.93340939   0.01251961
8816.00   0.93867660   0.01327054
8818.00   0.91734493   0.01629086
8820.00   0.85112470   0.02061017
8822.00   0.81674999   0.02424747
8824.00   0.79979205   0.02861433
8826.00   0.80727780   0.03147661
8828.00   0.86417419   0.03148476
8830.00   0.96237069   0.02952870
8832.00   0.96342564   0.02799899
8834.00   0.85791260   0.02528806
8836.00   0.83059120   0.02357330
8838.00   0.86055970   0.02318450
8840.00   0.89235729   0.02242857
8842.00   0.90415710   0.02003443
8844.00   0.91038769   0.01653662
8846.00   0.92066109   0.01512240
8848.00   0.93525887   0.01622514
8850.00   0.94126087   0.01593974
8852.00   0.94296390   0.01517776
8854.00   0.93905669   0.01456105
8856.00   0.92784220   0.01402378
8858.00   0.91194987   0.01380626
8860.00   0.89717424   0.01482633
8862.00   0.88217759   0.01719706
8864.00   0.86278254   0.01793145
8866.00   0.83301049   0.01797625
8868.00   0.81419331   0.01766965
8870.00   0.80485564   0.01663242
8872.00   0.80619955   0.01549092
8874.00   0.82384640   0.01519554
8876.00   0.85718679   0.01512432
8878.00   0.89335585   0.01710379
8880.00   0.95530015   0.02109028
8882.00   0.98496509   0.02359965
8884.00   0.98287499   0.02594667
8886.00   0.96663195   0.02707072
8888.00   0.94588464   0.02572529
8890.00   0.91557151   0.02210773
8892.00   0.88291067   0.01991848
8894.00   0.82484901   0.01747216
8896.00   0.80804557   0.01652739
8898.00   0.82992119   0.01776699
8900.00   0.85926050   0.01898683
8902.00   0.88871938   0.01948246
8904.00   0.92060202   0.01972426
8906.00   0.92498213   0.01941444
8908.00   0.90846658   0.01734004
8910.00   0.88527972   0.01784971
8912.00   0.83539337   0.01982580
8914.00   0.80241060   0.02237509
8916.00   0.79806280   0.02610028
8918.00   0.80956554   0.02946189
8920.00   0.82472986   0.02963446
8922.00   0.85160661   0.02732912
8924.00   0.87583745   0.02509766
8926.00   0.91128874   0.02074048
8928.00   0.93037498   0.01706352
8930.00   0.92360115   0.01492205
8932.00   0.91155469   0.01401734
8934.00   0.91921002   0.01414913
8936.00   0.93811011   0.01570009
8938.00   0.95363057   0.01691433
8940.00   0.97774571   0.01870402
8942.00   0.98810613   0.01979066
8944.00   0.98198968   0.02026399
8946.00   0.97232312   0.02055964
8948.00   0.96880013   0.02079723
8950.00   0.96698552   0.02085851
8952.00   0.96190530   0.02196373
8954.00   0.97167349   0.02445776
8956.00   0.94335091   0.02548207
8958.00   0.85737371   0.02581155
8960.00   0.79193038   0.02538383
8962.00   0.79203874   0.02382958
8964.00   0.82736659   0.02122113
8966.00   0.83569342   0.01903926
8968.00   0.83540094   0.01618741
8970.00   0.83982205   0.01434605
8972.00   0.84139967   0.01341210
8974.00   0.85037273   0.01334330
8976.00   0.87492502   0.01439542
8978.00   0.90393215   0.01599335
8980.00   0.91264689   0.01701240
8982.00   0.91116709   0.01793665
8984.00   0.89715081   0.01873878
8986.00   0.85380280   0.01955119
8988.00   0.83194137   0.02007873
8990.00   0.83624554   0.02008103
8992.00   0.85563076   0.02009357
8994.00   0.88614970   0.02084501
8996.00   0.93770170   0.02202754
8998.00   0.95844090   0.02327126
9000.00   0.97267807   0.02554353
9002.00   0.95683670   0.02611953
9004.00   0.89392096   0.02496363
9006.00   0.82887375   0.02302043
9008.00   0.79653746   0.02078218
9010.00   0.77900767   0.01760057
9012.00   0.79608977   0.01567268
9014.00   0.87741297   0.01490974
9016.00   0.90654069   0.01435877
9018.00   0.89518142   0.01453158
9020.00   0.87436903   0.01482710
9022.00   0.85148555   0.01492135
9024.00   0.82395118   0.01500764
9026.00   0.82669938   0.01518423
9028.00   0.86862808   0.01533189
9030.00   0.87817031   0.01572171
9032.00   0.87030703   0.01647593
9034.00   0.85847729   0.01700458
9036.00   0.84302926   0.01715180
9038.00   0.82555354   0.01710585
9040.00   0.81812602   0.01705359
9042.00   0.81951487   0.01667742
9044.00   0.81592071   0.01697493
9046.00   0.81221324   0.01811677
9048.00   0.80647534   0.01864327
9050.00   0.79710269   0.01848237
9052.00   0.78720862   0.01788723
9054.00   0.78119594   0.01685725
9056.00   0.77708489   0.01495878
9058.00   0.77571803   0.01405262
9060.00   0.77807736   0.01389845
9062.00   0.78035551   0.01381230
9064.00   0.78198928   0.01394772
9066.00   0.78519064   0.01414287
9068.00   0.79219615   0.01420424
9070.00   0.80234593   0.01422388
9072.00   0.81035107   0.01420710
9074.00   0.81637943   0.01414164
9076.00   0.82555246   0.01406024
9078.00   0.84176546   0.01389022
9080.00   0.85281348   0.01379400
9082.00   0.84870172   0.01381108
9084.00   0.83596480   0.01393116
9086.00   0.83976811   0.01445567
9088.00   0.85929739   0.01546796
9090.00   0.86750060   0.01618143
9092.00   0.87921804   0.01686895
9094.00   0.87432253   0.01741301
9096.00   0.83634311   0.01780707
9098.00   0.78557062   0.01806759
9100.00   0.77331114   0.01815526
9102.00   0.79388243   0.01823181
9104.00   0.79268175   0.01773046
9106.00   0.77951545   0.01642432
9108.00   0.77377647   0.01526046
9110.00   0.77986443   0.01433794
9112.00   0.78960556   0.01358653
9114.00   0.79302132   0.01313624
9116.00   0.79139972   0.01302379
9118.00   0.80086887   0.01299195
9120.00   0.82799339   0.01318788
9122.00   0.83738923   0.01341897
9124.00   0.82202828   0.01376690
9126.00   0.80541527   0.01408383
9128.00   0.80776548   0.01419720
9130.00   0.82032573   0.01416709
9132.00   0.83566087   0.01430839
9134.00   0.86632460   0.01463890
9136.00   0.88029087   0.01475884
9138.00   0.87856632   0.01466848
9140.00   0.87371868   0.01456422
9142.00   0.87254292   0.01450086
9144.00   0.87117887   0.01445603
9146.00   0.86473370   0.01473425
9148.00   0.84910601   0.01513059
9150.00   0.84364665   0.01590735
9152.00   0.84753394   0.01747072
9154.00   0.84926087   0.01836384
9156.00   0.84494454   0.01812367
9158.00   0.83793449   0.01728627
9160.00   0.83152825   0.01676812
9162.00   0.82312191   0.01615594
9164.00   0.81796080   0.01570134
9166.00   0.81840694   0.01523573
9168.00   0.81320739   0.01505677
9170.00   0.79562801   0.01543415
9172.00   0.77780086   0.01588127
9174.00   0.77934575   0.01562711
9176.00   0.79695642   0.01477638
9178.00   0.80498010   0.01437122
9180.00   0.81098509   0.01413528
9182.00   0.81657654   0.01395820
9184.00   0.82222760   0.01383828
9186.00   0.82658416   0.01381002
9188.00   0.82800150   0.01395304
9190.00   0.82677674   0.01428603
9192.00   0.82773995   0.01417913
9194.00   0.82880318   0.01351723
9196.00   0.83150667   0.01329812
9198.00   0.84020114   0.01338029
9200.00   0.84359550   0.01369801
9202.00   0.82869482   0.01431508
9204.00   0.80309027   0.01514744
9206.00   0.81327009   0.01561060
9208.00   0.86868167   0.01602654
9210.00   0.88421959   0.01608786
9212.00   0.86769277   0.01557330
9214.00   0.85665578   0.01528511
9216.00   0.86791080   0.01562286
9218.00   0.88584733   0.01620861
9220.00   0.88158751   0.01640293
9222.00   0.85180980   0.01634265
9224.00   0.84950227   0.01644948
9226.00   0.86955106   0.01677820
9228.00   0.88127607   0.01681045
9230.00   0.88319010   0.01636054
9232.00   0.87650901   0.01571820
9234.00   0.85333323   0.01533006
9236.00   0.80895412   0.01500017
9238.00   0.78447980   0.01486132
9240.00   0.76705384   0.01499162
9242.00   0.75648057   0.01505176
9244.00   0.75491196   0.01509735
9246.00   0.75775766   0.01507043
9248.00   0.75967604   0.01481168
9250.00   0.76252198   0.01430269
9252.00   0.77165914   0.01431048
9254.00   0.79157746   0.01476195
9256.00   0.80256754   0.01508963
9258.00   0.80721241   0.01557258
9260.00   0.80756998   0.01577884
9262.00   0.80386806   0.01526265
9264.00   0.79598945   0.01421107
9266.00   0.78691292   0.01401261
9268.00   0.75795382   0.01437827
9270.00   0.76722479   0.01475805
9272.00   0.82056344   0.01536441
9274.00   0.86421019   0.01595301
9276.00   0.87651134   0.01652032
9278.00   0.87496138   0.01703339
9280.00   0.88184720   0.01715830
9282.00   0.88672596   0.01653101
9284.00   0.89753133   0.01697875
9286.00   0.92667550   0.01832399
9288.00   0.93250537   0.01934183
9290.00   0.89652318   0.01979670
9292.00   0.84861100   0.02016130
9294.00   0.83570743   0.02083739
9296.00   0.84276772   0.02106455
9298.00   0.85073447   0.02363307
9300.00   0.85966712   0.02582165
9302.00   0.88716954   0.03141270
9304.00   0.94188774   0.04021487
9306.00   1.00280750   0.04812080
9308.00   1.05497801   0.05337672
9310.00   1.11454201   0.05781444
9312.00   1.09829628   0.06009520
9314.00   1.01926541   0.06078738
9316.00   0.92219734   0.06049967
9318.00   0.77561736   0.05832001
9320.00   0.63701248   0.05607048
9322.00   0.53537148   0.05555521
9324.00   0.45485428   0.05594520
9326.00   0.47418118   0.05379872
9328.00   0.62729096   0.04843684
9330.00   0.71355402   0.04501975
9332.00   0.78677917   0.04214996
9334.00   0.83430886   0.04083451
9336.00   0.84394354   0.04274722
9338.00   0.82722074   0.04600383
9340.00   0.81635064   0.04489022
9342.00   0.79311496   0.03942650
9344.00   0.78017122   0.03617157
9346.00   0.77205104   0.03309878
9348.00   0.76514500   0.03073059
9350.00   0.76047921   0.02933292
9352.00   0.75596863   0.02892452
9354.00   0.74420297   0.02956749
9356.00   0.71783048   0.03176057
9358.00   0.72628206   0.03267255
9360.00   0.77289075   0.03218606
9362.00   0.80210477   0.03341848
9364.00   0.78477252   0.03314299
9366.00   0.78893137   0.03737030
9368.00   0.90899420   0.05087578
9370.00   1.13725543   0.06722382
9372.00   1.19862640   0.07987616
9374.00   1.20193732   0.09786390
9376.00   1.08787227   0.10271126
9378.00   0.75506419   0.09582257
9380.00   0.46529317   0.08408069
9382.00   0.41661775   0.07041289
9384.00   0.51175910   0.04931209
9386.00   0.58590776   0.03407572
9388.00   0.75490671   0.02988388
9390.00   0.82579136   0.02402815
9392.00   0.82658917   0.02280609
9394.00   0.80303204   0.02392765
9396.00   0.75628531   0.02652219
9398.00   0.69293427   0.03024552
9400.00   0.69049639   0.03189600
9402.00   0.74229574   0.03333700
9404.00   0.77256936   0.03299722
9406.00   0.81089503   0.02967007
9408.00   0.83759505   0.02771471
9410.00   0.84530497   0.02855515
9412.00   0.84436113   0.03074674
9414.00   0.85135829   0.03315928
9416.00   0.86522043   0.03680271
9418.00   0.86061347   0.03824878
9420.00   0.82723904   0.03862344
9422.00   0.81864893   0.03834415
9424.00   0.85285568   0.03708828
9426.00   0.88718003   0.03537840
9428.00   0.87027115   0.03332132
9430.00   0.81461829   0.02930247
9432.00   0.79478097   0.03404347
9434.00   0.79523879   0.04378774
9436.00   0.78897786   0.05251106
9438.00   0.76339006   0.06480896
9440.00   0.75734884   0.07181221
9442.00   0.81262875   0.06772451
9444.00   0.91241682   0.05427654
9446.00   0.93122929   0.04690905
9448.00   0.89587504   0.04044577
9450.00   0.85881114   0.03724593
9452.00   0.78425181   0.03921152
9454.00   0.73322618   0.04235750
9456.00   0.74338347   0.04599616
9458.00   0.78542650   0.04992733
9460.00   0.78883511   0.05002380
9462.00   0.75854158   0.04669962
9464.00   0.76525158   0.04392592
9466.00   0.78401798   0.03774047
9468.00   0.82598984   0.03510678
9470.00   0.92757773   0.03974198
9472.00   1.03045666   0.04652471
9474.00   0.99581838   0.05022530
9476.00   0.83984792   0.05428671
9478.00   0.73307079   0.05422760
9480.00   0.56868333   0.05036495
9482.00   0.50557971   0.04569182
9484.00   0.59264708   0.03857826
9486.00   0.71794450   0.03038364
9488.00   0.75625634   0.02644688
9490.00   0.75862807   0.02657916
9492.00   0.74552053   0.02813447
9494.00   0.68170834   0.03154540
9496.00   0.65557528   0.03667217
9498.00   0.65922350   0.04601437
9500.00   0.68244547   0.05160987
9502.00   0.72849208   0.04859231
9504.00   0.79826313   0.03831843
9506.00   0.83422875   0.03307902
9508.00   0.84987044   0.02973614
9510.00   0.86492443   0.02764750
9512.00   0.87857455   0.02787083
9514.00   0.88174659   0.02925600
9516.00   0.86404264   0.03179909
9518.00   0.83458412   0.03493978
9520.00   0.83313775   0.03546827
9522.00   0.86278111   0.03387024
9524.00   0.86459804   0.03290424
9526.00   0.84367537   0.03158243
9528.00   0.83314687   0.03033381
9530.00   0.84489262   0.02906961
9532.00   0.86452532   0.02802234
9534.00   0.86945796   0.02814060
9536.00   0.85889047   0.02976597
9538.00   0.87419939   0.02984659
9540.00   0.91268408   0.02827305
9542.00   0.94512701   0.02811436
9544.00   0.97781771   0.02965082
9546.00   0.99996412   0.03201346
9548.00   0.99368602   0.03493755
9550.00   0.97137582   0.03896034
9552.00   0.90135199   0.03993449
9554.00   0.73807234   0.03799131
9556.00   0.65286589   0.03749889
9558.00   0.63961434   0.03785895
9560.00   0.66132015   0.03920527
9562.00   0.70554358   0.04239435
9564.00   0.78211820   0.04690836
9566.00   0.82070243   0.04778099
9568.00   0.85688144   0.04656843
9570.00   0.85272843   0.04432566
9572.00   0.78945220   0.03931091
9574.00   0.73504084   0.03421642
9576.00   0.72416788   0.03125050
9578.00   0.73488843   0.02962464
9580.00   0.74190867   0.02801663
9582.00   0.76513654   0.02744215
9584.00   0.76815420   0.02656957
9586.00   0.75225496   0.02571889
9588.00   0.74218321   0.02509687
9590.00   0.74891311   0.02490770
9592.00   0.75921446   0.02490475
9594.00   0.74750257   0.02443017
9596.00   0.70268613   0.02313582
9598.00   0.71251565   0.02346235
9600.00   0.78184670   0.02491104
9602.00   0.81871301   0.02659086
9604.00   0.80963004   0.02911791
9606.00   0.78428876   0.03115023
9608.00   0.76628447   0.03073522
9610.00   0.73669845   0.02797975
9612.00   0.75178397   0.02743580
9614.00   0.84077829   0.02812390
9616.00   0.85916132   0.02879009
9618.00   0.78529352   0.02984318
9620.00   0.70756239   0.03066520
9622.00   0.70094389   0.03073458
9624.00   0.73512554   0.03033975
9626.00   0.72576976   0.02916189
9628.00   0.68264163   0.02633279
9630.00   0.66547555   0.02449061
9632.00   0.67570800   0.02292758
9634.00   0.67887658   0.02243343
9636.00   0.64945138   0.02415376
9638.00   0.60507280   0.02696600
9640.00   0.60844052   0.02699718
9642.00   0.65354520   0.02417668
9644.00   0.68561924   0.02351691
9646.00   0.72807628   0.02405489
9648.00   0.75877190   0.02484806
9650.00   0.77263492   0.02574278
9652.00   0.77354378   0.02678782
9654.00   0.75792032   0.02772596
9656.00   0.70192951   0.02885153
9658.00   0.70803237   0.02938004
9660.00   0.77201051   0.02884189
9662.00   0.81601030   0.02936934
9664.00   0.83688110   0.03192006
9666.00   0.84175479   0.03430848
9668.00   0.82069194   0.03399624
9670.00   0.76172262   0.03146343
9672.00   0.76072949   0.03035562
9674.00   0.82121867   0.02926871
9676.00   0.83953381   0.02908636
9678.00   0.80485457   0.03029951
9680.00   0.76710522   0.03156807
9682.00   0.77168626   0.03185914
9684.00   0.80323064   0.03168368
9686.00   0.78204709   0.03121235
9688.00   0.71198946   0.02969510
9690.00   0.66593915   0.02925835
9692.00   0.62733144   0.02966249
9694.00   0.60139334   0.03052798
9696.00   0.59170610   0.03199981
9698.00   0.59642428   0.03383457
9700.00   0.62030691   0.03410047
9702.00   0.66516125   0.03294189
9704.00   0.71933550   0.03230892
9706.00   0.82053810   0.03133579
9708.00   0.87590390   0.03092254
9710.00   0.84463781   0.03131330
9712.00   0.76935828   0.03232803
9714.00   0.72408712   0.03407457
9716.00   0.67071372   0.03737013
9718.00   0.64887136   0.03828548
9720.00   0.66121948   0.03799833
9722.00   0.66566670   0.03693362
9724.00   0.64913440   0.03442449
9726.00   0.63591343   0.03138330
9728.00   0.65961242   0.03001147
9730.00   0.71623981   0.02962081
9732.00   0.74976152   0.03009737
9734.00   0.79075634   0.03225308
9736.00   0.80044615   0.03354598
9738.00   0.76284033   0.03442677
9740.00   0.72189021   0.03466159
9742.00   0.71914995   0.03359414
9744.00   0.73782218   0.03120600
9746.00   0.74894989   0.03000140
9748.00   0.76891136   0.02952256
9750.00   0.77631551   0.02880288
9752.00   0.77430904   0.02802022
9754.00   0.76516408   0.02717796
9756.00   0.74407780   0.02611921
9758.00   0.71458060   0.02492555
9760.00   0.71472609   0.02453852
9762.00   0.74339598   0.02521449
9764.00   0.75979125   0.02513055
9766.00   0.78977454   0.02445499
9768.00   0.79313779   0.02400786
9770.00   0.74681759   0.02413289
9772.00   0.67538214   0.02452341
9774.00   0.63195133   0.02471760
9776.00   0.58010691   0.02456902
9778.00   0.58297020   0.02530831
9780.00   0.64746660   0.02590239
9782.00   0.69952840   0.02804773
9784.00   0.73438913   0.03219086
9786.00   0.75869203   0.03650796
9788.00   0.76356411   0.03939918
9790.00   0.74410444   0.04201549
9792.00   0.74645144   0.04317875
9794.00   0.77310771   0.04338852
9796.00   0.77266008   0.04269273
9798.00   0.73377758   0.04044198
9800.00   0.69138491   0.03778430
9802.00   0.67791831   0.03616829
9804.00   0.68053401   0.03505280
9806.00   0.67830318   0.03424140
9808.00   0.65985215   0.03402853
9810.00   0.68308622   0.03382801
9812.00   0.76727045   0.03358693
9814.00   0.83979958   0.03370405
9816.00   0.86074090   0.03479131
9818.00   0.85152715   0.03641814
9820.00   0.80686599   0.03580495
9822.00   0.67275780   0.03277650
9824.00   0.63386321   0.03077840
9826.00   0.68169785   0.02875352
9828.00   0.71266586   0.02725314
9830.00   0.68782544   0.02679188
9832.00   0.63996816   0.02698738
9834.00   0.60814130   0.02671468
9836.00   0.55495870   0.02584824
9838.00   0.56578451   0.02642012
9840.00   0.64817452   0.02788302
9842.00   0.70800757   0.02981942
9844.00   0.73479718   0.03263195
9846.00   0.74281478   0.03530528
9848.00   0.72887003   0.03635047
9850.00   0.67687929   0.03651338
9852.00   0.67683327   0.03594908
9854.00   0.71213633   0.03361216
9856.00   0.74778229   0.03228582
9858.00   0.80060184   0.03174407
9860.00   0.84059864   0.03223940
9862.00   0.82669419   0.03399261
9864.00   0.77042133   0.03643454
9866.00   0.73860949   0.04183233
9868.00   0.69850177   0.05171135
9870.00   0.68385762   0.05574243
9872.00   0.70202482   0.05606896
9874.00   0.72113711   0.05451536
9876.00   0.72454512   0.05118390
9878.00   0.72103059   0.04552641
9880.00   0.69613069   0.04182456
9882.00   0.63179922   0.03840546
9884.00   0.60401523   0.03667494
9886.00   0.60584235   0.03722857
9888.00   0.60544354   0.03827960
9890.00   0.58621979   0.03937586
9892.00   0.56344724   0.04071412
9894.00   0.57071769   0.04167110
9896.00   0.60103458   0.04292897
9898.00   0.63442194   0.04290628
9900.00   0.70232010   0.04096428
9902.00   0.73305607   0.04021002
9904.00   0.70392203   0.04032412
9906.00   0.65003467   0.04217781
9908.00   0.61790639   0.04849423
9910.00   0.58359510   0.05907872
9912.00   0.57324964   0.06258728
9914.00   0.56944174   0.06323010
9916.00   0.59974056   0.06191887
9918.00   0.70055515   0.05729823
9920.00   0.79065090   0.05128639
9922.00   0.76689333   0.04693104
9924.00   0.65384102   0.04298119
9926.00   0.63850671   0.04028332
9928.00   0.69715589   0.03857547
9930.00   0.71196067   0.03887034
9932.00   0.69587928   0.04079270
9934.00   0.66443449   0.04456258
9936.00   0.62265193   0.04990115
9938.00   0.56786472   0.05629000
9940.00   0.50591844   0.06425197
9942.00   0.37320825   0.07694167
9944.00   0.37157646   0.08134693
9946.00   0.51762515   0.07970770
9948.00   0.63981205   0.07748894
9950.00   0.67142648   0.07635731
9952.00   0.66085845   0.07535810
9954.00   0.64777005   0.07575151
9956.00   0.57741052   0.07878225
9958.00   0.59289646   0.07829827
9960.00   0.70450294   0.07522129
9962.00   0.76410246   0.07190687
9964.00   0.72550094   0.06860540
9966.00   0.65524888   0.06506091
9968.00   0.64450175   0.06163499
9970.00   0.66354305   0.05783395
9972.00   0.68092555   0.05533650
9974.00   0.70374274   0.05424256
9976.00   0.73999500   0.05323668
9978.00   0.81835783   0.05282249
9980.00   0.87800866   0.05215719
9982.00   0.83536166   0.04961400
9984.00   0.70684522   0.04498655
9986.00   0.65689039   0.04365027
9988.00   0.64619070   0.04526769
9990.00   0.62997311   0.04610956
9992.00   0.61015224   0.04651520
9994.00   0.59875774   0.04710104
9996.00   0.60735446   0.04803718
9998.00   0.63099945   0.04920059
10000.00   0.62780243   0.05125070
10002.00   0.59532815   0.05173968
10004.00   0.58855796   0.05749033
10006.00   0.59186870   0.06785765
10008.00   0.61208451   0.07671320
10010.00   0.64819270   0.08367826
10012.00   0.70295852   0.08939552
10014.00   0.80045253   0.09082619
10016.00   1.05701661   0.08842618
10018.00   1.03658283   0.08555222
10020.00   0.69600230   0.07931025
10022.00   0.51511943   0.07415079
10024.00   0.65566057   0.07197651
10026.00   0.89678591   0.07085492
10028.00   0.91424066   0.06766615
10030.00   0.77785772   0.06264257
10032.00   0.75583476   0.05949277
10034.00   0.81355190   0.05633983
10036.00   0.80795574   0.05590677
10038.00   0.68008631   0.06019224
10040.00   0.56585300   0.06453371
10042.00   0.64605308   0.06420612
10044.00   0.89815634   0.06080661
10046.00   0.90061402   0.05858945
10048.00   0.66093838   0.05374485
10050.00   0.58063877   0.05368560
10052.00   0.65353000   0.06017980
10054.00   0.75551444   0.06586792
10056.00   0.81954992   0.06654331
10058.00   0.88048506   0.06456677
10060.00   0.89793783   0.06527616
10062.00   0.86387539   0.06810795
10064.00   0.84928191   0.06882884
10066.00   0.82660717   0.06799115
10068.00   0.82488972   0.06676754
10070.00   0.86706215   0.06453257
10072.00   0.93405449   0.06208998
10074.00   0.96723646   0.06566150
10076.00   0.99975508   0.07549910
10078.00   0.99128193   0.08052745
10080.00   0.94436210   0.08562508
10082.00   0.88489598   0.08749241
10084.00   0.79562664   0.08447401
10086.00   0.70796657   0.07888965
10088.00   0.71326184   0.07585964
10090.00   0.81954998   0.07393472
10092.00   0.83171606   0.07120959
10094.00   0.76595730   0.06549956
10096.00   0.75134009   0.06480551
10098.00   0.82541060   0.07223947
10100.00   0.90193605   0.08008394
10102.00   0.87685633   0.08171768
10104.00   0.77510619   0.08010886
10106.00   0.73616445   0.07827930
10108.00   0.68554175   0.07263470
10110.00   0.71407157   0.07079866
10112.00   0.89792907   0.07271662
10114.00   1.03187037   0.07647375
10116.00   0.92478395   0.08136245
10118.00   0.65582383   0.08753828
10120.00   0.55892789   0.09185061
10122.00   0.52609426   0.09728955
10124.00   0.53916901   0.09822160
10126.00   0.66384012   0.09483957
10128.00   0.74307549   0.08998992
10130.00   0.67020446   0.08390995
10132.00   0.52564412   0.07640696
10134.00   0.53679508   0.07361967
10136.00   0.68474537   0.07474501
10138.00   0.75609940   0.07667153
10140.00   0.85083288   0.08245813
10142.00   0.86489922   0.08563226
10144.00   0.73860717   0.08326709
10146.00   0.55236912   0.07954551
10148.00   0.46143690   0.08344561
10150.00   0.39332837   0.09397595
10152.00   0.40074235   0.09771112
10154.00   0.53598714   0.09882019
10156.00   0.59932071   0.09855986
10158.00   0.54082233   0.09520537
10160.00   0.47111320   0.09195981
10162.00   0.52188396   0.09427663
10164.00   0.66153020   0.10040134
10166.00   0.72836667   0.10520253
10168.00   0.74288613   0.11137476
10170.00   0.80190134   0.11550124
10172.00   0.94119656   0.11909276
10174.00   1.05033290   0.12021779
10176.00   1.02574098   0.11563101
10178.00   0.90765816   0.10553802
10180.00   0.87572241   0.10466116
10182.00   0.89524990   0.11207430
10184.00   0.88220215   0.11532968
10186.00   0.82882828   0.11797037
10188.00   0.80000657   0.11818578
10190.00   0.85616261   0.11311020
10192.00   0.95033950   0.10455021
10194.00   0.88673484   0.10445946
10196.00   0.63866645   0.11332244
10198.00   0.53202426   0.11538009
10200.00   0.50081390   0.11312644
10202.00   0.47243485   0.11245295
10204.00   0.41746733   0.11472082
10206.00   0.37041968   0.11864995
10208.00   0.39305025   0.12430329
10210.00   0.50034124   0.13511129
10212.00   0.53029191   0.13539352
10214.00   0.48676205   0.12531148
10216.00   0.50223386   0.11828541
10218.00   0.61284596   0.11520961
10220.00   0.74347043   0.11521332
10222.00   0.80449015   0.12050027
10224.00   0.82595319   0.13231611
10226.00   0.85599959   0.13324811
10228.00   0.94466311   0.12595399
10230.00   0.89184946   0.11992155
10232.00   0.58654684   0.11422525
10234.00   0.33379921   0.10842253
10236.00   0.44632354   0.10248622
10238.00   0.81563586   0.09613657
10240.00   0.82239747   0.09346683
10242.00   0.54843628   0.09491149
10244.00   0.39956832   0.09570532
10246.00   0.25125325   0.09800582
10248.00   0.20621262   0.09883891
10250.00   0.37427860   0.09577468
10252.00   0.67710966   0.09024373
10254.00   0.78425193   0.08847465
10256.00   0.76489788   0.08928216
10258.00   0.78180599   0.08974776
10260.00   0.80442399   0.09086269
10262.00   0.79313833   0.09210780
10264.00   0.70020413   0.09298889
10266.00   0.59051186   0.09415697
10268.00   0.63822192   0.09720781
10270.00   0.85310411   0.10213011
10272.00   0.92561251   0.10582399
10274.00   0.98038340   0.10473331
10276.00   0.92988014   0.11198101
10278.00   0.65859526   0.12878452
10280.00   0.38897970   0.14757606
10282.00   0.47315222   0.16360411
10284.00   0.83015954   0.18052424
10286.00   1.06956816   0.19084860
10288.00   1.46929038   0.19996014
10290.00   1.56221890   0.20196509
10292.00   1.29799151   0.19567430
10294.00   0.90420467   0.18526775
10296.00   0.50605690   0.17307609
10298.00   0.00787450   0.15602909
10300.00   -0.10351364   0.14825985
10302.00   0.08570992   0.15049224
10304.00   0.33055070   0.14912748
10306.00   0.83593994   0.14741857
10308.00   1.21379471   0.14393291
10310.00   1.19662559   0.13610652
10312.00   0.94822055   0.12495714
10314.00   0.86805034   0.11998094
10316.00   0.84733850   0.12089110
10318.00   0.77690864   0.11945932
10320.00   0.67227614   0.11787377
10322.00   0.57123333   0.11625662
10324.00   0.44370186   0.11390043
10326.00   0.33945057   0.11180907
10328.00   0.44980842   0.11351291
10330.00   0.87137783   0.12032123
10332.00   0.93727076   0.12130278
10334.00   0.73373336   0.11690878
10336.00   0.59310913   0.11558891
10338.00   0.55179304   0.11827345
10340.00   0.54450631   0.12330421
10342.00   0.54513758   0.13070570
10344.00   0.58980709   0.14239770
10346.00   0.53552151   0.14472307
10348.00   0.27389526   0.13857476
10350.00   0.27020213   0.13558824
10352.00   0.62566882   0.13430633
10354.00   1.01389432   0.13570744
10356.00   1.14844644   0.14322427
10358.00   1.15146518   0.15592395
10360.00   1.14522779   0.15697227
10362.00   1.02780843   0.14477153
10364.00   0.99362564   0.14300239
10366.00   1.09734750   0.14977612
10368.00   1.11401212   0.15884538
10370.00   0.87281835   0.17015578
10372.00   0.47553429   0.18277141
10374.00   0.27854282   0.18084629
10376.00   0.10077162   0.16006945
10378.00   0.12672515   0.15204665
10380.00   0.41654503   0.15219763
10382.00   0.67982048   0.15313151
10384.00   0.83250403   0.15344034
10386.00   0.93794388   0.15376724
10388.00   1.00231504   0.15099069
10390.00   0.94525236   0.14096060
10392.00   1.06619704   0.14349723
10394.00   1.42515993   0.15993792
10396.00   1.59364772   0.16777265
10398.00   1.47694194   0.16479923
10400.00   1.23639250   0.15652445
10402.00   1.04186225   0.14658867
10404.00   0.79611683   0.12761281
10406.00   0.64887601   0.12608762
10408.00   0.52089465   0.14020739
10410.00   0.50852078   0.15139802
10412.00   0.69585800   0.15971208
10414.00   0.88097835   0.16949195
10416.00   0.83763438   0.18537664
10418.00   0.63603812   0.20631185
10420.00   0.62211531   0.20809294
10422.00   0.76058328   0.19450653
10424.00   0.80070949   0.18080206
10426.00   0.75032097   0.15794431
10428.00   0.70110172   0.13725914
10430.00   0.70111448   0.13350844
10432.00   0.72439754   0.14135702
10434.00   0.75899881   0.14020956
10436.00   0.87628746   0.13551560
10438.00   0.85420406   0.13285536
10440.00   0.65312123   0.12953448
10442.00   0.52917713   0.12902415
10444.00   0.59229302   0.13311635
10446.00   0.74447161   0.13983785
10448.00   0.82718599   0.14598708
10450.00   0.89128083   0.15619245
10452.00   0.96805954   0.15726365
10454.00   1.06547248   0.15002532
10456.00   1.13436353   0.14373197
10458.00   1.19006479   0.13885634
10460.00   1.20243049   0.13546982
10462.00   1.08631229   0.13700116
10464.00   0.80855620   0.14403972
10466.00   0.71839249   0.14595060
10468.00   0.72844559   0.14574124
10470.00   0.77184314   0.14474164
10472.00   0.89322364   0.14309992
10474.00   1.00845516   0.14019568
10476.00   1.02034497   0.13492678
10478.00   0.97219074   0.12681235
10480.00   0.86908090   0.12211947
10482.00   0.64151919   0.11995873
10484.00   0.50291902   0.11746909
10486.00   0.41614020   0.11443859
10488.00   0.38168585   0.11262494
10490.00   0.42154384   0.11343099
10492.00   0.52419966   0.11611862
10494.00   0.57965702   0.11813926
10496.00   0.61181068   0.12078139
10498.00   0.66797072   0.12266733
10500.00   0.79096222   0.12496023
10502.00   0.83715415   0.12558109
10504.00   0.70129120   0.12310401
10506.00   0.48946342   0.11883334
10508.00   0.49936748   0.11659671
10510.00   0.72912383   0.11332422
10512.00   0.78302091   0.11526278
10514.00   0.74492878   0.12391579
10516.00   0.71216452   0.12900114
10518.00   0.68725675   0.12858674
10520.00   0.67263329   0.12624733
10522.00   0.71161872   0.12629598
10524.00   0.83112758   0.12781928
10526.00   0.81153184   0.12678064
10528.00   0.67100871   0.12427682
10530.00   0.56001836   0.12063136
10532.00   0.44779903   0.11426231
10534.00   0.37690383   0.10797449
10536.00   0.42665312   0.10601564
10538.00   0.58264750   0.10731731
10540.00   0.66327679   0.10739429
10542.00   0.76732802   0.10816400
10544.00   0.77190667   0.10822556
10546.00   0.64135945   0.10755092
10548.00   0.50899643   0.10675342
10550.00   0.46613103   0.10597257
10552.00   0.46634579   0.10511395
10554.00   0.44374436   0.10590407
10556.00   0.38514408   0.10855041
10558.00   0.40842423   0.11030362
10560.00   0.51804900   0.11222953
10562.00   0.62770039   0.11332671
10564.00   0.71725589   0.11305175
10566.00   0.79469895   0.11188240
10568.00   0.80943090   0.11083011
10570.00   0.76783270   0.10942338
10572.00   0.71352547   0.10797258
10574.00   0.58237559   0.10558997
10576.00   0.51735973   0.10447035
10578.00   0.57357675   0.10562907
10580.00   0.66904432   0.10755822
10582.00   0.67872578   0.10792691
10584.00   0.64911896   0.10761168
10586.00   0.59571952   0.10692706
10588.00   0.47192013   0.10526043
10590.00   0.40155062   0.10409148
10592.00   0.38650596   0.10350931
10594.00   0.40728903   0.10318141
10596.00   0.46735275   0.10296464
10598.00   0.58398086   0.10304605
10600.00   0.60636979   0.10244470
10602.00   0.55868226   0.10130367
10604.00   0.51895887   0.10014135
10606.00   0.45341930   0.09854041
10608.00   0.41311970   0.09727799
10610.00   0.45389205   0.09708186
10612.00   0.55063444   0.09762506
10614.00   0.56333762   0.09780449
10616.00   0.50278294   0.09812815
10618.00   0.49088332   0.09817596
10620.00   0.51041365   0.09769294
10622.00   0.53161317   0.09759498
10624.00   0.54993385   0.09862541
10626.00   0.56544256   0.10008688
10628.00   0.54735601   0.09983187
10630.00   0.47949064   0.09819379
10632.00   0.45730740   0.09671790
10634.00   0.46337983   0.09409294
10636.00   0.46740040   0.09261759
10638.00   0.45918390   0.09338329
10640.00   0.45255667   0.09489498
10642.00   0.47024569   0.09470496
10644.00   0.52279097   0.09349007
10646.00   0.52046198   0.09257410
10648.00   0.46191227   0.09127130
10650.00   0.43306419   0.09037671
10652.00   0.45577535   0.08957704
10654.00   0.47645491   0.08946324
10656.00   0.43109971   0.09132481
10658.00   0.33170813   0.09532042
10660.00   0.29654169   0.09535583
10662.00   0.26389226   0.09178540
10664.00   0.30608699   0.08966032
10666.00   0.46830791   0.08851887
10668.00   0.62017781   0.08786492
10670.00   0.66182721   0.08768781
10672.00   0.64086974   0.08803401
10674.00   0.62242460   0.08794125
10676.00   0.56166118   0.08775712
10678.00   0.53185284   0.08741961
10680.00   0.52472544   0.08646090
10682.00   0.51859903   0.08610948
10684.00   0.50896436   0.08738042
10686.00   0.49702933   0.08937345
10688.00   0.46312365   0.08927118
10690.00   0.35663831   0.08712118
10692.00   0.37406906   0.08624523
10694.00   0.51569802   0.08572990
10696.00   0.62043196   0.08542424
10698.00   0.66286057   0.08533869
10700.00   0.66446406   0.08544101
10702.00   0.60168886   0.08548719
10704.00   0.42269498   0.08483358
10706.00   0.39885381   0.08675224
10708.00   0.48105073   0.09202414
10710.00   0.56786382   0.09493015
10712.00   0.65931028   0.09249730
10714.00   0.76332206   0.09160317
10716.00   0.88999474   0.10266341
10718.00   1.06713414   0.12295640
10720.00   1.07001078   0.12341937
10722.00   0.89580864   0.10619215
10724.00   0.77732736   0.09438237
10726.00   0.66352820   0.08575245
10728.00   0.59815311   0.08121526
10730.00   0.63898236   0.08494007
10732.00   0.76225615   0.09509474
10734.00   0.86575955   0.09734836
10736.00   1.08746815   0.09595021
10738.00   1.09365129   0.09414169
10740.00   0.83968520   0.08906883
10742.00   0.62652487   0.08583318
10744.00   0.61844122   0.08904915
10746.00   0.70066297   0.09496511
10748.00   0.64658213   0.09273428
10750.00   0.43667650   0.08141600
10752.00   0.41289642   0.07572572
10754.00   0.53006393   0.07106514
10756.00   0.63988388   0.06971574
10758.00   0.73360288   0.07470546
10760.00   0.80450374   0.08119179
10762.00   0.76049328   0.07997927
10764.00   0.57617640   0.07192614
10766.00   0.51447886   0.06820360
10768.00   0.45351806   0.06494257
10770.00   0.51318157   0.06413129
10772.00   0.80101156   0.06754048
10774.00   1.09694028   0.07145634
10776.00   1.08773601   0.07162406
10778.00   0.84829003   0.06975478
10780.00   0.76265711   0.06715681
10782.00   0.71952385   0.06101855
10784.00   0.68155247   0.05791691
10786.00   0.65785104   0.05887748
10788.00   0.63859397   0.06054665
10790.00   0.60705256   0.06060218
10792.00   0.56793904   0.06014845
10794.00   0.58175993   0.05979066
10796.00   0.66002148   0.05899442
10798.00   0.69981158   0.05881099
10800.00   0.70010954   0.05988711
10802.00   0.71879083   0.06003241
10804.00   0.79703736   0.05755809
10806.00   0.90497607   0.05346180
10808.00   0.94348413   0.05226747
10810.00   0.96048379   0.05357937
10812.00   0.91437984   0.05379891
10814.00   0.75350523   0.05446054
10816.00   0.65071046   0.05417382
10818.00   0.64673728   0.05158078
10820.00   0.70545340   0.04832796
10822.00   0.82190919   0.04914893
10824.00   1.05363131   0.05297337
10826.00   1.16868150   0.05630163
10828.00   1.28099084   0.06145233
10830.00   1.26590943   0.06436718
10832.00   1.05202031   0.06532299
10834.00   0.78265846   0.06457560
10836.00   0.64830983   0.06094719
10838.00   0.57040823   0.05234227
10840.00   0.53885525   0.05105679
10842.00   0.56740350   0.05667247
10844.00   0.62389416   0.05950943
10846.00   0.76089907   0.06143885
10848.00   0.86842787   0.06148594
10850.00   0.83493894   0.05733042
10852.00   0.70424688   0.04861996
10854.00   0.61645752   0.04363158
10856.00   0.49435699   0.04042013
