# File created by shivutils (I.Shivvers)
# wl(A)   flm    er(optional)
3420.00   0.43387243   0.04901238
3422.00   0.45890123   0.05007925
3424.00   0.48872522   0.04974393
3426.00   0.59125441   0.05100561
3428.00   0.51042742   0.05047898
3430.00   0.50158948   0.05102407
3432.00   0.46948057   0.05153581
3434.00   0.52321690   0.05162643
3436.00   0.41699877   0.04927127
3438.00   0.54285270   0.05299400
3440.00   0.58301145   0.05261515
3442.00   0.49861497   0.05158481
3444.00   0.51038349   0.05267698
3446.00   0.59891623   0.05433616
3448.00   0.58785504   0.05493673
3450.00   0.51059443   0.05416873
3452.00   0.39920196   0.05199136
3454.00   0.55639148   0.05431736
3456.00   0.55631775   0.05407850
3458.00   0.60384268   0.05331426
3460.00   0.62481368   0.05456318
3462.00   0.59663373   0.05464379
3464.00   0.51474082   0.05147763
3466.00   0.59883654   0.05392890
3468.00   0.52718413   0.05346873
3470.00   0.58421737   0.05436942
3472.00   0.56725568   0.05389885
3474.00   0.54463708   0.05466633
3476.00   0.54409879   0.05497746
3478.00   0.47420576   0.05423541
3480.00   0.57505500   0.05595016
3482.00   0.65588534   0.05709397
3484.00   0.59860015   0.05539604
3486.00   0.58032525   0.05378237
3488.00   0.61065477   0.05369971
3490.00   0.57505822   0.05347282
3492.00   0.69015288   0.05477455
3494.00   0.61848605   0.05291302
3496.00   0.58259714   0.05237193
3498.00   0.57682705   0.05199619
3500.00   0.63191366   0.05407276
3502.00   0.62330717   0.05271673
3504.00   0.54864436   0.05134707
3506.00   0.53919733   0.05232587
3508.00   0.64838225   0.05342035
3510.00   0.61682469   0.05238503
3512.00   0.61396521   0.05200743
3514.00   0.52513534   0.05022912
3516.00   0.67034310   0.05216874
3518.00   0.59485161   0.05103865
3520.00   0.64710051   0.05161244
3522.00   0.70558774   0.05242445
3524.00   0.67261946   0.05195986
3526.00   0.57184839   0.04997519
3528.00   0.69639987   0.05115289
3530.00   0.57863373   0.04953157
3532.00   0.62527573   0.04973518
3534.00   0.57169032   0.04873675
3536.00   0.68030661   0.05082746
3538.00   0.70198441   0.05168863
3540.00   0.60422170   0.05086744
3542.00   0.59865552   0.04982042
3544.00   0.73441660   0.05220860
3546.00   0.72111237   0.05050509
3548.00   0.68297523   0.05038268
3550.00   0.67236900   0.05006458
3552.00   0.64669126   0.04953291
3554.00   0.54553682   0.04793259
3556.00   0.71409899   0.05017605
3558.00   0.71834123   0.04994964
3560.00   0.60965931   0.04750183
3562.00   0.73768765   0.04976567
3564.00   0.66265982   0.04757759
3566.00   0.66001022   0.04686024
3568.00   0.74062365   0.04839470
3570.00   0.72946370   0.04843762
3572.00   0.72744107   0.04825744
3574.00   0.73341441   0.04739660
3576.00   0.72755611   0.04670465
3578.00   0.66938734   0.04603372
3580.00   0.72063643   0.04609047
3582.00   0.70870805   0.04566083
3584.00   0.72460717   0.04484100
3586.00   0.66409808   0.04498852
3588.00   0.69734114   0.04519770
3590.00   0.65791410   0.04488094
3592.00   0.78658617   0.04637034
3594.00   0.65468174   0.04358454
3596.00   0.80172098   0.04585594
3598.00   0.72830701   0.04462920
3600.00   0.64851922   0.04246568
3602.00   0.67733181   0.04292667
3604.00   0.71259975   0.04338081
3606.00   0.71066779   0.04296331
3608.00   0.75372809   0.04367137
3610.00   0.80460870   0.04524948
3612.00   0.68604833   0.04325489
3614.00   0.68156415   0.04340329
3616.00   0.66876531   0.04300839
3618.00   0.58581817   0.04099886
3620.00   0.62259454   0.04061830
3622.00   0.74461460   0.04256460
3624.00   0.72061056   0.04244889
3626.00   0.69801605   0.04211289
3628.00   0.69820017   0.04290153
3630.00   0.66760516   0.04102161
3632.00   0.77054852   0.04273623
3634.00   0.65808666   0.04075298
3636.00   0.63599730   0.04006290
3638.00   0.65198022   0.04125761
3640.00   0.66519582   0.04057574
3642.00   0.74212211   0.04210022
3644.00   0.65020025   0.04168104
3646.00   0.67549288   0.04684700
3648.00   0.68208635   0.04931184
3650.00   0.83470625   0.04903985
3652.00   0.65698868   0.04509953
3654.00   0.68781155   0.04332890
3656.00   0.66165107   0.04018965
3658.00   0.71400738   0.04135815
3660.00   0.64493561   0.04143329
3662.00   0.64655095   0.04088482
3664.00   0.69981945   0.03905964
3666.00   0.66326022   0.03715746
3668.00   0.70536464   0.03766330
3670.00   0.66799206   0.03731528
3672.00   0.79942858   0.03893507
3674.00   0.76344866   0.03760402
3676.00   0.71857339   0.03717270
3678.00   0.75836110   0.03697338
3680.00   0.77529031   0.03720362
3682.00   0.73056597   0.03637542
3684.00   0.75647628   0.03683434
3686.00   0.83188957   0.03760888
3688.00   0.81367731   0.03743710
3690.00   0.79043162   0.03751534
3692.00   0.78847671   0.03716255
3694.00   0.83475095   0.03724097
3696.00   0.94638884   0.03903193
3698.00   0.87556124   0.03875214
3700.00   0.82735121   0.03784116
3702.00   0.94460970   0.03916933
3704.00   0.96589613   0.03900371
3706.00   0.98455071   0.03908561
3708.00   0.94717318   0.03867663
3710.00   1.01394010   0.03906962
3712.00   1.03402221   0.03945360
3714.00   1.06296051   0.03979320
3716.00   1.07223201   0.03993390
3718.00   1.22618973   0.04162296
3720.00   1.22308517   0.04096957
3722.00   1.25972462   0.04223053
3724.00   1.26446426   0.04199530
3726.00   1.33050883   0.04279782
3728.00   1.30824256   0.04208898
3730.00   1.33081877   0.04265974
3732.00   1.50208950   0.04387395
3734.00   1.38127124   0.04299047
3736.00   1.43736029   0.04368132
3738.00   1.48690760   0.04400485
3740.00   1.38302505   0.04295271
3742.00   1.53792191   0.04396334
3744.00   1.50341165   0.04336691
3746.00   1.46621406   0.04303244
3748.00   1.32142138   0.04105173
3750.00   1.38417840   0.04154915
3752.00   1.31780553   0.04069276
3754.00   1.25315261   0.04017002
3756.00   1.26011384   0.03953484
3758.00   1.20122099   0.03914685
3760.00   1.18597794   0.03853301
3762.00   1.22246242   0.03885937
3764.00   1.15412569   0.03779340
3766.00   1.12062132   0.03723608
3768.00   1.06644201   0.03665310
3770.00   1.05803752   0.03664870
3772.00   1.00693309   0.03553132
3774.00   0.99272275   0.03521795
3776.00   1.01648128   0.03543963
3778.00   0.99322128   0.03523960
3780.00   0.99603134   0.03501958
3782.00   0.85721529   0.03310196
3784.00   0.91917312   0.03393109
3786.00   0.85543311   0.03307424
3788.00   0.93045104   0.03359169
3790.00   0.88468373   0.03336102
3792.00   0.75657713   0.03172360
3794.00   0.77026349   0.03121755
3796.00   0.75207269   0.03093958
3798.00   0.74217486   0.03082903
3800.00   0.74084103   0.03069975
3802.00   0.69022626   0.03016253
3804.00   0.73510349   0.03045192
3806.00   0.74308455   0.02972777
3808.00   0.68350786   0.02917230
3810.00   0.70793873   0.02976114
3812.00   0.68842083   0.02969522
3814.00   0.70960927   0.02984308
3816.00   0.63460660   0.02877853
3818.00   0.60074335   0.02839805
3820.00   0.65834546   0.02903106
3822.00   0.56618899   0.02761162
3824.00   0.61409897   0.02840304
3826.00   0.60003734   0.02791079
3828.00   0.56028980   0.02786116
3830.00   0.58551693   0.02766112
3832.00   0.60528749   0.02771163
3834.00   0.61719149   0.02792633
3836.00   0.57130009   0.02705143
3838.00   0.57866585   0.02765364
3840.00   0.58759558   0.02773222
3842.00   0.57987964   0.02709891
3844.00   0.59197938   0.02708503
3846.00   0.60434794   0.02744515
3848.00   0.66608542   0.02776928
3850.00   0.60390288   0.02713409
3852.00   0.63695627   0.02775912
3854.00   0.66744661   0.02781157
3856.00   0.61029953   0.02674337
3858.00   0.66103148   0.02765032
3860.00   0.70540881   0.02817118
3862.00   0.66082537   0.02730957
3864.00   0.62666911   0.02693433
3866.00   0.69695717   0.02774294
3868.00   0.70416981   0.02765130
3870.00   0.69780117   0.02800544
3872.00   0.68828654   0.02801362
3874.00   0.73838925   0.02853456
3876.00   0.79219609   0.02865542
3878.00   0.79990220   0.02890300
3880.00   0.77699363   0.02849749
3882.00   0.85708231   0.02926248
3884.00   0.81457120   0.02893769
3886.00   0.84767091   0.02904483
3888.00   0.81900197   0.02868434
3890.00   0.90334988   0.02948361
3892.00   0.85079294   0.02910901
3894.00   0.91038793   0.02986565
3896.00   0.97118700   0.03034298
3898.00   0.93232197   0.02998353
3900.00   0.96815658   0.03037013
3902.00   1.05779839   0.03157166
3904.00   1.04180562   0.03239036
3906.00   1.07810163   0.03326567
3908.00   1.11165106   0.03376669
3910.00   1.07246947   0.03344797
3912.00   1.17024124   0.03397130
3914.00   1.15906084   0.03294015
3916.00   1.25665438   0.03338335
3918.00   1.28404987   0.03344489
3920.00   1.27279568   0.03331141
3922.00   1.29727697   0.03328390
3924.00   1.37090111   0.03390449
3926.00   1.33265376   0.03354267
3928.00   1.36814010   0.03367757
3930.00   1.38974965   0.03404691
3932.00   1.32678258   0.03362514
3934.00   1.44532919   0.03419715
3936.00   1.56292009   0.03527867
3938.00   1.54228890   0.03501753
3940.00   1.61432648   0.03578170
3942.00   1.63604605   0.03641437
3944.00   1.78885186   0.03746368
3946.00   1.82013667   0.03742404
3948.00   1.86833382   0.03762924
3950.00   1.79312265   0.03685172
3952.00   1.85038531   0.03743440
3954.00   1.93090415   0.03789165
3956.00   2.02555847   0.03863404
3958.00   1.91749346   0.03808920
3960.00   2.05128455   0.03924808
3962.00   1.96961200   0.03809148
3964.00   2.05687189   0.03847743
3966.00   2.01642990   0.03788381
3968.00   2.02536631   0.03803809
3970.00   2.10822177   0.03875206
3972.00   2.25192094   0.03983055
3974.00   2.17478800   0.03909792
3976.00   2.23266315   0.03964479
3978.00   2.19426918   0.03935702
3980.00   2.15768933   0.03887458
3982.00   2.15329933   0.03883070
3984.00   2.17009974   0.03896785
3986.00   2.18016148   0.03877232
3988.00   2.23933768   0.03921211
3990.00   2.27550006   0.03926892
3992.00   2.29105473   0.03939408
3994.00   2.29381180   0.03954012
3996.00   2.09653497   0.03822461
3998.00   1.94437659   0.03652834
4000.00   2.11283636   0.03766752
4002.00   2.26238394   0.03869002
4004.00   2.32733369   0.03923994
4006.00   2.33122039   0.03936409
4008.00   2.33777356   0.03935859
4010.00   2.35207891   0.03932485
4012.00   2.32331681   0.03894971
4014.00   2.32343650   0.03896321
4016.00   2.22504926   0.03859972
4018.00   2.25522208   0.03958285
4020.00   2.19854450   0.03937841
4022.00   2.20815158   0.03920998
4024.00   2.17698121   0.03820490
4026.00   2.06091309   0.03708083
4028.00   2.04698610   0.03659577
4030.00   1.93845654   0.03577522
4032.00   1.81774950   0.03454508
4034.00   1.79972291   0.03416712
4036.00   1.87554932   0.03467499
4038.00   1.77331293   0.03398076
4040.00   1.79927480   0.03427649
4042.00   1.83496606   0.03709068
4044.00   1.72028959   0.04171769
4046.00   1.72708106   0.04159237
4048.00   1.67646849   0.03586427
4050.00   1.65056551   0.03333810
4052.00   1.57307839   0.03266877
4054.00   1.60214484   0.03270191
4056.00   1.54456592   0.03182578
4058.00   1.48333943   0.03113779
4060.00   1.47664547   0.03102344
4062.00   1.45494986   0.03067063
4064.00   1.45914650   0.03063815
4066.00   1.47504401   0.03072740
4068.00   1.51169538   0.03085615
4070.00   1.45812750   0.03020288
4072.00   1.43468201   0.03004057
4074.00   1.43241918   0.03079337
4076.00   1.46140492   0.03161654
4078.00   1.40530026   0.03099731
4080.00   1.38918686   0.03031978
4082.00   1.36027467   0.03013006
4084.00   1.35078752   0.02961193
4086.00   1.38506830   0.02987711
4088.00   1.44319916   0.02988185
4090.00   1.42638528   0.02944757
4092.00   1.38923502   0.02904480
4094.00   1.42208123   0.02927305
4096.00   1.44468153   0.02934642
4098.00   1.42035592   0.02903636
4100.00   1.39857626   0.02895753
4102.00   1.42514682   0.02888766
4104.00   1.43203521   0.02896223
4106.00   1.53425670   0.02961826
4108.00   1.54798341   0.02979563
4110.00   1.54438758   0.02983369
4112.00   1.58260465   0.02993048
4114.00   1.53916752   0.02971489
4116.00   1.58335209   0.02998786
4118.00   1.56519794   0.02960967
4120.00   1.54780257   0.02947464
4122.00   1.56654263   0.02959670
4124.00   1.62161672   0.02986728
4126.00   1.64224207   0.03013029
4128.00   1.61583591   0.02988882
4130.00   1.69822967   0.03053443
4132.00   1.60657287   0.03014820
4134.00   1.62565720   0.03003076
4136.00   1.64907837   0.02995820
4138.00   1.66565740   0.03029165
4140.00   1.66198194   0.03016964
4142.00   1.68230069   0.02983244
4144.00   1.60601401   0.02928842
4146.00   1.60325837   0.02917425
4148.00   1.58892918   0.02910644
4150.00   1.55664897   0.02912294
4152.00   1.51792324   0.02883991
4154.00   1.50433862   0.02847231
4156.00   1.51489604   0.02833435
4158.00   1.47139013   0.02804117
4160.00   1.43224084   0.02773147
4162.00   1.42195487   0.02800806
4164.00   1.39381933   0.02785492
4166.00   1.39011323   0.02739646
4168.00   1.35087931   0.02680356
4170.00   1.31590748   0.02631225
4172.00   1.33421588   0.02633897
4174.00   1.36756313   0.02651040
4176.00   1.30249310   0.02599648
4178.00   1.32689738   0.02615031
4180.00   1.30294716   0.02592881
4182.00   1.27831376   0.02565312
4184.00   1.27465725   0.02558830
4186.00   1.28929281   0.02577631
4188.00   1.26716197   0.02545427
4190.00   1.29924452   0.02557123
4192.00   1.27335382   0.02550943
4194.00   1.26798713   0.02520629
4196.00   1.23415160   0.02485074
4198.00   1.28516805   0.02526381
4200.00   1.30381191   0.02520588
4202.00   1.24640846   0.02500834
4204.00   1.25912881   0.02511304
4206.00   1.32235038   0.02566086
4208.00   1.34833002   0.02584045
4210.00   1.29485619   0.02557550
4212.00   1.31644809   0.02557302
4214.00   1.36014128   0.02580515
4216.00   1.41241860   0.02607344
4218.00   1.35590136   0.02574977
4220.00   1.47322750   0.02632227
4222.00   1.40888536   0.02586411
4224.00   1.46312332   0.02626144
4226.00   1.45554912   0.02627645
4228.00   1.42453301   0.02606438
4230.00   1.46656978   0.02645607
4232.00   1.49851620   0.02664237
4234.00   1.47808957   0.02666550
4236.00   1.50458610   0.02673322
4238.00   1.52810872   0.02685842
4240.00   1.55465925   0.02674919
4242.00   1.48116589   0.02637221
4244.00   1.53176105   0.02741328
4246.00   1.51935494   0.02769380
4248.00   1.48994744   0.02680393
4250.00   1.50103712   0.02638622
4252.00   1.53027081   0.02643868
4254.00   1.49253750   0.02631119
4256.00   1.52166510   0.02637652
4258.00   1.49517763   0.02611163
4260.00   1.51805496   0.02618341
4262.00   1.51122177   0.02618067
4264.00   1.55683088   0.02633435
4266.00   1.47375727   0.02567291
4268.00   1.47965038   0.02561696
4270.00   1.49530852   0.02588914
4272.00   1.49544072   0.02598069
4274.00   1.44698274   0.02554891
4276.00   1.49736953   0.02601191
4278.00   1.45024633   0.02567939
4280.00   1.47004819   0.02569781
4282.00   1.42333364   0.02538657
4284.00   1.44039512   0.02531610
4286.00   1.44073641   0.02520396
4288.00   1.46434855   0.02545982
4290.00   1.46160889   0.02534468
4292.00   1.43226027   0.02522111
4294.00   1.37348533   0.02480838
4296.00   1.45831788   0.02527993
4298.00   1.42890763   0.02498090
4300.00   1.40842712   0.02488175
4302.00   1.42605662   0.02497686
4304.00   1.35891402   0.02458839
4306.00   1.40795779   0.02492304
4308.00   1.46401167   0.02530184
4310.00   1.39305127   0.02506381
4312.00   1.37870502   0.02533979
4314.00   1.40937185   0.02552407
4316.00   1.41068852   0.02516529
4318.00   1.41805398   0.02535269
4320.00   1.38478220   0.02515117
4322.00   1.39635885   0.02516252
4324.00   1.38213110   0.02488395
4326.00   1.46813607   0.02522753
4328.00   1.38723278   0.02448462
4330.00   1.38605165   0.02453977
4332.00   1.44147313   0.02487023
4334.00   1.37373948   0.02445556
4336.00   1.41758168   0.02480606
4338.00   1.40986609   0.02483225
4340.00   1.38537741   0.02463673
4342.00   1.35697949   0.02456909
4344.00   1.40651965   0.02506515
4346.00   1.35935962   0.02493085
4348.00   1.38902116   0.02510221
4350.00   1.34026623   0.02451527
4352.00   1.33749056   0.02447568
4354.00   1.30312586   0.02802561
4356.00   1.37516236   0.03571772
4358.00   1.33970153   0.03646063
4360.00   1.30503559   0.02966298
4362.00   1.29579926   0.02512200
4364.00   1.30933714   0.02450860
4366.00   1.26474643   0.02407713
4368.00   1.26659477   0.02391716
4370.00   1.24419212   0.02361991
4372.00   1.19360638   0.02365447
4374.00   1.24014902   0.02376084
4376.00   1.22563183   0.02352028
4378.00   1.20223534   0.02296176
4380.00   1.18978536   0.02277350
4382.00   1.14928615   0.02248865
4384.00   1.09250462   0.02210733
4386.00   1.12145174   0.02233660
4388.00   1.07115376   0.02188805
4390.00   1.07283401   0.02196302
4392.00   1.13866377   0.02227036
4394.00   1.06770682   0.02180642
4396.00   1.11435723   0.02210806
4398.00   1.07485664   0.02212204
4400.00   1.04157877   0.02193454
4402.00   1.06023169   0.02183175
4404.00   1.05879414   0.02174064
4406.00   1.04079533   0.02144894
4408.00   1.04121530   0.02152068
4410.00   1.05353105   0.02164916
4412.00   1.03402746   0.02174500
4414.00   1.05908096   0.02187137
4416.00   1.03020036   0.02161208
4418.00   1.04618227   0.02156331
4420.00   1.00648868   0.02124396
4422.00   1.02586102   0.02127029
4424.00   0.99633867   0.02102722
4426.00   0.95696622   0.02067587
4428.00   1.04350102   0.02131744
4430.00   0.96526593   0.02078784
4432.00   0.99973285   0.02109658
4434.00   1.01476622   0.02108559
4436.00   0.99565625   0.02098719
4438.00   0.99008155   0.02099634
4440.00   0.93960661   0.02061583
4442.00   0.94642967   0.02059494
4444.00   0.95697057   0.02070286
4446.00   0.95581031   0.02052956
4448.00   0.96444142   0.02065139
4450.00   0.98088050   0.02068573
4452.00   0.95652580   0.02040816
4454.00   0.98135883   0.02058099
4456.00   0.98450953   0.02060518
4458.00   0.98244548   0.02063294
4460.00   1.03318274   0.02095370
4462.00   1.01091981   0.02088514
4464.00   1.00345623   0.02075815
4466.00   0.98892182   0.02060146
4468.00   1.01362312   0.02074965
4470.00   1.00925601   0.02070243
4472.00   1.00506389   0.02068583
4474.00   1.02065074   0.02073855
4476.00   1.02719605   0.02088827
4478.00   1.02518463   0.02077524
4480.00   1.06681693   0.02109157
4482.00   1.04752243   0.02103140
4484.00   1.05365527   0.02105044
4486.00   1.05441606   0.02101271
4488.00   1.06984270   0.02111145
4490.00   1.13605332   0.02158912
4492.00   1.14465177   0.02174975
4494.00   1.11129570   0.02157396
4496.00   1.10571313   0.02146191
4498.00   1.17797232   0.02187140
4500.00   1.11614335   0.02150856
4502.00   1.15208936   0.02164722
4504.00   1.18123555   0.02180779
4506.00   1.16346681   0.02175567
4508.00   1.18119562   0.02183124
4510.00   1.19919908   0.02189435
4512.00   1.25360382   0.02223684
4514.00   1.22656536   0.02200503
4516.00   1.24627686   0.02206098
4518.00   1.26068318   0.02224219
4520.00   1.29106879   0.02232774
4522.00   1.29163718   0.02229612
4524.00   1.27537036   0.02222855
4526.00   1.28808820   0.02234267
4528.00   1.33974612   0.02259960
4530.00   1.34125531   0.02257536
4532.00   1.41380513   0.02312680
4534.00   1.36646807   0.02276888
4536.00   1.35491717   0.02265264
4538.00   1.42550611   0.02318683
4540.00   1.44378233   0.02326782
4542.00   1.48062873   0.02352461
4544.00   1.46864295   0.02348088
4546.00   1.52203405   0.02380477
4548.00   1.46332705   0.02335961
4550.00   1.48527634   0.02340120
4552.00   1.49400330   0.02345112
4554.00   1.51653743   0.02357340
4556.00   1.47933221   0.02343301
4558.00   1.50826097   0.02355492
4560.00   1.55809641   0.02377907
4562.00   1.58350873   0.02389599
4564.00   1.58447218   0.02390438
4566.00   1.57599640   0.02388497
4568.00   1.60558653   0.02401835
4570.00   1.63202918   0.02414554
4572.00   1.66029024   0.02437948
4574.00   1.67398047   0.02448934
4576.00   1.66665387   0.02434439
4578.00   1.62840652   0.02407673
4580.00   1.67631066   0.02428381
4582.00   1.73577487   0.02452998
4584.00   1.74833262   0.02463325
4586.00   1.78543508   0.02495355
4588.00   1.74153316   0.02469530
4590.00   1.85611808   0.02524124
4592.00   1.83680892   0.02516264
4594.00   1.83004749   0.02513697
4596.00   1.91069210   0.02563489
4598.00   1.94761431   0.02574359
4600.00   1.94133365   0.02558795
4602.00   1.95032811   0.02567598
4604.00   2.00540137   0.02594505
4606.00   1.98079813   0.02583053
4608.00   1.97121370   0.02581719
4610.00   1.95453155   0.02572777
4612.00   2.01985908   0.02604730
4614.00   2.01430821   0.02604730
4616.00   2.05032945   0.02614689
4618.00   2.06315565   0.02627329
4620.00   2.08532143   0.02635264
4622.00   2.08265209   0.02628618
4624.00   2.14772010   0.02661044
4626.00   2.21113729   0.02694964
4628.00   2.21801662   0.02696840
4630.00   2.16460514   0.02665271
4632.00   2.22835398   0.02700198
4634.00   2.17326283   0.02672249
4636.00   2.20643449   0.02682532
4638.00   2.18412638   0.02673478
4640.00   2.19343448   0.02680210
4642.00   2.19198179   0.02672397
4644.00   2.21897960   0.02684416
4646.00   2.29537487   0.02726436
4648.00   2.23693609   0.02694895
4650.00   2.23119736   0.02690127
4652.00   2.16473699   0.02659002
4654.00   2.25054669   0.02696607
4656.00   2.21747828   0.02686041
4658.00   2.20324254   0.02686659
4660.00   2.20211244   0.02690053
4662.00   2.17506647   0.02670264
4664.00   2.15278769   0.02679043
4666.00   2.17101455   0.02692125
4668.00   2.13830543   0.02681869
4670.00   2.16948009   0.02689679
4672.00   2.21309209   0.02710727
4674.00   2.28805161   0.02727477
4676.00   2.19228745   0.02677259
4678.00   2.17533660   0.02659798
4680.00   2.17050982   0.02651525
4682.00   2.17495322   0.02647945
4684.00   2.19968557   0.02655532
4686.00   2.18413997   0.02644847
4688.00   2.19390392   0.02647384
4690.00   2.19082546   0.02644743
4692.00   2.17468762   0.02632172
4694.00   2.23097444   0.02651072
4696.00   2.17438602   0.02626903
4698.00   2.17744470   0.02620690
4700.00   2.21031427   0.02637158
4702.00   2.21412420   0.02643069
4704.00   2.16982698   0.02616709
4706.00   2.15167904   0.02629228
4708.00   2.14360547   0.02608248
4710.00   2.12477779   0.02598394
4712.00   2.10046864   0.02581311
4714.00   2.08329654   0.02557264
4716.00   2.03797245   0.02533235
4718.00   2.05563664   0.02540215
4720.00   2.05754399   0.02538716
4722.00   2.00827217   0.02513862
4724.00   1.97261739   0.02491062
4726.00   1.94667029   0.02492527
4728.00   1.95746195   0.02525580
4730.00   1.88584709   0.02486815
4732.00   1.92424774   0.02496409
4734.00   1.90836143   0.02500354
4736.00   1.82714546   0.02471593
4738.00   1.81769192   0.02473492
4740.00   1.82372820   0.02484208
4742.00   1.77111983   0.02463320
4744.00   1.73222506   0.02413925
4746.00   1.72022533   0.02357282
4748.00   1.66007257   0.02305797
4750.00   1.66496766   0.02322981
4752.00   1.66688395   0.02328830
4754.00   1.66522169   0.02311224
4756.00   1.60134554   0.02258274
4758.00   1.57949483   0.02236045
4760.00   1.57705581   0.02227290
4762.00   1.50822425   0.02181537
4764.00   1.52147019   0.02185143
4766.00   1.55604744   0.02204213
4768.00   1.48960781   0.02165106
4770.00   1.50760746   0.02170190
4772.00   1.49050415   0.02160220
4774.00   1.48520160   0.02156216
4776.00   1.50204432   0.02171511
4778.00   1.51905465   0.02190402
4780.00   1.49230754   0.02171622
4782.00   1.48967600   0.02157066
4784.00   1.47372234   0.02132794
4786.00   1.51418543   0.02155243
4788.00   1.49975336   0.02151668
4790.00   1.49035954   0.02147541
4792.00   1.47734952   0.02137371
4794.00   1.48420441   0.02133331
4796.00   1.50374782   0.02134576
4798.00   1.45680380   0.02119667
4800.00   1.47976065   0.02125650
4802.00   1.46914172   0.02108331
4804.00   1.45992136   0.02105852
4806.00   1.45105791   0.02099153
4808.00   1.43471444   0.02094490
4810.00   1.44809115   0.02098076
4812.00   1.40993154   0.02077939
4814.00   1.38092721   0.02059091
4816.00   1.38965201   0.02065995
4818.00   1.36029458   0.02051044
4820.00   1.36042440   0.02049657
4822.00   1.36576784   0.02052670
4824.00   1.33774459   0.02036294
4826.00   1.33658218   0.02043539
4828.00   1.33609164   0.02040280
4830.00   1.34707737   0.02038896
4832.00   1.33362627   0.02035621
4834.00   1.33353508   0.02033775
4836.00   1.27524054   0.01997676
4838.00   1.28188276   0.02007686
4840.00   1.29718292   0.02017323
4842.00   1.27485836   0.01987137
4844.00   1.24365675   0.01964882
4846.00   1.21563303   0.01947423
4848.00   1.28390050   0.01988659
4850.00   1.28661728   0.01996572
4852.00   1.30968630   0.02004367
4854.00   1.28193033   0.01982964
4856.00   1.27313399   0.01968979
4858.00   1.26467204   0.01968837
4860.00   1.27040255   0.01980513
4862.00   1.31363869   0.02005360
4864.00   1.32675064   0.02008958
4866.00   1.33537543   0.02007303
4868.00   1.34686482   0.02009771
4870.00   1.31845009   0.01995252
4872.00   1.35377824   0.02018948
4874.00   1.37411952   0.02029871
4876.00   1.39175010   0.02040067
4878.00   1.36003482   0.02022432
4880.00   1.36917400   0.02040028
4882.00   1.37378979   0.02027977
4884.00   1.37570989   0.02018168
4886.00   1.37735856   0.02016588
4888.00   1.40747690   0.02027580
4890.00   1.35800815   0.01994800
4892.00   1.39626348   0.02016396
4894.00   1.38607550   0.02017311
4896.00   1.34998274   0.01998630
4898.00   1.41605067   0.02036477
4900.00   1.43917191   0.02043848
4902.00   1.45306659   0.02043851
4904.00   1.39588070   0.02016290
4906.00   1.38533187   0.02015329
4908.00   1.37140560   0.02002248
4910.00   1.36083972   0.01994146
4912.00   1.32637429   0.01976612
4914.00   1.34162593   0.01970823
4916.00   1.36769950   0.01994644
4918.00   1.34482193   0.01975719
4920.00   1.29651296   0.01950284
4922.00   1.28424120   0.01935499
4924.00   1.31351554   0.01949189
4926.00   1.30282354   0.01930630
4928.00   1.26137626   0.01908211
4930.00   1.28026557   0.01916713
4932.00   1.24533761   0.01897904
4934.00   1.21892095   0.01878685
4936.00   1.20193374   0.01868920
4938.00   1.19842088   0.01869890
4940.00   1.17113829   0.01846437
4942.00   1.14759290   0.01832704
4944.00   1.11597645   0.01810606
4946.00   1.14122164   0.01824979
4948.00   1.12438333   0.01806277
4950.00   1.10669363   0.01804997
4952.00   1.09487844   0.01807313
4954.00   1.08863497   0.01805316
4956.00   1.09937537   0.01805477
4958.00   1.11364067   0.01814756
4960.00   1.09628522   0.01805345
4962.00   1.03739631   0.01773913
4964.00   1.08866596   0.01805094
4966.00   1.10765135   0.01823254
4968.00   1.14135206   0.01846764
4970.00   1.11058390   0.01842775
4972.00   1.11748934   0.01859571
4974.00   1.12943411   0.01893925
4976.00   1.15346754   0.01909075
4978.00   1.15136898   0.01950827
4980.00   1.17388773   0.02002561
4982.00   1.17104650   0.02005724
4984.00   1.17195332   0.02012876
4986.00   1.21889830   0.02007626
4988.00   1.20872295   0.01977118
4990.00   1.17540538   0.01941435
4992.00   1.23291647   0.01956804
4994.00   1.23048496   0.01934829
4996.00   1.24400437   0.01930651
4998.00   1.28694165   0.01934404
5000.00   1.29730797   0.01934026
5002.00   1.28550518   0.01930710
5004.00   1.29738665   0.01924185
5006.00   1.34062254   0.01949352
5008.00   1.30481637   0.01928571
5010.00   1.31601870   0.01930309
5012.00   1.39175940   0.01975128
5014.00   1.37107992   0.01960487
5016.00   1.38003135   0.01971847
5018.00   1.38449109   0.01975531
5020.00   1.37910163   0.01975181
5022.00   1.39030004   0.01980284
5024.00   1.41130352   0.01984493
5026.00   1.38706434   0.01977923
5028.00   1.40235317   0.01991417
5030.00   1.34587526   0.01957222
5032.00   1.33948159   0.01958371
5034.00   1.34561121   0.01958553
5036.00   1.35276020   0.01950069
5038.00   1.32528985   0.01926552
5040.00   1.33684790   0.01933952
5042.00   1.29798579   0.01924237
5044.00   1.30261338   0.01925930
5046.00   1.24601066   0.01899940
5048.00   1.22912514   0.01881015
5050.00   1.28450179   0.01917125
5052.00   1.26638126   0.01905942
5054.00   1.28428996   0.01916496
5056.00   1.25254750   0.01896852
5058.00   1.24513066   0.01895465
5060.00   1.26857555   0.01909964
5062.00   1.28225923   0.01929034
5064.00   1.27442622   0.01938944
5066.00   1.20737898   0.01893369
5068.00   1.25437582   0.01941654
5070.00   1.18913829   0.01906790
5072.00   1.24480271   0.01930616
5074.00   1.21910965   0.01904611
5076.00   1.20354009   0.01893611
5078.00   1.19195426   0.01896523
5080.00   1.21466136   0.01960423
5082.00   1.19507408   0.02005833
5084.00   1.19621134   0.02036170
5086.00   1.17033982   0.02005886
5088.00   1.18425453   0.01986244
5090.00   1.19711828   0.01940506
5092.00   1.18768859   0.01905040
5094.00   1.13283682   0.01864140
5096.00   1.14727187   0.01883210
5098.00   1.13147151   0.01888711
5100.00   1.16681325   0.01914504
5102.00   1.18581736   0.01911350
5104.00   1.18835473   0.01889294
5106.00   1.18223274   0.01878733
5108.00   1.16703904   0.01873965
5110.00   1.17008865   0.01875092
5112.00   1.22605014   0.01911207
5114.00   1.16234243   0.01894098
5116.00   1.20982134   0.01921389
5118.00   1.19921422   0.01906360
5120.00   1.17549562   0.01888580
5122.00   1.20291305   0.01903373
5124.00   1.21830010   0.01902067
5126.00   1.25078225   0.01932073
5128.00   1.24943364   0.01940504
5130.00   1.20885062   0.01911340
5132.00   1.24479556   0.01935757
5134.00   1.25929773   0.01947145
5136.00   1.25433946   0.01940886
5138.00   1.26999521   0.01954723
5140.00   1.25042617   0.01950439
5142.00   1.18285012   0.01920007
5144.00   1.22745407   0.01940475
5146.00   1.26208508   0.01974630
5148.00   1.26152384   0.01992719
5150.00   1.26065779   0.01994994
5152.00   1.25135303   0.02011450
5154.00   1.28978777   0.02039804
5156.00   1.23969460   0.02010889
5158.00   1.24408507   0.01980099
5160.00   1.28722692   0.02008552
5162.00   1.29348898   0.02002384
5164.00   1.28197062   0.01984684
5166.00   1.29148197   0.01997165
5168.00   1.24775958   0.01971631
5170.00   1.32980144   0.02022887
5172.00   1.29125607   0.02002662
5174.00   1.27696836   0.01997908
5176.00   1.24112141   0.01983668
5178.00   1.30334592   0.02021098
5180.00   1.28987658   0.02010249
5182.00   1.29914594   0.02022607
5184.00   1.31413138   0.02027203
5186.00   1.29204524   0.02022570
5188.00   1.33225882   0.02052124
5190.00   1.26698053   0.02015259
5192.00   1.33205914   0.02059885
5194.00   1.31114769   0.02046356
5196.00   1.34253025   0.02073495
5198.00   1.35141909   0.02090150
5200.00   1.34754050   0.02099566
5202.00   1.38095999   0.02119320
5204.00   1.35053134   0.02097122
5206.00   1.36336553   0.02104421
5208.00   1.37923777   0.02124485
5210.00   1.38270485   0.02134348
5212.00   1.37802148   0.02141396
5214.00   1.40411842   0.02148700
5216.00   1.38223660   0.02138762
5218.00   1.39420807   0.02162334
5220.00   1.38931358   0.02166030
5222.00   1.39516425   0.02163267
5224.00   1.39187562   0.02168759
5226.00   1.45081091   0.02201180
5228.00   1.46305299   0.02199798
5230.00   1.47735429   0.02227677
5232.00   1.46449649   0.02224500
5234.00   1.46734512   0.02222008
5236.00   1.47390485   0.02238374
5238.00   1.46928287   0.02242026
5240.00   1.47343481   0.02258434
5242.00   1.46606088   0.02247935
5244.00   1.54155290   0.02282609
5246.00   1.59878981   0.02327805
5248.00   1.58439863   0.02317823
5250.00   1.55901539   0.02310671
5252.00   1.52869368   0.02299826
5254.00   1.52789378   0.02303652
5256.00   1.53819895   0.02315621
5258.00   1.56088829   0.02340060
5260.00   1.53202820   0.02326640
5262.00   1.58674693   0.02351363
5264.00   1.64112651   0.02387001
5266.00   1.57835340   0.02349624
5268.00   1.58500803   0.02364090
5270.00   1.57383895   0.02356797
5272.00   1.58445334   0.02369079
5274.00   1.59438276   0.02377199
5276.00   1.56136358   0.02376037
5278.00   1.63947511   0.02419911
5280.00   1.60472047   0.02404931
5282.00   1.61976278   0.02425901
5284.00   1.62840462   0.02439953
5286.00   1.65328968   0.02468962
5288.00   1.64270556   0.02468109
5290.00   1.62073171   0.02451267
5292.00   1.66034186   0.02473352
5294.00   1.68010807   0.02493750
5296.00   1.73447323   0.02526307
5298.00   1.70827866   0.02521257
5300.00   1.71452498   0.02536476
5302.00   1.71568775   0.02547065
5304.00   1.75436056   0.02578657
5306.00   1.74570000   0.02585769
5308.00   1.78472757   0.02607084
5310.00   1.77281404   0.02613821
5312.00   1.75595427   0.02607507
5314.00   1.82236826   0.02653859
5316.00   1.84919012   0.02665881
5318.00   1.81913936   0.02657074
5320.00   1.88512981   0.02707660
5322.00   1.87622523   0.02711837
5324.00   1.85362685   0.02701834
5326.00   1.90395904   0.02744677
5328.00   1.87859070   0.02732587
5330.00   1.86589587   0.02746406
5332.00   1.86571395   0.02754463
5334.00   1.90997124   0.02774666
5336.00   1.89599025   0.02769656
5338.00   1.85157382   0.02769344
5340.00   1.83853376   0.02777804
5342.00   1.91569054   0.02835479
5344.00   1.85813868   0.02795473
5346.00   1.84349394   0.02803512
5348.00   1.79241705   0.02803667
5350.00   1.77531695   0.02801400
5352.00   1.74274838   0.02766175
5354.00   1.75030589   0.02783746
5356.00   1.71717715   0.02777312
5358.00   1.78667665   0.02813899
5360.00   1.71310842   0.02756130
5362.00   1.66752911   0.02720384
5364.00   1.60463357   0.02685977
5366.00   1.63362253   0.02716958
5368.00   1.66077602   0.02737121
5370.00   1.58386910   0.02701405
5372.00   1.59206903   0.02717550
5374.00   1.60626256   0.02747166
5376.00   1.52214086   0.02707343
5378.00   1.52900851   0.02732727
5380.00   1.54053676   0.02731916
5382.00   1.50091302   0.02706227
5384.00   1.53021443   0.02710900
5386.00   1.48863029   0.02706576
5388.00   1.44907212   0.02691144
5390.00   1.49634910   0.02743408
5392.00   1.46175849   0.02737850
5394.00   1.44992113   0.02743703
5396.00   1.45667386   0.02748264
5398.00   1.42826724   0.02738309
5400.00   1.38964796   0.02718084
5402.00   1.38562405   0.02725863
5404.00   1.40186679   0.02744794
5406.00   1.41349864   0.01024817
5408.00   1.42490852   0.01047614
5410.00   1.43077183   0.01075062
5412.00   1.41260183   0.01084477
5414.00   1.37273169   0.01087013
5416.00   1.37100720   0.01078144
5418.00   1.41070056   0.01025737
5420.00   1.41904175   0.01034798
5422.00   1.39359927   0.01102898
5424.00   1.37201118   0.01182337
5426.00   1.37625337   0.01268520
5428.00   1.39430833   0.01359834
5430.00   1.41129851   0.01352348
5432.00   1.44800985   0.01193892
5434.00   1.45280325   0.01175502
5436.00   1.41999221   0.01308549
5438.00   1.40060556   0.01364888
5440.00   1.42026889   0.01252797
5442.00   1.45294321   0.01046763
5444.00   1.44544113   0.00973772
5446.00   1.39904940   0.00999755
5448.00   1.38629627   0.01002659
5450.00   1.39574862   0.01019100
5452.00   1.39743328   0.01049650
5454.00   1.38257647   0.01104979
5456.00   1.36704433   0.01160766
5458.00   1.37159371   0.01183293
5460.00   1.39154363   0.01188956
5462.00   1.40489697   0.01175702
5464.00   1.42332351   0.01125889
5466.00   1.43256569   0.01091706
5468.00   1.42963207   0.01061972
5470.00   1.42447412   0.01052358
5472.00   1.42636621   0.01091260
5474.00   1.43188977   0.01168929
5476.00   1.42909062   0.01190863
5478.00   1.41789520   0.01193991
5480.00   1.41131103   0.01168526
5482.00   1.40967369   0.01090505
5484.00   1.40570116   0.01014498
5486.00   1.39485455   0.00971063
5488.00   1.38001931   0.00948944
5490.00   1.36844814   0.00980173
5492.00   1.35473466   0.01110231
5494.00   1.34835255   0.01131818
5496.00   1.34419668   0.01069565
5498.00   1.34899235   0.01022462
5500.00   1.37059557   0.01020043
5502.00   1.39820719   0.01040302
5504.00   1.40526199   0.01079976
5506.00   1.40360451   0.01175908
5508.00   1.38631797   0.01168256
5510.00   1.33510900   0.01038547
5512.00   1.30919659   0.00973360
5514.00   1.32413173   0.01036740
5516.00   1.34735823   0.01114986
5518.00   1.33986390   0.01092905
5520.00   1.31222510   0.00996075
5522.00   1.30249023   0.00963957
5524.00   1.30615652   0.00975860
5526.00   1.29957366   0.00967796
5528.00   1.27901208   0.00930858
5530.00   1.25990641   0.00902349
5532.00   1.25706625   0.00915941
5534.00   1.26504457   0.00956909
5536.00   1.24992919   0.00986242
5538.00   1.20461380   0.01045768
5540.00   1.18918252   0.01042418
5542.00   1.20339215   0.00963274
5544.00   1.21452796   0.00885694
5546.00   1.20695257   0.00854390
5548.00   1.19103873   0.00847694
5550.00   1.18003011   0.00853598
5552.00   1.16290224   0.00879734
5554.00   1.16078281   0.00913328
5556.00   1.17959952   0.00989149
5558.00   1.18592799   0.01016171
5560.00   1.16848671   0.00952432
5562.00   1.14132392   0.00851805
5564.00   1.12378168   0.00846659
5566.00   1.10636556   0.00914650
5568.00   1.09777069   0.00939220
5570.00   1.10071135   0.00939679
5572.00   1.09930599   0.00967664
5574.00   1.09140241   0.01033289
5576.00   1.08283794   0.01102783
5578.00   1.08033836   0.01154162
5580.00   1.08389640   0.01209649
5582.00   1.07163525   0.01188593
5584.00   1.04154146   0.01065850
5586.00   1.02194774   0.00985032
5588.00   1.00907123   0.00949210
5590.00   1.00184977   0.00918546
5592.00   1.00209701   0.00861978
5594.00   1.00915623   0.00790338
5596.00   1.01238918   0.00759551
5598.00   1.01446378   0.00752058
5600.00   1.01859677   0.00776879
5602.00   1.02304506   0.00859966
5604.00   1.03036177   0.00915980
5606.00   1.04238534   0.00916713
5608.00   1.05745840   0.00888712
5610.00   1.07103741   0.00866013
5612.00   1.08723247   0.00819986
5614.00   1.09736037   0.00804800
5616.00   1.09905052   0.00818238
5618.00   1.10618687   0.00824746
5620.00   1.12374318   0.00806636
5622.00   1.14429259   0.00791494
5624.00   1.15668106   0.00832141
5626.00   1.16301703   0.00931302
5628.00   1.17479908   0.00945096
5630.00   1.18636990   0.00874795
5632.00   1.20390046   0.00858952
5634.00   1.23363137   0.00931499
5636.00   1.26139474   0.00998213
5638.00   1.27045834   0.00979420
5640.00   1.26609170   0.00898705
5642.00   1.26826513   0.00861387
5644.00   1.26462257   0.00831805
5646.00   1.27340043   0.00819518
5648.00   1.29870522   0.00827491
5650.00   1.32311714   0.00846583
5652.00   1.33629847   0.00878545
5654.00   1.34369624   0.00920618
5656.00   1.34647954   0.00920730
5658.00   1.34012222   0.00874633
5660.00   1.33822346   0.00856959
5662.00   1.33635128   0.00851383
5664.00   1.33710158   0.00853171
5666.00   1.34200716   0.00862014
5668.00   1.34957981   0.00877356
5670.00   1.35685039   0.00895559
5672.00   1.36867452   0.00929575
5674.00   1.37090588   0.00934290
5676.00   1.36225772   0.00898478
5678.00   1.35849392   0.00893539
5680.00   1.36460674   0.00929811
5682.00   1.37205267   0.00988689
5684.00   1.36833835   0.01068443
5686.00   1.35329497   0.01197545
5688.00   1.35554469   0.01193803
5690.00   1.37282920   0.01047140
5692.00   1.38469577   0.00955434
5694.00   1.39518738   0.00939361
5696.00   1.39967036   0.00943792
5698.00   1.38874316   0.00929588
5700.00   1.36383295   0.00913583
5702.00   1.35866833   0.00907938
5704.00   1.36549187   0.00920337
5706.00   1.37329292   0.00914082
5708.00   1.39111340   0.00884911
5710.00   1.40181231   0.00859175
5712.00   1.39262843   0.00855275
5714.00   1.37133276   0.00862986
5716.00   1.35996556   0.00858360
5718.00   1.34961617   0.00834309
5720.00   1.34402728   0.00842384
5722.00   1.34266341   0.00873251
5724.00   1.34423852   0.00911854
5726.00   1.35055113   0.00968784
5728.00   1.35873616   0.01023291
5730.00   1.35945249   0.01014234
5732.00   1.35691369   0.00937256
5734.00   1.34845126   0.00901604
5736.00   1.32983911   0.00879328
5738.00   1.31561458   0.00859754
5740.00   1.30917346   0.00836826
5742.00   1.30378747   0.00822804
5744.00   1.29181159   0.00835860
5746.00   1.27588570   0.00870739
5748.00   1.25940764   0.00907650
5750.00   1.23369944   0.00984720
5752.00   1.22197986   0.01000086
5754.00   1.22754967   0.00940618
5756.00   1.23672712   0.00863090
5758.00   1.23941410   0.00818777
5760.00   1.24047303   0.00785871
5762.00   1.23911631   0.00774355
5764.00   1.24038804   0.00784147
5766.00   1.22891331   0.00808909
5768.00   1.19338131   0.00855833
5770.00   1.17051375   0.00904146
5772.00   1.18496239   0.00958420
5774.00   1.21932518   0.01010641
5776.00   1.22547853   0.00989724
5778.00   1.21244943   0.00851894
5780.00   1.20802319   0.00814832
5782.00   1.20817018   0.00860346
5784.00   1.20209897   0.00886022
5786.00   1.18306959   0.00866133
5788.00   1.16022837   0.00829318
5790.00   1.15239525   0.00807869
5792.00   1.15607762   0.00788252
5794.00   1.15473616   0.00776862
5796.00   1.15378678   0.00769479
5798.00   1.15225220   0.00774009
5800.00   1.15094662   0.00802981
5802.00   1.14829564   0.00829146
5804.00   1.14130569   0.00814920
5806.00   1.12972033   0.00763259
5808.00   1.12439728   0.00760022
5810.00   1.12524998   0.00802981
5812.00   1.12169552   0.00814457
5814.00   1.11274934   0.00787195
5816.00   1.10417092   0.00764904
5818.00   1.10144413   0.00788989
5820.00   1.10236418   0.00839917
5822.00   1.09227085   0.00836332
5824.00   1.07033551   0.00780950
5826.00   1.05553663   0.00754024
5828.00   1.04492390   0.00742895
5830.00   1.03490078   0.00736792
5832.00   1.02500606   0.00734086
5834.00   1.01515293   0.00735000
5836.00   1.00110424   0.00729323
5838.00   0.97595352   0.00712347
5840.00   0.96908456   0.00713028
5842.00   0.98577660   0.00736081
5844.00   0.98707432   0.00744207
5846.00   0.95903051   0.00723725
5848.00   0.92119431   0.00693604
5850.00   0.90246731   0.00686822
5852.00   0.89345586   0.00695832
5854.00   0.88450217   0.00697771
5856.00   0.87970477   0.00698145
5858.00   0.87580550   0.00701687
5860.00   0.87211913   0.00706737
5862.00   0.87048703   0.00716029
5864.00   0.87485123   0.00737706
5866.00   0.88684523   0.00773996
5868.00   0.87821168   0.00768050
5870.00   0.84412360   0.00715016
5872.00   0.82861584   0.00685285
5874.00   0.83151209   0.00672303
5876.00   0.83615798   0.00669453
5878.00   0.83371472   0.00672276
5880.00   0.82877475   0.00682891
5882.00   0.81825149   0.00720267
5884.00   0.79725295   0.00778332
5886.00   0.78537601   0.00841183
5888.00   0.77646863   0.00925207
5890.00   0.77398449   0.00990056
5892.00   0.77991629   0.01032364
5894.00   0.79249120   0.01056783
5896.00   0.80834633   0.01041396
5898.00   0.83331198   0.00976329
5900.00   0.85050678   0.00920522
5902.00   0.86188745   0.00838106
5904.00   0.87621963   0.00771630
5906.00   0.89819276   0.00736950
5908.00   0.91989106   0.00721066
5910.00   0.92777026   0.00707430
5912.00   0.92232060   0.00705944
5914.00   0.92951179   0.00704240
5916.00   0.94452333   0.00706614
5918.00   0.95733005   0.00711970
5920.00   0.96685016   0.00724638
5922.00   0.97727031   0.00735126
5924.00   0.99218631   0.00727362
5926.00   1.01022577   0.00700864
5928.00   1.02864909   0.00733418
5930.00   1.04913497   0.00838801
5932.00   1.06923747   0.00873356
5934.00   1.09090579   0.00848716
5936.00   1.11046422   0.00815606
5938.00   1.12633681   0.00801310
5940.00   1.13929439   0.00791650
5942.00   1.14524567   0.00785475
5944.00   1.13637936   0.00791971
5946.00   1.14342344   0.00782462
5948.00   1.16344869   0.00741124
5950.00   1.18259346   0.00728808
5952.00   1.19672811   0.00785586
5954.00   1.20918667   0.00860553
5956.00   1.22174656   0.00861667
5958.00   1.23344147   0.00785160
5960.00   1.24543118   0.00789517
5962.00   1.25984347   0.00865852
5964.00   1.26956546   0.00898542
5966.00   1.27210617   0.00864439
5968.00   1.27211797   0.00812779
5970.00   1.27597415   0.00813935
5972.00   1.28222537   0.00854891
5974.00   1.28395259   0.00846679
5976.00   1.27632141   0.00796013
5978.00   1.28072965   0.00764995
5980.00   1.30700648   0.00756130
5982.00   1.32795405   0.00753374
5984.00   1.31719482   0.00741085
5986.00   1.28468835   0.00722415
5988.00   1.26469564   0.00753179
5990.00   1.23617184   0.00861434
5992.00   1.22974432   0.00881490
5994.00   1.24892581   0.00817068
5996.00   1.26938307   0.00749518
5998.00   1.27920902   0.00731422
6000.00   1.28538847   0.00735899
6002.00   1.29130018   0.00729030
6004.00   1.30054772   0.00720942
6006.00   1.29698837   0.00718318
6008.00   1.27788544   0.00704919
6010.00   1.26300645   0.00720048
6012.00   1.25911069   0.00788901
6014.00   1.25892329   0.00867886
6016.00   1.25224030   0.00888049
6018.00   1.23837757   0.00878427
6020.00   1.23676753   0.00848092
6022.00   1.24691653   0.00759984
6024.00   1.25295877   0.00698843
6026.00   1.25216901   0.00686531
6028.00   1.25066066   0.00693613
6030.00   1.25532544   0.00691409
6032.00   1.26554322   0.00692252
6034.00   1.26601243   0.00695098
6036.00   1.26026309   0.00692781
6038.00   1.25257003   0.00708250
6040.00   1.24057817   0.00752922
6042.00   1.22841430   0.00789266
6044.00   1.21906340   0.00791755
6046.00   1.21085596   0.00773575
6048.00   1.20850277   0.00750828
6050.00   1.21456683   0.00697537
6052.00   1.21556604   0.00674983
6054.00   1.21406770   0.00684264
6056.00   1.21114790   0.00693486
6058.00   1.20631838   0.00688073
6060.00   1.20022261   0.00677900
6062.00   1.19724727   0.00676102
6064.00   1.19778502   0.00679194
6066.00   1.19509256   0.00683035
6068.00   1.19177890   0.00688013
6070.00   1.18613493   0.00696287
6072.00   1.17514348   0.00712327
6074.00   1.16359210   0.00728512
6076.00   1.16257203   0.00727356
6078.00   1.17231035   0.00702636
6080.00   1.17189121   0.00714400
6082.00   1.16410792   0.00775656
6084.00   1.15980303   0.00789118
6086.00   1.16095531   0.00733568
6088.00   1.16238105   0.00660079
6090.00   1.15878153   0.00639871
6092.00   1.15186620   0.00653201
6094.00   1.14631176   0.00650045
6096.00   1.13685215   0.00638439
6098.00   1.13516009   0.00644053
6100.00   1.14350140   0.00670600
6102.00   1.15227139   0.00697986
6104.00   1.15614128   0.00717988
6106.00   1.15794110   0.00735713
6108.00   1.15106177   0.00728193
6110.00   1.12819123   0.00682160
6112.00   1.12071657   0.00664212
6114.00   1.12434840   0.00662864
6116.00   1.13064802   0.00669863
6118.00   1.13955402   0.00687391
6120.00   1.14958012   0.00710522
6122.00   1.14647496   0.00714964
6124.00   1.13014734   0.00705905
6126.00   1.11980593   0.00698239
6128.00   1.11129141   0.00675753
6130.00   1.10018885   0.00671002
6132.00   1.08402693   0.00702678
6134.00   1.06680691   0.00738897
6136.00   1.05482996   0.00731900
6138.00   1.04418683   0.00690298
6140.00   1.04180157   0.00665627
6142.00   1.05108464   0.00635784
6144.00   1.05536902   0.00619067
6146.00   1.05668795   0.00621841
6148.00   1.05336094   0.00629920
6150.00   1.04115272   0.00629646
6152.00   1.02114296   0.00626860
6154.00   1.00113273   0.00624479
6156.00   0.97315615   0.00619235
6158.00   0.95423120   0.00618372
6160.00   0.94574755   0.00625899
6162.00   0.93712342   0.00629018
6164.00   0.92256933   0.00612964
6166.00   0.90515965   0.00585081
6168.00   0.88453472   0.00601542
6170.00   0.85820788   0.00676812
6172.00   0.83482170   0.00689693
6174.00   0.81364900   0.00660487
6176.00   0.79071760   0.00623325
6178.00   0.76312220   0.00582862
6180.00   0.73408121   0.00537628
6182.00   0.71221966   0.00518743
6184.00   0.69872338   0.00529109
6186.00   0.67669559   0.00524019
6188.00   0.64684194   0.00509931
6190.00   0.62167937   0.00506643
6192.00   0.60204756   0.00524637
6194.00   0.58676511   0.00544503
6196.00   0.57761323   0.00539196
6198.00   0.57667172   0.00514314
6200.00   0.56832659   0.00499158
6202.00   0.55658221   0.00481397
6204.00   0.54426432   0.00470502
6206.00   0.52970159   0.00468329
6208.00   0.51596713   0.00469875
6210.00   0.50697505   0.00472147
6212.00   0.50156116   0.00477455
6214.00   0.49170867   0.00473983
6216.00   0.47665802   0.00460875
6218.00   0.46735585   0.00452868
6220.00   0.46390435   0.00443662
6222.00   0.46075618   0.00442161
6224.00   0.45424911   0.00458820
6226.00   0.44668558   0.00485129
6228.00   0.44474894   0.00486923
6230.00   0.44893965   0.00466199
6232.00   0.44966429   0.00458009
6234.00   0.44966021   0.00445653
6236.00   0.44863075   0.00448958
6238.00   0.44608575   0.00477997
6240.00   0.44269133   0.00517463
6242.00   0.44016993   0.00545398
6244.00   0.43786943   0.00585819
6246.00   0.43576789   0.00578224
6248.00   0.43443817   0.00512588
6250.00   0.43224168   0.00462967
6252.00   0.42750028   0.00444546
6254.00   0.42351934   0.00440534
6256.00   0.42539576   0.00438062
6258.00   0.43222836   0.00441572
6260.00   0.43622890   0.00458319
6262.00   0.43821082   0.00505214
6264.00   0.44331735   0.00518044
6266.00   0.45346192   0.00492185
6268.00   0.46285033   0.00458940
6270.00   0.46654743   0.00445435
6272.00   0.46669999   0.00440441
6274.00   0.46730581   0.00437276
6276.00   0.46430734   0.00440593
6278.00   0.46643323   0.00443144
6280.00   0.47262734   0.00446230
6282.00   0.48082793   0.00450435
6284.00   0.49022412   0.00452427
6286.00   0.50130612   0.00455583
6288.00   0.51420408   0.00479839
6290.00   0.53618175   0.00531433
6292.00   0.54254431   0.00555551
6294.00   0.53017479   0.00570025
6296.00   0.52732307   0.00575681
6298.00   0.54280031   0.00562912
6300.00   0.56632614   0.00547158
6302.00   0.58522671   0.00572890
6304.00   0.60671097   0.00648054
6306.00   0.62072200   0.00645337
6308.00   0.62608844   0.00570240
6310.00   0.63533443   0.00516765
6312.00   0.65127003   0.00500888
6314.00   0.66720253   0.00499286
6316.00   0.67561674   0.00494895
6318.00   0.67848921   0.00496209
6320.00   0.68501568   0.00496158
6322.00   0.69077146   0.00496236
6324.00   0.70024872   0.00498910
6326.00   0.71335781   0.00505819
6328.00   0.72878289   0.00512120
6330.00   0.74717581   0.00513176
6332.00   0.76855952   0.00511027
6334.00   0.78113520   0.00517291
6336.00   0.78257734   0.00516602
6338.00   0.79363519   0.00545153
6340.00   0.81387365   0.00615828
6342.00   0.83193201   0.00660668
6344.00   0.84299117   0.00657830
6346.00   0.85047197   0.00628335
6348.00   0.85803783   0.00601266
6350.00   0.86243933   0.00542604
6352.00   0.87038755   0.00527994
6354.00   0.88285154   0.00537970
6356.00   0.89155602   0.00570876
6358.00   0.89238024   0.00640006
6360.00   0.89160401   0.00709740
6362.00   0.89973056   0.00727291
6364.00   0.91300070   0.00713124
6366.00   0.92942005   0.00694415
6368.00   0.95326310   0.00644832
6370.00   0.97366506   0.00611649
6372.00   0.99244845   0.00598925
6374.00   1.00725377   0.00597849
6376.00   1.01256478   0.00605147
6378.00   1.00858474   0.00624673
6380.00   1.01487374   0.00632502
6382.00   1.02923203   0.00637376
6384.00   1.03844976   0.00637188
6386.00   1.04282093   0.00632597
6388.00   1.04692054   0.00622781
6390.00   1.05322957   0.00603857
6392.00   1.06045437   0.00576864
6394.00   1.06830955   0.00566120
6396.00   1.07831454   0.00561663
6398.00   1.08579040   0.00570985
6400.00   1.09352338   0.00593145
6402.00   1.09725499   0.00623116
6404.00   1.09249318   0.00670514
6406.00   1.08424962   0.00718525
6408.00   1.08800256   0.00713686
6410.00   1.10226870   0.00649825
6412.00   1.11110055   0.00623697
6414.00   1.11938190   0.00613056
6416.00   1.12683856   0.00603573
6418.00   1.13351297   0.00592915
6420.00   1.13931406   0.00584651
6422.00   1.14403522   0.00581630
6424.00   1.14789140   0.00584256
6426.00   1.15018559   0.00584911
6428.00   1.15003836   0.00586115
6430.00   1.15075946   0.00587493
6432.00   1.15262938   0.00590032
6434.00   1.15438867   0.00591642
6436.00   1.15539646   0.00589703
6438.00   1.15627277   0.00584878
6440.00   1.15342546   0.00582806
6442.00   1.14440536   0.00581907
6444.00   1.14077103   0.00581306
6446.00   1.14027548   0.00580469
6448.00   1.14313018   0.00581121
6450.00   1.15150273   0.00584861
6452.00   1.16389084   0.00590643
6454.00   1.16828883   0.00593884
6456.00   1.16438961   0.00596889
6458.00   1.16729927   0.00597450
6460.00   1.17745483   0.00594802
6462.00   1.18284333   0.00592599
6464.00   1.17873156   0.00592481
6466.00   1.16978836   0.00592763
6468.00   1.16299164   0.00590219
6470.00   1.15415895   0.00582529
6472.00   1.14941406   0.00583676
6474.00   1.14901161   0.00593632
6476.00   1.14687312   0.00600113
6478.00   1.13963795   0.00601925
6480.00   1.13373971   0.00601632
6482.00   1.13949180   0.00600223
6484.00   1.15686774   0.00595792
6486.00   1.16043437   0.00597176
6488.00   1.15543520   0.00609164
6490.00   1.15057743   0.00608462
6492.00   1.14059043   0.00581731
6494.00   1.13511348   0.00563943
6496.00   1.14610457   0.00590317
6498.00   1.16977441   0.00643226
6500.00   1.17782879   0.00688345
6502.00   1.18025386   0.00766131
6504.00   1.17551446   0.00780600
6506.00   1.15647340   0.00733691
6508.00   1.14186990   0.00674692
6510.00   1.14372635   0.00621061
6512.00   1.15401268   0.00564440
6514.00   1.15347528   0.00565260
6516.00   1.14703035   0.00630645
6518.00   1.14131069   0.00665675
6520.00   1.13165677   0.00710711
6522.00   1.12565625   0.00730828
6524.00   1.12669563   0.00712594
6526.00   1.13064146   0.00673373
6528.00   1.13022923   0.00646654
6530.00   1.12745070   0.00617416
6532.00   1.12578857   0.00594643
6534.00   1.12288618   0.00562279
6536.00   1.12250459   0.00561265
6538.00   1.12685323   0.00609616
6540.00   1.13130617   0.00663743
6542.00   1.12978196   0.00683394
6544.00   1.12415910   0.00689328
6546.00   1.11933148   0.00678064
6548.00   1.11195016   0.00630650
6550.00   1.10748720   0.00604593
6552.00   1.10546577   0.00604050
6554.00   1.10526407   0.00606423
6556.00   1.10790539   0.00595323
6558.00   1.11331558   0.00577717
6560.00   1.11083031   0.00570708
6562.00   1.10050428   0.00572322
6564.00   1.09394705   0.00571025
6566.00   1.08905780   0.00569936
6568.00   1.08451450   0.00567727
6570.00   1.08043146   0.00557377
6572.00   1.07649314   0.00546019
6574.00   1.06979656   0.00570002
6576.00   1.05903578   0.00642707
6578.00   1.05233049   0.00660601
6580.00   1.04506886   0.00649610
6582.00   1.04338312   0.00631081
6584.00   1.05129528   0.00601147
6586.00   1.06276190   0.00566598
6588.00   1.06665325   0.00558071
6590.00   1.06806886   0.00574470
6592.00   1.06368899   0.00571093
6594.00   1.05037379   0.00555228
6596.00   1.04045510   0.00545742
6598.00   1.03386629   0.00544598
6600.00   1.02934968   0.00546288
6602.00   1.02773297   0.00546872
6604.00   1.02990484   0.00548542
6606.00   1.02576578   0.00547516
6608.00   1.01281834   0.00543331
6610.00   1.00915170   0.00541247
6612.00   1.01704860   0.00539142
6614.00   1.02428579   0.00540131
6616.00   1.02281058   0.00548901
6618.00   1.01669037   0.00563001
6620.00   1.01030564   0.00563738
6622.00   0.99836975   0.00550238
6624.00   0.99326450   0.00546778
6626.00   0.99417317   0.00551448
6628.00   0.99534893   0.00554034
6630.00   0.99598348   0.00545964
6632.00   0.99597913   0.00535878
6634.00   0.98956537   0.00551974
6636.00   0.97299886   0.00600021
6638.00   0.96766478   0.00614792
6640.00   0.97095150   0.00617512
6642.00   0.97220021   0.00607599
6644.00   0.97073150   0.00575421
6646.00   0.96700853   0.00534442
6648.00   0.95816243   0.00518876
6650.00   0.94250292   0.00521516
6652.00   0.93454891   0.00519259
6654.00   0.93129903   0.00521488
6656.00   0.92811155   0.00521961
6658.00   0.92613667   0.00520585
6660.00   0.92369568   0.00518634
6662.00   0.91869169   0.00516739
6664.00   0.91224271   0.00514493
6666.00   0.90265197   0.00513071
6668.00   0.88425708   0.00508584
6670.00   0.87672263   0.00512115
6672.00   0.88159895   0.00528447
6674.00   0.88653988   0.00540403
6676.00   0.88423330   0.00536178
6678.00   0.87867427   0.00522473
6680.00   0.87458980   0.00520457
6682.00   0.86968964   0.00524455
6684.00   0.86607778   0.00529004
6686.00   0.86529768   0.00539301
6688.00   0.86177379   0.00545052
6690.00   0.85204136   0.00542976
6692.00   0.83986056   0.00535858
6694.00   0.83404362   0.00525006
6696.00   0.83261794   0.00494697
6698.00   0.83038414   0.00502390
6700.00   0.83011329   0.00553437
6702.00   0.82837075   0.00578298
6704.00   0.82352984   0.00569051
6706.00   0.81857419   0.00545339
6708.00   0.81847417   0.00524892
6710.00   0.82380569   0.00495076
6712.00   0.81965536   0.00482485
6714.00   0.80760741   0.00486623
6716.00   0.79719990   0.00486750
6718.00   0.78542823   0.00483231
6720.00   0.77676654   0.00480063
6722.00   0.77692091   0.00479621
6724.00   0.78386933   0.00480996
6726.00   0.78919357   0.00481794
6728.00   0.80109930   0.00483569
6730.00   0.80235499   0.00483909
6732.00   0.79253370   0.00483687
6734.00   0.78123748   0.00481926
6736.00   0.77360755   0.00470585
6738.00   0.76655447   0.00455909
6740.00   0.75596225   0.00487112
6742.00   0.73746085   0.00582637
6744.00   0.73059356   0.00600171
6746.00   0.73246521   0.00566512
6748.00   0.73623693   0.00528617
6750.00   0.74280512   0.00494635
6752.00   0.74969345   0.00460918
6754.00   0.74586868   0.00449958
6756.00   0.73096818   0.00464702
6758.00   0.72405910   0.00465243
6760.00   0.71984333   0.00462195
6762.00   0.71680331   0.00460161
6764.00   0.71567035   0.00459672
6766.00   0.71505916   0.00459560
6768.00   0.71266747   0.00458967
6770.00   0.70944172   0.00458279
6772.00   0.70554596   0.00457336
6774.00   0.70061952   0.00456214
6776.00   0.69560897   0.00454832
6778.00   0.68941718   0.00452782
6780.00   0.68428087   0.00451011
6782.00   0.68294322   0.00450524
6784.00   0.68448299   0.00450947
6786.00   0.68089181   0.00450200
6788.00   0.67114210   0.00448223
6790.00   0.66732013   0.00447475
6792.00   0.66894084   0.00447870
6794.00   0.67053425   0.00448272
6796.00   0.66975611   0.00448220
6798.00   0.66807503   0.00447992
6800.00   0.66629422   0.00447589
6802.00   0.66355789   0.00446915
6804.00   0.66178077   0.00446289
6806.00   0.65991515   0.00445345
6808.00   0.65930313   0.00444832
6810.00   0.66242838   0.00445347
6812.00   0.66540760   0.00446015
6814.00   0.65885246   0.00444872
6816.00   0.64165097   0.00441271
6818.00   0.63527632   0.00441525
6820.00   0.63369203   0.00441080
6822.00   0.63516182   0.00447585
6824.00   0.64231616   0.00464538
6826.00   0.64992779   0.00482851
6828.00   0.65070045   0.00493621
6830.00   0.64705455   0.00501570
6832.00   0.64457631   0.00503502
6834.00   0.64021927   0.00497560
6836.00   0.63782018   0.00493048
6838.00   0.63896304   0.00490341
6840.00   0.63857126   0.00485293
6842.00   0.63204348   0.00473718
6844.00   0.62146401   0.00456962
6846.00   0.61646909   0.00447948
6848.00   0.61332107   0.00443213
6850.00   0.61342132   0.00440690
6852.00   0.61907768   0.00441630
6854.00   0.62343687   0.00444232
6856.00   0.62307066   0.00447227
6858.00   0.62068355   0.00451707
6860.00   0.62115198   0.00460613
6862.00   0.62612784   0.00474923
6864.00   0.62337345   0.00486298
6866.00   0.61609554   0.00500775
6868.00   0.60551685   0.00508507
6870.00   0.58762670   0.00507587
6872.00   0.56951642   0.00501020
6874.00   0.56674260   0.00488679
6876.00   0.57637668   0.00453639
6878.00   0.58232498   0.00475865
6880.00   0.59463757   0.00564643
6882.00   0.59832102   0.00599870
6884.00   0.58983356   0.00582182
6886.00   0.57891923   0.00544799
6888.00   0.57541764   0.00509882
6890.00   0.57580566   0.00457797
6892.00   0.57219726   0.00457818
6894.00   0.56532395   0.00524340
6896.00   0.56103247   0.00540926
6898.00   0.55981475   0.00514373
6900.00   0.55807632   0.00482309
6902.00   0.55250037   0.00468570
6904.00   0.54486620   0.00461896
6906.00   0.54473722   0.00456523
6908.00   0.55399394   0.00446453
6910.00   0.55543202   0.00458719
6912.00   0.55136490   0.00504633
6914.00   0.54722381   0.00530508
6916.00   0.54470712   0.00516904
6918.00   0.54255772   0.00483248
6920.00   0.54030842   0.00468214
6922.00   0.53881025   0.00457779
6924.00   0.53550851   0.00453248
6926.00   0.52804381   0.00459141
6928.00   0.52531278   0.00462209
6930.00   0.53009081   0.00461134
6932.00   0.53763407   0.00457906
6934.00   0.54189730   0.00451700
6936.00   0.54568303   0.00438818
6938.00   0.54716694   0.00440372
6940.00   0.54637033   0.00458530
6942.00   0.54496711   0.00466202
6944.00   0.54166085   0.00462995
6946.00   0.53895122   0.00456274
6948.00   0.53993762   0.00450127
6950.00   0.54367042   0.00441728
6952.00   0.54460001   0.00441230
6954.00   0.54377371   0.00449358
6956.00   0.54373187   0.00453155
6958.00   0.54544932   0.00457108
6960.00   0.54532009   0.00456395
6962.00   0.54057580   0.00441578
6964.00   0.53294086   0.00418234
6966.00   0.52840847   0.00432092
6968.00   0.52223951   0.00490746
6970.00   0.52317929   0.00506726
6972.00   0.53367174   0.00501122
6974.00   0.54075825   0.00487721
6976.00   0.54030728   0.00463378
6978.00   0.53609890   0.00432874
6980.00   0.53163373   0.00426329
6982.00   0.52348858   0.00443929
6984.00   0.52010584   0.00443512
6986.00   0.51907432   0.00433768
6988.00   0.51994610   0.00426486
6990.00   0.52508122   0.00416220
6992.00   0.52993029   0.00413627
6994.00   0.52656335   0.00442582
6996.00   0.51589727   0.00502400
6998.00   0.51260203   0.00508978
7000.00   0.51245934   0.00464548
7002.00   0.51405185   0.00449867
7004.00   0.51952738   0.00474293
7006.00   0.52440220   0.00498237
7008.00   0.52455109   0.00495849
7010.00   0.52182949   0.00479122
7012.00   0.51805919   0.00461717
7014.00   0.51170766   0.00416921
7016.00   0.50573075   0.00412529
7018.00   0.49690241   0.00460038
7020.00   0.49179703   0.00493282
7022.00   0.49500307   0.00485132
7024.00   0.50327379   0.00455291
7026.00   0.50752068   0.00438760
7028.00   0.51248044   0.00419167
7030.00   0.51318008   0.00410017
7032.00   0.50917047   0.00412614
7034.00   0.50558954   0.00414604
7036.00   0.50365263   0.00412572
7038.00   0.50217897   0.00410155
7040.00   0.50052702   0.00411118
7042.00   0.49894908   0.00414927
7044.00   0.49742973   0.00417500
7046.00   0.49624157   0.00420991
7048.00   0.49460071   0.00422763
7050.00   0.49214706   0.00421193
7052.00   0.48965874   0.00419769
7054.00   0.48819709   0.00423782
7056.00   0.48760182   0.00432938
7058.00   0.48579413   0.00432604
7060.00   0.48240221   0.00424364
7062.00   0.48065418   0.00417879
7064.00   0.47966477   0.00403435
7066.00   0.48043787   0.00400478
7068.00   0.48483661   0.00432654
7070.00   0.49222314   0.00485426
7072.00   0.49443167   0.00492218
7074.00   0.49485511   0.00461366
7076.00   0.49152717   0.00446261
7078.00   0.48144147   0.00436228
7080.00   0.47350484   0.00428626
7082.00   0.47223780   0.00423936
7084.00   0.47429782   0.00421599
7086.00   0.47404283   0.00416788
7088.00   0.47176963   0.00407984
7090.00   0.47359923   0.00406450
7092.00   0.47958899   0.00412335
7094.00   0.48452640   0.00416079
7096.00   0.48808897   0.00415820
7098.00   0.49026853   0.00413840
7100.00   0.48907483   0.00411581
7102.00   0.48469901   0.00407646
7104.00   0.47996163   0.00405854
7106.00   0.47074130   0.00403217
7108.00   0.46666315   0.00405139
7110.00   0.46898612   0.00413584
7112.00   0.47387323   0.00423413
7114.00   0.47887692   0.00428153
7116.00   0.48644352   0.00428493
7118.00   0.48511955   0.00443576
7120.00   0.47299814   0.00483190
7122.00   0.46777210   0.00493205
7124.00   0.46710834   0.00473609
7126.00   0.46972153   0.00447761
7128.00   0.47725812   0.00429644
7130.00   0.48897582   0.00412254
7132.00   0.49078256   0.00404590
7134.00   0.48562804   0.00398746
7136.00   0.47985646   0.00412508
7138.00   0.46858624   0.00457603
7140.00   0.46052709   0.00485136
7142.00   0.46007439   0.00479373
7144.00   0.46338320   0.00455841
7146.00   0.46313852   0.00437870
7148.00   0.46038738   0.00406065
7150.00   0.46126539   0.00397848
7152.00   0.46563929   0.00413745
7154.00   0.46868917   0.00423537
7156.00   0.46963271   0.00422872
7158.00   0.46958745   0.00418737
7160.00   0.46923679   0.00415247
7162.00   0.46804553   0.00407141
7164.00   0.46736175   0.00412944
7166.00   0.46684855   0.00434955
7168.00   0.46624589   0.00447190
7170.00   0.46618268   0.00450658
7172.00   0.46534342   0.00449571
7174.00   0.46180347   0.00444566
7176.00   0.45584303   0.00433912
7178.00   0.45367023   0.00430908
7180.00   0.45461348   0.00432774
7182.00   0.45429304   0.00434732
7184.00   0.45381325   0.00431115
7186.00   0.45243219   0.00437926
7188.00   0.44842988   0.00471414
7190.00   0.44290724   0.00517417
7192.00   0.44409275   0.00523855
7194.00   0.45276329   0.00499283
7196.00   0.45673370   0.00481725
7198.00   0.45998642   0.00454889
7200.00   0.46047175   0.00433754
7202.00   0.45535159   0.00422222
7204.00   0.44823557   0.00420072
7206.00   0.44957179   0.00437066
7208.00   0.45866665   0.00485398
7210.00   0.46275747   0.00494294
7212.00   0.46667194   0.00479784
7214.00   0.46764311   0.00461604
7216.00   0.46426785   0.00434863
7218.00   0.45917797   0.00407199
7220.00   0.45576137   0.00401197
7222.00   0.45170861   0.00413349
7224.00   0.45230147   0.00417374
7226.00   0.45910048   0.00420124
7228.00   0.46225217   0.00426126
7230.00   0.46216041   0.00434514
7232.00   0.46031928   0.00445706
7234.00   0.45699620   0.00460750
7236.00   0.45181093   0.00479038
7238.00   0.44833976   0.00495891
7240.00   0.44332567   0.00519253
7242.00   0.44336203   0.00528666
7244.00   0.45020398   0.00527601
7246.00   0.45611313   0.00519432
7248.00   0.45658997   0.00502303
7250.00   0.45446754   0.00477100
7252.00   0.45494163   0.00462447
7254.00   0.45684972   0.00453966
7256.00   0.45787397   0.00446278
7258.00   0.46081197   0.00443217
7260.00   0.45981842   0.00439011
7262.00   0.45120248   0.00424248
7264.00   0.43971846   0.00412049
7266.00   0.43531007   0.00439064
7268.00   0.43423569   0.00504403
7270.00   0.43614435   0.00531034
7272.00   0.44453222   0.00547191
7274.00   0.44953695   0.00549391
7276.00   0.44924116   0.00530190
7278.00   0.44788677   0.00503550
7280.00   0.45020658   0.00492554
7282.00   0.45520103   0.00490830
7284.00   0.45617208   0.00480845
7286.00   0.45453399   0.00463799
7288.00   0.45256102   0.00452492
7290.00   0.44824597   0.00446840
7292.00   0.44552130   0.00444122
7294.00   0.44908431   0.00443426
7296.00   0.45724204   0.00445474
7298.00   0.45686302   0.00444935
7300.00   0.44718555   0.00441838
7302.00   0.44511959   0.00441936
7304.00   0.44975606   0.00443067
7306.00   0.45383897   0.00447482
7308.00   0.45475298   0.00457565
7310.00   0.45399141   0.00470846
7312.00   0.45026812   0.00479069
7314.00   0.43842268   0.00487830
7316.00   0.43759748   0.00488886
7318.00   0.44611707   0.00482336
7320.00   0.45297927   0.00474743
7322.00   0.45656136   0.00466477
7324.00   0.45819208   0.00457665
7326.00   0.45638776   0.00451405
7328.00   0.45043480   0.00445803
7330.00   0.44625169   0.00444404
7332.00   0.44122246   0.00444858
7334.00   0.43766454   0.00450995
7336.00   0.43538907   0.00466988
7338.00   0.43454999   0.00482867
7340.00   0.43588644   0.00488287
7342.00   0.43948960   0.00488550
7344.00   0.44214147   0.00480792
7346.00   0.44582009   0.00458101
7348.00   0.44762248   0.00443058
7350.00   0.44754007   0.00433195
7352.00   0.44664878   0.00427554
7354.00   0.44540322   0.00427266
7356.00   0.44354740   0.00431978
7358.00   0.44242194   0.00435224
7360.00   0.44256860   0.00439601
7362.00   0.44070289   0.00443807
7364.00   0.43679282   0.00449184
7366.00   0.43297493   0.00453022
7368.00   0.42957255   0.00455001
7370.00   0.42660859   0.00455036
7372.00   0.42629862   0.00449855
7374.00   0.42951977   0.00438142
7376.00   0.43018219   0.00428177
7378.00   0.42991230   0.00408146
7380.00   0.42924485   0.00404018
7382.00   0.42774081   0.00426971
7384.00   0.42621604   0.00457841
7386.00   0.42664683   0.00473809
7388.00   0.42915526   0.00489311
7390.00   0.42916799   0.00483090
7392.00   0.42850360   0.00444026
7394.00   0.42600071   0.00421777
7396.00   0.42051560   0.00422022
7398.00   0.41467974   0.00429951
7400.00   0.41140881   0.00435839
7402.00   0.40962198   0.00445146
7404.00   0.40715241   0.00446383
7406.00   0.40302879   0.00442861
7408.00   0.40256324   0.00436262
7410.00   0.40746480   0.00417904
7412.00   0.41133857   0.00407314
7414.00   0.40974215   0.00422653
7416.00   0.40508702   0.00452577
7418.00   0.40288705   0.00461344
7420.00   0.39917630   0.00463796
7422.00   0.40070507   0.00455026
7424.00   0.41066632   0.00422734
7426.00   0.41596881   0.00399572
7428.00   0.41070455   0.00403502
7430.00   0.40040481   0.00419903
7432.00   0.39456645   0.00425343
7434.00   0.38765761   0.00430168
7436.00   0.38722149   0.00428993
7438.00   0.39538977   0.00419906
7440.00   0.39959478   0.00412775
7442.00   0.39659381   0.00409634
7444.00   0.39203021   0.00407300
7446.00   0.39288878   0.00401460
7448.00   0.39746076   0.00389472
7450.00   0.39933097   0.00395213
7452.00   0.40335262   0.00418128
7454.00   0.40097445   0.00434989
7456.00   0.38907495   0.00453932
7458.00   0.37642798   0.00463206
7460.00   0.37081525   0.00445377
7462.00   0.36873934   0.00401374
7464.00   0.36884233   0.00389094
7466.00   0.37409312   0.00398655
7468.00   0.37646797   0.00406072
7470.00   0.37741196   0.00417599
7472.00   0.37721956   0.00428809
7474.00   0.37566850   0.00439036
7476.00   0.37293145   0.00448264
7478.00   0.37028527   0.00444366
7480.00   0.36537433   0.00421435
7482.00   0.36456105   0.00412464
7484.00   0.36849573   0.00412633
7486.00   0.37071005   0.00411811
7488.00   0.36923280   0.00406856
7490.00   0.36590314   0.00400641
7492.00   0.36232933   0.00396102
7494.00   0.35680267   0.00391879
7496.00   0.35380465   0.00389098
7498.00   0.35273474   0.00387806
7500.00   0.35137990   0.00386987
7502.00   0.35014352   0.00383417
7504.00   0.34829059   0.00383405
7506.00   0.34411630   0.00396503
7508.00   0.33784285   0.00418913
7510.00   0.33257258   0.00442358
7512.00   0.32411280   0.00475936
7514.00   0.32227263   0.00497269
7516.00   0.33083862   0.00507367
7518.00   0.33844808   0.00513783
7520.00   0.33452561   0.00524425
7522.00   0.32324839   0.00537162
7524.00   0.32074589   0.00520788
7526.00   0.32485142   0.00458005
7528.00   0.32498211   0.00428152
7530.00   0.32159033   0.00433330
7532.00   0.31927475   0.00436510
7534.00   0.32129794   0.00417449
7536.00   0.32517633   0.00388361
7538.00   0.32276365   0.00379165
7540.00   0.31318480   0.00385925
7542.00   0.30930173   0.00389533
7544.00   0.30878901   0.00401899
7546.00   0.30778825   0.00405217
7548.00   0.30493546   0.00389221
7550.00   0.30189627   0.00367120
7552.00   0.30123484   0.00369150
7554.00   0.30300143   0.00387398
7556.00   0.30256450   0.00405029
7558.00   0.30278060   0.00440611
7560.00   0.29945263   0.00452226
7562.00   0.29006320   0.00429828
7564.00   0.28005451   0.00398523
7566.00   0.27665022   0.00391925
7568.00   0.27820057   0.00399194
7570.00   0.27404815   0.00403291
7572.00   0.26545790   0.00416505
7574.00   0.25920713   0.00417485
7576.00   0.25465795   0.00404767
7578.00   0.25100231   0.00388607
7580.00   0.24786383   0.00374738
7582.00   0.24540287   0.00359880
7584.00   0.24455330   0.00356812
7586.00   0.24565361   0.00365532
7588.00   0.24655811   0.00372867
7590.00   0.25081903   0.00381005
7592.00   0.25053826   0.00391817
7594.00   0.24075726   0.00399235
7596.00   0.22563037   0.00410471
7598.00   0.21546885   0.00457371
7600.00   0.20241816   0.00530312
7602.00   0.20082793   0.00590802
7604.00   0.21258090   0.00673206
7606.00   0.22051170   0.00714081
7608.00   0.22107612   0.00704844
7610.00   0.21869104   0.00666442
7612.00   0.21663976   0.00619667
7614.00   0.21264017   0.00534901
7616.00   0.21140103   0.00484479
7618.00   0.21243410   0.00451210
7620.00   0.21283221   0.00438988
7622.00   0.21234997   0.00461260
7624.00   0.21190163   0.00491143
7626.00   0.21211787   0.00501634
7628.00   0.21260771   0.00504745
7630.00   0.21434045   0.00509033
7632.00   0.21821082   0.00515008
7634.00   0.22041389   0.00512485
7636.00   0.22163093   0.00499089
7638.00   0.22174703   0.00483910
7640.00   0.21998367   0.00472017
7642.00   0.21673755   0.00460872
7644.00   0.21633376   0.00457321
7646.00   0.21685754   0.00468907
7648.00   0.21966933   0.00463631
7650.00   0.22770862   0.00441227
7652.00   0.23232733   0.00421699
7654.00   0.22793683   0.00414090
7656.00   0.22012857   0.00412299
7658.00   0.22301896   0.00409324
7660.00   0.23653385   0.00409833
7662.00   0.24136201   0.00406309
7664.00   0.24166159   0.00400114
7666.00   0.24207981   0.00393559
7668.00   0.24351367   0.00385959
7670.00   0.24456549   0.00378620
7672.00   0.24327497   0.00374841
7674.00   0.23778890   0.00373707
7676.00   0.24219617   0.00373616
7678.00   0.25977343   0.00377220
7680.00   0.26729050   0.00378055
7682.00   0.26197228   0.00374794
7684.00   0.25441548   0.00371596
7686.00   0.25373313   0.00372745
7688.00   0.25635067   0.00376882
7690.00   0.25572789   0.00377323
7692.00   0.25282612   0.00374862
7694.00   0.25148153   0.00374046
7696.00   0.25042424   0.00373537
7698.00   0.25101334   0.00374552
7700.00   0.25494292   0.00377336
7702.00   0.26113367   0.00381806
7704.00   0.26380846   0.00391390
7706.00   0.26241821   0.00401316
7708.00   0.26556790   0.00421955
7710.00   0.27337167   0.00458221
7712.00   0.27934897   0.00484781
7714.00   0.28153351   0.00495478
7716.00   0.28159708   0.00498545
7718.00   0.28055650   0.00502963
7720.00   0.27584580   0.00509438
7722.00   0.27614418   0.00501916
7724.00   0.28133515   0.00479205
7726.00   0.28417769   0.00456481
7728.00   0.28253916   0.00430451
7730.00   0.28050628   0.00407183
7732.00   0.28307343   0.00403035
7734.00   0.28830710   0.00414730
7736.00   0.29535097   0.00427209
7738.00   0.30849308   0.00454730
7740.00   0.31548607   0.00466200
7742.00   0.31509289   0.00456592
7744.00   0.31322467   0.00447290
7746.00   0.31322199   0.00454187
7748.00   0.31284967   0.00468511
7750.00   0.32199636   0.00503618
7752.00   0.34801066   0.00586593
7754.00   0.35663402   0.00601805
7756.00   0.35064727   0.00553218
7758.00   0.34084749   0.00497119
7760.00   0.32964072   0.00467105
7762.00   0.31636292   0.00447079
7764.00   0.31421727   0.00431003
7766.00   0.32222942   0.00424920
7768.00   0.32778800   0.00419685
7770.00   0.33596766   0.00418011
7772.00   0.34267712   0.00420166
7774.00   0.34607762   0.00426700
7776.00   0.34841070   0.00436514
7778.00   0.35386586   0.00447770
7780.00   0.36355087   0.00466127
7782.00   0.36579853   0.00469487
7784.00   0.36311376   0.00457503
7786.00   0.35862580   0.00451730
7788.00   0.34977514   0.00452413
7790.00   0.34150019   0.00458282
7792.00   0.34200725   0.00473852
7794.00   0.34977338   0.00502406
7796.00   0.35127842   0.00502018
7798.00   0.35044622   0.00470341
7800.00   0.34860954   0.00456108
7802.00   0.34275493   0.00460993
7804.00   0.33944017   0.00468393
7806.00   0.34509900   0.00468333
7808.00   0.35703439   0.00465708
7810.00   0.36370137   0.00461765
7812.00   0.37069774   0.00445882
7814.00   0.37261564   0.00450922
7816.00   0.36595947   0.00470464
7818.00   0.36282775   0.00499646
7820.00   0.37137875   0.00546365
7822.00   0.38500410   0.00596868
7824.00   0.38518003   0.00599642
7826.00   0.37415847   0.00560513
7828.00   0.36734819   0.00528727
7830.00   0.35730520   0.00473996
7832.00   0.35203657   0.00432211
7834.00   0.35546651   0.00420114
7836.00   0.36193237   0.00424672
7838.00   0.36125797   0.00427308
7840.00   0.35439745   0.00436884
7842.00   0.35554853   0.00445604
7844.00   0.36307219   0.00454636
7846.00   0.36879990   0.00467243
7848.00   0.37434995   0.00486412
7850.00   0.37728411   0.00504587
7852.00   0.37247404   0.00513656
7854.00   0.36029512   0.00516853
7856.00   0.35586014   0.00521245
7858.00   0.35445374   0.00526829
7860.00   0.35541388   0.00526562
7862.00   0.36076590   0.00520527
7864.00   0.36594334   0.00511035
7866.00   0.36721501   0.00497581
7868.00   0.36642620   0.00479806
7870.00   0.36856934   0.00471989
7872.00   0.37156671   0.00470556
7874.00   0.37657946   0.00472449
7876.00   0.38653737   0.00480582
7878.00   0.39303410   0.00489032
7880.00   0.39173904   0.00497196
7882.00   0.38637298   0.00504691
7884.00   0.38433912   0.00504375
7886.00   0.38497898   0.00488294
7888.00   0.38073173   0.00495042
7890.00   0.37144285   0.00525617
7892.00   0.36391902   0.00542460
7894.00   0.35753149   0.00541609
7896.00   0.35387725   0.00530091
7898.00   0.35892573   0.00508056
7900.00   0.37429264   0.00461767
7902.00   0.37947235   0.00450666
7904.00   0.37552172   0.00458339
7906.00   0.37853247   0.00483476
7908.00   0.39152718   0.00532236
7910.00   0.40523383   0.00582251
7912.00   0.41170418   0.00621288
7914.00   0.41481462   0.00661709
7916.00   0.41172501   0.00652912
7918.00   0.39844912   0.00579684
7920.00   0.39054707   0.00535336
7922.00   0.38629308   0.00513088
7924.00   0.38311142   0.00499767
7926.00   0.37945268   0.00492559
7928.00   0.37620133   0.00493369
7930.00   0.37693688   0.00483989
7932.00   0.38231447   0.00465118
7934.00   0.38600510   0.00454349
7936.00   0.38954923   0.00449083
7938.00   0.39323646   0.00445044
7940.00   0.39825678   0.00437914
7942.00   0.40299138   0.00432899
7944.00   0.40188932   0.00445228
7946.00   0.39317644   0.00475090
7948.00   0.39181480   0.00494828
7950.00   0.39574048   0.00523075
7952.00   0.39792752   0.00531247
7954.00   0.39812997   0.00505395
7956.00   0.39666900   0.00470407
7958.00   0.39171836   0.00470853
7960.00   0.38151401   0.00495547
7962.00   0.38036028   0.00507888
7964.00   0.38706264   0.00526036
7966.00   0.39148629   0.00530327
7968.00   0.39417443   0.00517231
7970.00   0.39626378   0.00499266
7972.00   0.39842138   0.00486446
7974.00   0.40065265   0.00473422
7976.00   0.39880115   0.00470659
7978.00   0.39091107   0.00477632
7980.00   0.38767409   0.00485478
7982.00   0.38852045   0.00500541
7984.00   0.38957295   0.00510846
7986.00   0.38883963   0.00507159
7988.00   0.38751903   0.00495800
7990.00   0.38724136   0.00500195
7992.00   0.38831240   0.00523807
7994.00   0.38776603   0.00526273
7996.00   0.38527966   0.00515208
7998.00   0.38395792   0.00500638
8000.00   0.38499820   0.00480488
8002.00   0.38709584   0.00458752
8004.00   0.38825580   0.00456086
8006.00   0.38937569   0.00473500
8008.00   0.38990238   0.00476104
8010.00   0.38946345   0.00469370
8012.00   0.38962978   0.00468620
8014.00   0.39035225   0.00475447
8016.00   0.39167422   0.00486041
8018.00   0.39409646   0.00496649
8020.00   0.39779586   0.00505808
8022.00   0.40026629   0.00531873
8024.00   0.40460116   0.00595647
8026.00   0.40376481   0.00608106
8028.00   0.39492428   0.00558269
8030.00   0.38661751   0.00497195
8032.00   0.38719666   0.00475681
8034.00   0.39347780   0.00474891
8036.00   0.38856167   0.00479254
8038.00   0.37301779   0.00511435
8040.00   0.36350283   0.00513986
8042.00   0.35461688   0.00489169
8044.00   0.35086668   0.00462623
8046.00   0.35718811   0.00445820
8048.00   0.36944458   0.00433035
8050.00   0.37162784   0.00428911
8052.00   0.36669937   0.00437002
8054.00   0.36420280   0.00440824
8056.00   0.35965484   0.00444636
8058.00   0.35770631   0.00449954
8060.00   0.36069873   0.00459926
8062.00   0.36541772   0.00469363
8064.00   0.36596730   0.00466660
8066.00   0.36350173   0.00452253
8068.00   0.36318496   0.00444109
8070.00   0.36242095   0.00427978
8072.00   0.36415914   0.00429649
8074.00   0.37105694   0.00463740
8076.00   0.37740979   0.00494825
8078.00   0.37573674   0.00484812
8080.00   0.36808446   0.00440914
8082.00   0.36345059   0.00428838
8084.00   0.35693863   0.00429501
8086.00   0.35469627   0.00440319
8088.00   0.35875610   0.00475025
8090.00   0.36217374   0.00498752
8092.00   0.36010572   0.00484146
8094.00   0.35495397   0.00442443
8096.00   0.34824777   0.00433267
8098.00   0.33587804   0.00442141
8100.00   0.32955235   0.00453705
8102.00   0.32834354   0.00484310
8104.00   0.32747793   0.00498794
8106.00   0.32398242   0.00475080
8108.00   0.32049328   0.00431050
8110.00   0.32413647   0.00431254
8112.00   0.33784395   0.00478040
8114.00   0.34189165   0.00480677
8116.00   0.33859739   0.00452695
8118.00   0.33791843   0.00432468
8120.00   0.34217092   0.00429632
8122.00   0.34820747   0.00433888
8124.00   0.35331488   0.00437493
8126.00   0.36113450   0.00446376
8128.00   0.35910952   0.00446219
8130.00   0.34478134   0.00436186
8132.00   0.33716062   0.00432043
8134.00   0.33832794   0.00435662
8136.00   0.34104761   0.00440982
8138.00   0.33943588   0.00443306
8140.00   0.33621696   0.00444950
8142.00   0.33049500   0.00444189
8144.00   0.31702149   0.00437685
8146.00   0.31323296   0.00437676
8148.00   0.32161137   0.00444683
8150.00   0.32898846   0.00452280
8152.00   0.32586232   0.00454623
8154.00   0.31728473   0.00454947
8156.00   0.31759170   0.00471254
8158.00   0.32545888   0.00511979
8160.00   0.32877651   0.00523955
8162.00   0.33173949   0.00517424
8164.00   0.33137852   0.00504697
8166.00   0.32531273   0.00485389
8168.00   0.31609559   0.00461123
8170.00   0.31041694   0.00450985
8172.00   0.30449697   0.00443969
8174.00   0.30317372   0.00457842
8176.00   0.31016597   0.00498743
8178.00   0.31075701   0.00527913
8180.00   0.29919794   0.00543979
8182.00   0.28546458   0.00552708
8184.00   0.28422639   0.00553458
8186.00   0.29237735   0.00543212
8188.00   0.29427022   0.00540613
8190.00   0.29638985   0.00541120
8192.00   0.29406151   0.00540805
8194.00   0.28560454   0.00542867
8196.00   0.27567899   0.00541099
8198.00   0.26849592   0.00527877
8200.00   0.26217091   0.00504944
8202.00   0.25606713   0.00483630
8204.00   0.24880639   0.00454262
8206.00   0.24544773   0.00434029
8208.00   0.24751367   0.00423497
8210.00   0.24885762   0.00416232
8212.00   0.24614695   0.00408622
8214.00   0.24125920   0.00402859
8216.00   0.23520663   0.00401262
8218.00   0.22455221   0.00404673
8220.00   0.21956949   0.00407788
8222.00   0.21863052   0.00412385
8224.00   0.21863212   0.00417423
8226.00   0.21997303   0.00423732
8228.00   0.22153403   0.00429854
8230.00   0.21784717   0.00430979
8232.00   0.20749478   0.00428865
8234.00   0.20458986   0.00424023
8236.00   0.20726900   0.00414287
8238.00   0.20852886   0.00404952
8240.00   0.20926698   0.00396810
8242.00   0.20783480   0.00388363
8244.00   0.19949229   0.00377554
8246.00   0.18392490   0.00362841
8248.00   0.17517835   0.00357798
8250.00   0.16950415   0.00355097
8252.00   0.16465756   0.00364986
8254.00   0.16065568   0.00395394
8256.00   0.15805991   0.00421605
8258.00   0.15787144   0.00426893
8260.00   0.16000715   0.00420401
8262.00   0.15801057   0.00407924
8264.00   0.15261550   0.00374338
8266.00   0.14845984   0.00357851
8268.00   0.14357078   0.00352561
8270.00   0.14046571   0.00357372
8272.00   0.14155175   0.00371954
8274.00   0.14498444   0.00395164
8276.00   0.14368494   0.00425168
8278.00   0.13704200   0.00476069
8280.00   0.13567916   0.00495474
8282.00   0.13891642   0.00491670
8284.00   0.14027017   0.00491141
8286.00   0.13791953   0.00495950
8288.00   0.13381322   0.00506475
8290.00   0.12989020   0.00536695
8292.00   0.12502120   0.00592032
8294.00   0.12084811   0.00612379
8296.00   0.11479340   0.00626207
8298.00   0.11292342   0.00611844
8300.00   0.11786049   0.00547721
8302.00   0.12391377   0.00463207
8304.00   0.12395287   0.00420495
8306.00   0.12010789   0.00407167
8308.00   0.11891720   0.00389451
8310.00   0.12002157   0.00382375
8312.00   0.11799873   0.00377972
8314.00   0.11236041   0.00375537
8316.00   0.10601919   0.00379800
8318.00   0.09959792   0.00397767
8320.00   0.09240019   0.00425598
8322.00   0.09553411   0.00428853
8324.00   0.11442871   0.00417467
8326.00   0.11908825   0.00399276
8328.00   0.10992143   0.00353419
8330.00   0.10357226   0.00322004
8332.00   0.10841880   0.00328778
8334.00   0.11814409   0.00361678
8336.00   0.12098609   0.00420140
8338.00   0.12227283   0.00511836
8340.00   0.11839253   0.00568315
8342.00   0.10343423   0.00618963
8344.00   0.09683686   0.00655533
8346.00   0.10642020   0.00690512
8348.00   0.12096980   0.00706556
8350.00   0.12277348   0.00655478
8352.00   0.11716208   0.00497714
8354.00   0.11206729   0.00419263
8356.00   0.10189189   0.00408294
8358.00   0.09592918   0.00394247
8360.00   0.09458174   0.00378896
8362.00   0.09584710   0.00368598
8364.00   0.09928170   0.00361439
8366.00   0.10627531   0.00360116
8368.00   0.10682380   0.00352408
8370.00   0.10052492   0.00334326
8372.00   0.09887647   0.00330036
8374.00   0.10232336   0.00339981
8376.00   0.10534495   0.00354259
8378.00   0.10364549   0.00368905
8380.00   0.09937837   0.00385675
8382.00   0.10119554   0.00395487
8384.00   0.11059859   0.00394787
8386.00   0.11280218   0.00407095
8388.00   0.10732076   0.00426051
8390.00   0.10501550   0.00450523
8392.00   0.11191215   0.00485769
8394.00   0.12242328   0.00522494
8396.00   0.12380470   0.00533157
8398.00   0.11666395   0.00522739
8400.00   0.11617047   0.00517449
8402.00   0.11877629   0.00514866
8404.00   0.12166501   0.00499273
8406.00   0.12586823   0.00455855
8408.00   0.12935817   0.00402784
8410.00   0.12703757   0.00387615
8412.00   0.11879786   0.00405062
8414.00   0.11593685   0.00405961
8416.00   0.11711706   0.00404631
8418.00   0.11569505   0.00404525
8420.00   0.10874859   0.00392993
8422.00   0.10383128   0.00396885
8424.00   0.10985357   0.00451083
8426.00   0.12469012   0.00536176
8428.00   0.12824641   0.00561024
8430.00   0.12417705   0.00560001
8432.00   0.12196775   0.00541898
8434.00   0.11788969   0.00487091
8436.00   0.11682270   0.00428137
8438.00   0.12334687   0.00392397
8440.00   0.13475895   0.00370511
8442.00   0.14029911   0.00367101
8444.00   0.14435506   0.00394339
8446.00   0.14490710   0.00409318
8448.00   0.13928178   0.00428672
8450.00   0.13605662   0.00438476
8452.00   0.13819924   0.00429188
8454.00   0.14310560   0.00412084
8456.00   0.14824587   0.00417443
8458.00   0.15725681   0.00437535
8460.00   0.15960978   0.00456078
8462.00   0.15790507   0.00488137
8464.00   0.15382637   0.00502773
8466.00   0.14485973   0.00496348
8468.00   0.13578321   0.00478018
8470.00   0.13535410   0.00454924
8472.00   0.14192078   0.00418011
8474.00   0.14400038   0.00392238
8476.00   0.14376900   0.00369306
8478.00   0.14570464   0.00353783
8480.00   0.14888948   0.00340465
8482.00   0.15428740   0.00342777
8484.00   0.16508080   0.00379247
8486.00   0.18119898   0.00438735
8488.00   0.18262833   0.00453457
8490.00   0.16768527   0.00438416
8492.00   0.16324861   0.00430819
8494.00   0.16632628   0.00418649
8496.00   0.17077132   0.00413120
8498.00   0.17516562   0.00424432
8500.00   0.17998362   0.00444946
8502.00   0.17839417   0.00452878
8504.00   0.16718687   0.00459168
8506.00   0.16531788   0.00454653
8508.00   0.16920693   0.00436745
8510.00   0.17413354   0.00418079
8512.00   0.17982592   0.00400155
8514.00   0.18596536   0.00382963
8516.00   0.18930206   0.00374622
8518.00   0.19086440   0.00374392
8520.00   0.19158681   0.00375121
8522.00   0.18935640   0.00382339
8524.00   0.18949012   0.00386232
8526.00   0.19375715   0.00383238
8528.00   0.19841373   0.00381041
8530.00   0.19847658   0.00389996
8532.00   0.19464079   0.00407706
8534.00   0.19633061   0.00417355
8536.00   0.20267954   0.00426219
8538.00   0.20702763   0.00429427
8540.00   0.20974222   0.00423527
8542.00   0.21199788   0.00418168
8544.00   0.21389322   0.00422348
8546.00   0.21519379   0.00432132
8548.00   0.21999460   0.00435149
8550.00   0.22975431   0.00436415
8552.00   0.23524506   0.00433585
8554.00   0.23750634   0.00424308
8556.00   0.23910852   0.00415545
8558.00   0.24073386   0.00410419
8560.00   0.24209334   0.00407191
8562.00   0.24479590   0.00406059
8564.00   0.24904880   0.00407872
8566.00   0.25216380   0.00409603
8568.00   0.25425735   0.00412662
8570.00   0.25720325   0.00415573
8572.00   0.26150441   0.00416592
8574.00   0.26655936   0.00418451
8576.00   0.27198124   0.00427252
8578.00   0.27966073   0.00443404
8580.00   0.28165582   0.00452397
8582.00   0.27726352   0.00461045
8584.00   0.27580383   0.00463215
8586.00   0.27864304   0.00454599
8588.00   0.28201634   0.00444646
8590.00   0.28201613   0.00445950
8592.00   0.27946183   0.00454896
8594.00   0.28123444   0.00457227
8596.00   0.28565106   0.00453968
8598.00   0.29098165   0.00456529
8600.00   0.29936531   0.00465405
8602.00   0.30637139   0.00474927
8604.00   0.30723971   0.00482070
8606.00   0.30414200   0.00488472
8608.00   0.31018850   0.00492662
8610.00   0.32630783   0.00491803
8612.00   0.33468321   0.00497071
8614.00   0.33731306   0.00507706
8616.00   0.34012395   0.00518224
8618.00   0.34504816   0.00525866
8620.00   0.35084164   0.00533133
8622.00   0.35779083   0.00545411
8624.00   0.36873972   0.00565143
8626.00   0.37308055   0.00575339
8628.00   0.37304914   0.00581924
8630.00   0.37125519   0.00583524
8632.00   0.36688188   0.00579741
8634.00   0.36157545   0.00571131
8636.00   0.35905147   0.00556414
8638.00   0.35605839   0.00525764
8640.00   0.36141288   0.00527748
8642.00   0.37733808   0.00547545
8644.00   0.38894787   0.00582968
8646.00   0.39836875   0.00656117
8648.00   0.40343469   0.00709733
8650.00   0.39830190   0.00686690
8652.00   0.38316932   0.00596356
8654.00   0.38104936   0.00570265
8656.00   0.38801762   0.00586612
8658.00   0.39255768   0.00592117
8660.00   0.39560306   0.00595020
8662.00   0.39977005   0.00598237
8664.00   0.40732986   0.00603753
8666.00   0.41700545   0.00610340
8668.00   0.42108539   0.00604386
8670.00   0.41982454   0.00582588
8672.00   0.42129001   0.00570405
8674.00   0.42713183   0.00564705
8676.00   0.42745754   0.00557202
8678.00   0.41603500   0.00542552
8680.00   0.39946547   0.00525964
8682.00   0.39344084   0.00520868
8684.00   0.39074925   0.00513959
8686.00   0.39647961   0.00537995
8688.00   0.41628295   0.00611172
8690.00   0.42966270   0.00641672
8692.00   0.43353951   0.00613024
8694.00   0.43301213   0.00561290
8696.00   0.43133035   0.00537820
8698.00   0.42516199   0.00524145
8700.00   0.42561805   0.00516663
8702.00   0.43100157   0.00522726
8704.00   0.43581265   0.00525088
8706.00   0.44147557   0.00523460
8708.00   0.44604945   0.00522340
8710.00   0.44653332   0.00521912
8712.00   0.44371495   0.00519754
8714.00   0.44502789   0.00544184
8716.00   0.45084655   0.00614755
8718.00   0.45207286   0.00629045
8720.00   0.44662291   0.00587661
8722.00   0.44406605   0.00543142
8724.00   0.45224723   0.00529468
8726.00   0.46601605   0.00529799
8728.00   0.46524358   0.00526884
8730.00   0.44994143   0.00524160
8732.00   0.44392401   0.00530815
8734.00   0.43997291   0.00552881
8736.00   0.43997040   0.00566025
8738.00   0.44625020   0.00562029
8740.00   0.45568776   0.00550110
8742.00   0.46043298   0.00544240
8744.00   0.46414816   0.00538092
8746.00   0.46410817   0.00535932
8748.00   0.45731840   0.00531430
8750.00   0.45484760   0.00539295
8752.00   0.45908061   0.00561596
8754.00   0.46512145   0.00591662
8756.00   0.46793246   0.00624491
8758.00   0.47013065   0.00663503
8760.00   0.46856880   0.00694120
8762.00   0.45916173   0.00728438
8764.00   0.45751664   0.00745978
8766.00   0.46526396   0.00742909
8768.00   0.47433174   0.00736456
8770.00   0.47990194   0.00741648
8772.00   0.48478138   0.00752187
8774.00   0.48015228   0.00750093
8776.00   0.46272781   0.00743335
8778.00   0.45271072   0.00725510
8780.00   0.44463992   0.00685609
8782.00   0.44139239   0.00651283
8784.00   0.44652230   0.00635794
8786.00   0.45714074   0.00634070
8788.00   0.46163401   0.00657879
8790.00   0.46452785   0.00739944
8792.00   0.46465680   0.00745264
8794.00   0.46042776   0.00693936
8796.00   0.45714858   0.00639610
8798.00   0.45586985   0.00589177
8800.00   0.45563692   0.00540904
8802.00   0.45639575   0.00525307
8804.00   0.45794708   0.00546107
8806.00   0.46126404   0.00550083
8808.00   0.46642193   0.00542538
8810.00   0.47232053   0.00556086
8812.00   0.48118135   0.00598642
8814.00   0.48857990   0.00645260
8816.00   0.48827082   0.00673871
8818.00   0.48235643   0.00694081
8820.00   0.47513187   0.00718824
8822.00   0.45720708   0.00708634
8824.00   0.45339802   0.00772588
8826.00   0.46739259   0.00935233
8828.00   0.48213264   0.01053041
8830.00   0.48581728   0.01062291
8832.00   0.48420689   0.01007721
8834.00   0.48177928   0.00939163
8836.00   0.47226220   0.00773915
8838.00   0.47110301   0.00679730
8840.00   0.48063374   0.00662194
8842.00   0.48552722   0.00659702
8844.00   0.47687855   0.00648135
8846.00   0.46202254   0.00642815
8848.00   0.45831779   0.00641635
8850.00   0.46063280   0.00654064
8852.00   0.46468127   0.00649722
8854.00   0.47661898   0.00629507
8856.00   0.48280963   0.00615241
8858.00   0.47947451   0.00609661
8860.00   0.47177872   0.00611303
8862.00   0.46574065   0.00625913
8864.00   0.45772272   0.00658646
8866.00   0.45372778   0.00669284
8868.00   0.45269251   0.00671294
8870.00   0.45222187   0.00664007
8872.00   0.45194155   0.00633735
8874.00   0.45296758   0.00607485
8876.00   0.45673087   0.00622810
8878.00   0.46322426   0.00665713
8880.00   0.46697843   0.00701974
8882.00   0.47289422   0.00758873
8884.00   0.47121406   0.00782792
8886.00   0.45973703   0.00781965
8888.00   0.44764814   0.00764524
8890.00   0.43988428   0.00725392
8892.00   0.43386096   0.00662819
8894.00   0.43388617   0.00636897
8896.00   0.44128472   0.00633376
8898.00   0.44676360   0.00641349
8900.00   0.45484036   0.00678267
8902.00   0.45973662   0.00702762
8904.00   0.45823652   0.00700447
8906.00   0.45335737   0.00684537
8908.00   0.45165768   0.00670710
8910.00   0.45439529   0.00618618
8912.00   0.44778043   0.00655208
8914.00   0.43117541   0.00757752
8916.00   0.41812742   0.00850424
8918.00   0.40721712   0.00962185
8920.00   0.40171295   0.01042714
8922.00   0.41355842   0.00994038
8924.00   0.44749403   0.00793159
8926.00   0.45251819   0.00693089
8928.00   0.43522066   0.00645310
8930.00   0.42411381   0.00607843
8932.00   0.41547745   0.00585675
8934.00   0.41185406   0.00585379
8936.00   0.42044437   0.00609251
8938.00   0.44003743   0.00656214
8940.00   0.44773394   0.00696131
8942.00   0.45433822   0.00763760
8944.00   0.44966716   0.00778293
8946.00   0.42820320   0.00727227
8948.00   0.40819344   0.00681777
8950.00   0.40104333   0.00690848
8952.00   0.40022272   0.00728349
8954.00   0.39495593   0.00769430
8956.00   0.38981932   0.00855646
8958.00   0.38221687   0.00868876
8960.00   0.36694342   0.00822107
8962.00   0.35983446   0.00770772
8964.00   0.36635080   0.00719787
8966.00   0.38150141   0.00673346
8968.00   0.40079412   0.00696092
8970.00   0.44035980   0.00810042
8972.00   0.44277510   0.00814354
8974.00   0.41227400   0.00738626
8976.00   0.38679799   0.00674195
8978.00   0.36751467   0.00627848
8980.00   0.35214785   0.00597078
8982.00   0.34646603   0.00603655
8984.00   0.35235831   0.00648293
8986.00   0.34424588   0.00673011
8988.00   0.32045293   0.00704647
8990.00   0.31093249   0.00718359
8992.00   0.31857997   0.00705471
8994.00   0.32923275   0.00693864
8996.00   0.33251885   0.00710418
8998.00   0.33334100   0.00743488
9000.00   0.33179620   0.00761410
9002.00   0.32355809   0.00788146
9004.00   0.32241055   0.00782589
9006.00   0.33125472   0.00738621
9008.00   0.33564150   0.00688601
9010.00   0.32519758   0.00642306
9012.00   0.30721074   0.00596608
9014.00   0.30481589   0.00606267
9016.00   0.31936583   0.00701389
9018.00   0.31846893   0.00709360
9020.00   0.30941451   0.00658013
9022.00   0.29738024   0.00608052
9024.00   0.28050959   0.00575202
9026.00   0.26248175   0.00550001
9028.00   0.25588438   0.00540001
9030.00   0.25988999   0.00551289
9032.00   0.25723490   0.00550744
9034.00   0.25085908   0.00537916
9036.00   0.24762945   0.00543744
9038.00   0.25027868   0.00581695
9040.00   0.25296241   0.00619164
9042.00   0.24775602   0.00621008
9044.00   0.23581086   0.00597216
9046.00   0.23236433   0.00591117
9048.00   0.23266020   0.00593583
9050.00   0.23622769   0.00590277
9052.00   0.24810480   0.00582887
9054.00   0.25677356   0.00571733
9056.00   0.25097948   0.00553558
9058.00   0.23541756   0.00528236
9060.00   0.23083904   0.00519647
9062.00   0.23241459   0.00525503
9064.00   0.23288301   0.00529165
9066.00   0.23398012   0.00535457
9068.00   0.23544970   0.00541500
9070.00   0.23723224   0.00545083
9072.00   0.23929985   0.00548048
9074.00   0.24088101   0.00555383
9076.00   0.24091683   0.00567137
9078.00   0.24401273   0.00576373
9080.00   0.25065640   0.00587616
9082.00   0.25571245   0.00594088
9084.00   0.25805399   0.00593303
9086.00   0.25897989   0.00588942
9088.00   0.25950480   0.00586557
9090.00   0.25946385   0.00582952
9092.00   0.25776550   0.00582809
9094.00   0.25551486   0.00586088
9096.00   0.25044382   0.00588620
9098.00   0.24065115   0.00591824
9100.00   0.23034418   0.00593240
9102.00   0.22440596   0.00589639
9104.00   0.22085501   0.00582812
9106.00   0.21840504   0.00569025
9108.00   0.21866903   0.00541598
9110.00   0.21791810   0.00522914
9112.00   0.21522486   0.00508335
9114.00   0.21419479   0.00502363
9116.00   0.21708697   0.00511440
9118.00   0.22274221   0.00532044
9120.00   0.23130433   0.00545513
9122.00   0.24599731   0.00560025
9124.00   0.25608164   0.00570181
9126.00   0.26469332   0.00574282
9128.00   0.27046347   0.00580861
9130.00   0.27229890   0.00595371
9132.00   0.27124137   0.00612149
9134.00   0.27002671   0.00617675
9136.00   0.26710412   0.00618627
9138.00   0.26443753   0.00610012
9140.00   0.26067016   0.00584490
9142.00   0.25797155   0.00565117
9144.00   0.25520316   0.00545518
9146.00   0.25454497   0.00540398
9148.00   0.26200384   0.00588037
9150.00   0.28044173   0.00679768
9152.00   0.28291902   0.00732078
9154.00   0.27501509   0.00801669
9156.00   0.26531062   0.00809411
9158.00   0.24732311   0.00721782
9160.00   0.23353525   0.00612180
9162.00   0.24142283   0.00597062
9164.00   0.26710144   0.00644238
9166.00   0.27071708   0.00655592
9168.00   0.25860435   0.00676251
9170.00   0.25231659   0.00666855
9172.00   0.24761344   0.00608590
9174.00   0.24543448   0.00556721
9176.00   0.24817538   0.00562328
9178.00   0.25442341   0.00599810
9180.00   0.25556162   0.00606807
9182.00   0.25260207   0.00605962
9184.00   0.25219584   0.00596435
9186.00   0.25133789   0.00557748
9188.00   0.25341883   0.00542762
9190.00   0.26074612   0.00567427
9192.00   0.27077737   0.00618964
9194.00   0.27735418   0.00701462
9196.00   0.28163257   0.00847275
9198.00   0.28810742   0.00878891
9200.00   0.30337730   0.00841673
9202.00   0.30467901   0.00790048
9204.00   0.28099447   0.00707126
9206.00   0.25253940   0.00612302
9208.00   0.24896680   0.00584887
9210.00   0.26177502   0.00617637
9212.00   0.26986498   0.00623634
9214.00   0.28462949   0.00630725
9216.00   0.29178715   0.00637969
9218.00   0.28920141   0.00648119
9220.00   0.28492600   0.00655218
9222.00   0.28588432   0.00653011
9224.00   0.28929034   0.00643729
9226.00   0.28930014   0.00636412
9228.00   0.29012254   0.00629142
9230.00   0.28454986   0.00618192
9232.00   0.26948532   0.00599302
9234.00   0.25621706   0.00584195
9236.00   0.25064588   0.00580698
9238.00   0.24933973   0.00584479
9240.00   0.25017905   0.00587482
9242.00   0.25807896   0.00596073
9244.00   0.25909755   0.00598358
9246.00   0.25408182   0.00593723
9248.00   0.25121406   0.00592901
9250.00   0.25337243   0.00601176
9252.00   0.25753236   0.00612121
9254.00   0.25975817   0.00614166
9256.00   0.26378149   0.00611582
9258.00   0.26036701   0.00605451
9260.00   0.24585882   0.00585392
9262.00   0.23904896   0.00579957
9264.00   0.24383052   0.00600945
9266.00   0.25192180   0.00623895
9268.00   0.25455487   0.00618831
9270.00   0.25515372   0.00591230
9272.00   0.25550866   0.00587142
9274.00   0.25771710   0.00596969
9276.00   0.25357094   0.00605695
9278.00   0.23800012   0.00613642
9280.00   0.22500668   0.00624336
9282.00   0.22791399   0.00640251
9284.00   0.24141362   0.00660089
9286.00   0.24308088   0.00677747
9288.00   0.23698542   0.00696461
9290.00   0.23452081   0.00712506
9292.00   0.23160972   0.00723846
9294.00   0.23231192   0.00738226
9296.00   0.24089801   0.00750706
9298.00   0.25380051   0.00767540
9300.00   0.25732139   0.00831609
9302.00   0.25168112   0.00913451
9304.00   0.25287688   0.01027507
9306.00   0.26176807   0.01181856
9308.00   0.26305681   0.01308925
9310.00   0.24868743   0.01406674
9312.00   0.22981538   0.01489140
9314.00   0.22685815   0.01559874
9316.00   0.23287565   0.01631631
9318.00   0.24320386   0.01653663
9320.00   0.27055159   0.01629488
9322.00   0.28176174   0.01601274
9324.00   0.26900631   0.01576504
9326.00   0.25129238   0.01535222
9328.00   0.24867742   0.01446195
9330.00   0.25353792   0.01294018
9332.00   0.25781357   0.01224740
9334.00   0.27234441   0.01206899
9336.00   0.27155617   0.01221935
9338.00   0.25186902   0.01303861
9340.00   0.23069718   0.01372018
9342.00   0.22031964   0.01373434
9344.00   0.21476461   0.01336647
9346.00   0.20531124   0.01300403
9348.00   0.19062373   0.01242642
9350.00   0.18484677   0.01185848
9352.00   0.18672562   0.01113450
9354.00   0.19084297   0.01051284
9356.00   0.19439690   0.01015863
9358.00   0.19970167   0.00998780
9360.00   0.21187168   0.00982301
9362.00   0.23710084   0.00911298
9364.00   0.24669442   0.01005371
9366.00   0.23536244   0.01138225
9368.00   0.24185804   0.01387989
9370.00   0.28372499   0.01773657
9372.00   0.33386719   0.02133873
9374.00   0.35002288   0.02333641
9376.00   0.35237199   0.02509680
9378.00   0.32464075   0.02481198
9380.00   0.24261768   0.02217701
9382.00   0.19362506   0.01942713
9384.00   0.18038882   0.01591074
9386.00   0.18418284   0.01192935
9388.00   0.19601642   0.00935414
9390.00   0.22287121   0.00862367
9392.00   0.23777080   0.00778320
9394.00   0.24831481   0.00816590
9396.00   0.25846818   0.00847178
9398.00   0.27224258   0.00905465
9400.00   0.27832562   0.00954559
9402.00   0.26759097   0.00972734
9404.00   0.24490045   0.00974103
9406.00   0.22698219   0.00958468
9408.00   0.19940089   0.00894262
9410.00   0.19058309   0.00881492
9412.00   0.19935986   0.00893672
9414.00   0.20973745   0.00936959
9416.00   0.21706562   0.01026923
9418.00   0.22449683   0.01130809
9420.00   0.23130406   0.01175542
9422.00   0.24004273   0.01194265
9424.00   0.24209054   0.01189364
9426.00   0.23935869   0.01132662
9428.00   0.23378821   0.01100345
9430.00   0.22186102   0.01091081
9432.00   0.21012530   0.01115054
9434.00   0.21149354   0.01207841
9436.00   0.22385310   0.01350421
9438.00   0.23005655   0.01487357
9440.00   0.23831008   0.01719841
9442.00   0.24017024   0.01781509
9444.00   0.23056310   0.01651080
9446.00   0.22238083   0.01446611
9448.00   0.23027374   0.01274494
9450.00   0.25008863   0.01059274
9452.00   0.25170842   0.01010338
9454.00   0.23980856   0.01147035
9456.00   0.23138271   0.01249740
9458.00   0.22067323   0.01403030
9460.00   0.21388805   0.01492861
9462.00   0.21562622   0.01447669
9464.00   0.22315969   0.01312049
9466.00   0.23079351   0.01257210
9468.00   0.24464354   0.01192523
9470.00   0.25101972   0.01234333
9472.00   0.24855991   0.01404185
9474.00   0.25091195   0.01526633
9476.00   0.27031106   0.01582222
9478.00   0.29118550   0.01598512
9480.00   0.27264750   0.01554123
9482.00   0.20601836   0.01424757
9484.00   0.18906799   0.01313125
9486.00   0.20562713   0.01139393
9488.00   0.21658847   0.01021817
9490.00   0.21683940   0.01010608
9492.00   0.21671113   0.01054451
9494.00   0.22529659   0.01090674
9496.00   0.24165238   0.01139628
9498.00   0.24830066   0.01220999
9500.00   0.24654581   0.01388529
9502.00   0.24945466   0.01436733
9504.00   0.26054356   0.01361055
9506.00   0.26835963   0.01242991
9508.00   0.26218545   0.01142137
9510.00   0.24608700   0.01021346
9512.00   0.23714657   0.00962969
9514.00   0.22667935   0.00948354
9516.00   0.22411036   0.00982031
9518.00   0.22954889   0.01093443
9520.00   0.23771425   0.01185496
9522.00   0.24791820   0.01229624
9524.00   0.25996816   0.01249543
9526.00   0.26411259   0.01233717
9528.00   0.26147440   0.01158325
9530.00   0.26006430   0.01111276
9532.00   0.25694907   0.01052790
9534.00   0.25387165   0.01024285
9536.00   0.25354582   0.01045015
9538.00   0.25191835   0.01093040
9540.00   0.23812704   0.01138828
9542.00   0.20532833   0.01215867
9544.00   0.20158386   0.01222305
9546.00   0.22241490   0.01147504
9548.00   0.23771426   0.01116471
9550.00   0.24914870   0.01157341
9552.00   0.25538686   0.01209217
9554.00   0.24806161   0.01214315
9556.00   0.22681282   0.01191383
9558.00   0.21946335   0.01190919
9560.00   0.22014886   0.01164035
9562.00   0.21921396   0.01211517
9564.00   0.21818629   0.01373967
9566.00   0.21667075   0.01493894
9568.00   0.21371518   0.01481680
9570.00   0.20974092   0.01385918
9572.00   0.20618659   0.01286659
9574.00   0.19932173   0.01084822
9576.00   0.19968215   0.00966538
9578.00   0.21129824   0.00922152
9580.00   0.21756947   0.00926898
9582.00   0.20594761   0.00991449
9584.00   0.18735367   0.01088992
9586.00   0.19575638   0.01107105
9588.00   0.23836683   0.01060523
9590.00   0.24705715   0.01054609
9592.00   0.23642752   0.01073819
9594.00   0.22206445   0.01075079
9596.00   0.20290907   0.01043507
9598.00   0.18242501   0.00998016
9600.00   0.17391254   0.00968073
9602.00   0.17310026   0.00936240
9604.00   0.17530242   0.00933279
9606.00   0.18579338   0.00963835
9608.00   0.19324701   0.00986469
9610.00   0.19732483   0.01006044
9612.00   0.20014828   0.01018554
9614.00   0.20194425   0.01009745
9616.00   0.20125201   0.00977774
9618.00   0.20946892   0.00988263
9620.00   0.23592724   0.01046313
9622.00   0.23974106   0.01065728
9624.00   0.21532311   0.01055234
9626.00   0.19187273   0.01030829
9628.00   0.18815194   0.00994120
9630.00   0.19453494   0.00941894
9632.00   0.20182686   0.00918246
9634.00   0.22379467   0.00917202
9636.00   0.22564487   0.00914001
9638.00   0.20789064   0.00919437
9640.00   0.19174020   0.00921443
9642.00   0.18441506   0.00914292
9644.00   0.18080206   0.00902682
9646.00   0.17901704   0.00894102
9648.00   0.17903100   0.00876110
9650.00   0.18352410   0.00884354
9652.00   0.19772235   0.00923842
9654.00   0.20458008   0.00948070
9656.00   0.19808914   0.00940255
9658.00   0.18803708   0.00930338
9660.00   0.18807717   0.00964277
9662.00   0.19303706   0.01029797
9664.00   0.20110390   0.01077496
9666.00   0.22119957   0.01147143
9668.00   0.22822842   0.01167173
9670.00   0.21621993   0.01107058
9672.00   0.20272148   0.01047453
9674.00   0.20605467   0.01091628
9676.00   0.22077353   0.01203144
9678.00   0.21679613   0.01220084
9680.00   0.19593649   0.01180877
9682.00   0.18397769   0.01143314
9684.00   0.17732014   0.01084167
9686.00   0.17323226   0.01030121
9688.00   0.17145948   0.01003141
9690.00   0.17205629   0.00993841
9692.00   0.17092954   0.00993187
9694.00   0.16783431   0.00977629
9696.00   0.16836149   0.01035787
9698.00   0.16873723   0.01184858
9700.00   0.17510946   0.01283272
9702.00   0.19477959   0.01309778
9704.00   0.21856195   0.01294543
9706.00   0.22058825   0.01237680
9708.00   0.20716625   0.01077763
9710.00   0.19186887   0.01018721
9712.00   0.16106682   0.01021346
9714.00   0.14207776   0.01050591
9716.00   0.14143719   0.01107123
9718.00   0.14702523   0.01181839
9720.00   0.14441058   0.01265730
9722.00   0.13724162   0.01384530
9724.00   0.13904540   0.01392487
9726.00   0.14514917   0.01301699
9728.00   0.15669563   0.01221745
9730.00   0.17993148   0.01122702
9732.00   0.20060438   0.01042333
9734.00   0.20537573   0.01049904
9736.00   0.20012188   0.01125498
9738.00   0.19035353   0.01135832
9740.00   0.16698450   0.01112617
9742.00   0.15320280   0.01100592
9744.00   0.14437833   0.01099527
9746.00   0.14033738   0.01087597
9748.00   0.14302982   0.01047073
9750.00   0.15084559   0.00987487
9752.00   0.15378566   0.00956217
9754.00   0.15510263   0.00938901
9756.00   0.15584812   0.00933706
9758.00   0.15633322   0.00953527
9760.00   0.15490885   0.00965417
9762.00   0.15078859   0.00958109
9764.00   0.14492199   0.00944195
9766.00   0.13845217   0.00942632
9768.00   0.12526044   0.00951346
9770.00   0.12928694   0.00948631
9772.00   0.15473093   0.00937752
9774.00   0.16805701   0.00928313
9776.00   0.16161709   0.00908505
9778.00   0.15206696   0.00901308
9780.00   0.15870254   0.00941872
9782.00   0.17685591   0.01012949
9784.00   0.18316059   0.01097468
9786.00   0.19226901   0.01224104
9788.00   0.18218197   0.01303024
9790.00   0.13730748   0.01350246
9792.00   0.10022627   0.01375164
9794.00   0.10882477   0.01378366
9796.00   0.14685957   0.01359847
9798.00   0.16539633   0.01329202
9800.00   0.18725716   0.01264786
9802.00   0.19235344   0.01220206
9804.00   0.17872535   0.01185944
9806.00   0.16276115   0.01159307
9808.00   0.14977799   0.01142299
9810.00   0.13714150   0.01133454
9812.00   0.13254535   0.01120220
9814.00   0.13704553   0.01111897
9816.00   0.13756728   0.01092296
9818.00   0.13846093   0.01058307
9820.00   0.13837139   0.01030001
9822.00   0.13474452   0.01009005
9824.00   0.13164367   0.00996580
9826.00   0.13860540   0.01004827
9828.00   0.15632188   0.01036627
9830.00   0.16454302   0.01055389
9832.00   0.17199190   0.01083504
9834.00   0.17140990   0.01088693
9836.00   0.15857500   0.01051444
9838.00   0.14293154   0.01014293
9840.00   0.13457690   0.01035086
9842.00   0.12800141   0.01095027
9844.00   0.13182361   0.01133070
9846.00   0.15257427   0.01182232
9848.00   0.16116241   0.01202479
9850.00   0.15587075   0.01194460
9852.00   0.15133780   0.01174328
9854.00   0.15909952   0.01149053
9856.00   0.17369962   0.01113943
9858.00   0.17371084   0.01088805
9860.00   0.15966415   0.01033290
9862.00   0.15397213   0.01058375
9864.00   0.15072468   0.01123674
9866.00   0.15132086   0.01248573
9868.00   0.15929988   0.01472407
9870.00   0.17073043   0.01705772
9872.00   0.17080522   0.01754454
9874.00   0.16856445   0.01672458
9876.00   0.15111022   0.01598902
9878.00   0.10217505   0.01433715
9880.00   0.07828709   0.01314780
9882.00   0.09964804   0.01307208
9884.00   0.13518329   0.01340290
9886.00   0.13918847   0.01309484
9888.00   0.12318183   0.01227303
9890.00   0.12117069   0.01230300
9892.00   0.12739369   0.01311970
9894.00   0.12728654   0.01362138
9896.00   0.11638666   0.01395819
9898.00   0.10656530   0.01405287
9900.00   0.11104199   0.01359754
9902.00   0.12623933   0.01253596
9904.00   0.12978622   0.01225019
9906.00   0.12893231   0.01209939
9908.00   0.12404346   0.01278050
9910.00   0.10980792   0.01450844
9912.00   0.09894948   0.01604103
9914.00   0.10129242   0.01701813
9916.00   0.11147364   0.01773975
9918.00   0.11386565   0.01748510
9920.00   0.10852089   0.01577766
9922.00   0.11332253   0.01486215
9924.00   0.13037279   0.01438275
9926.00   0.14187457   0.01391599
9928.00   0.13899286   0.01308076
9930.00   0.13036940   0.01227746
9932.00   0.13383269   0.01283204
9934.00   0.15595172   0.01467614
9936.00   0.14605998   0.01572603
9938.00   0.10492123   0.01637043
9940.00   0.07392418   0.01742569
9942.00   0.05200494   0.01919554
9944.00   0.04239684   0.02090232
9946.00   0.06480966   0.02169709
9948.00   0.12597056   0.02198644
9950.00   0.14362560   0.02208143
9952.00   0.13116747   0.02148901
9954.00   0.12679696   0.02142367
9956.00   0.12599073   0.02220110
9958.00   0.13036647   0.02283857
9960.00   0.15037757   0.02250812
9962.00   0.18615107   0.02152378
9964.00   0.17644082   0.02055309
9966.00   0.11918932   0.01899087
9968.00   0.08607920   0.01788449
9970.00   0.06186885   0.01719185
9972.00   0.04971780   0.01669155
9974.00   0.05802773   0.01634966
9976.00   0.08082313   0.01618895
9978.00   0.08434164   0.01577296
9980.00   0.07027712   0.01510498
9982.00   0.07297501   0.01464551
9984.00   0.08796261   0.01428496
9986.00   0.10190519   0.01401219
9988.00   0.11569531   0.01378640
9990.00   0.12575139   0.01367701
9992.00   0.11288238   0.01388734
9994.00   0.06964250   0.01449208
9996.00   0.05649337   0.01481282
9998.00   0.05951040   0.01490146
10000.00   0.06568783   0.01522818
10002.00   0.07405952   0.01547641
10004.00   0.08680257   0.01621625
10006.00   0.10662812   0.01835670
10008.00   0.13757315   0.02145959
10010.00   0.14713189   0.02341668
10012.00   0.12725957   0.02525239
10014.00   0.13448465   0.02641995
10016.00   0.17953710   0.02729336
10018.00   0.22219771   0.02741239
10020.00   0.23023503   0.02598314
10022.00   0.21795399   0.02295368
10024.00   0.20632869   0.02182210
10026.00   0.18540941   0.02259855
10028.00   0.16443224   0.02204007
10030.00   0.13474238   0.02022973
10032.00   0.11326686   0.01843270
10034.00   0.11183057   0.01739345
10036.00   0.12178227   0.01679691
10038.00   0.11879262   0.01648960
10040.00   0.10755291   0.01685576
10042.00   0.10179983   0.01689442
10044.00   0.09751709   0.01693985
10046.00   0.09479795   0.01687263
10048.00   0.09516308   0.01654452
10050.00   0.09617827   0.01616665
10052.00   0.09124593   0.01621973
10054.00   0.07800873   0.01635314
10056.00   0.07822473   0.01727383
10058.00   0.09800795   0.01945878
10060.00   0.09975965   0.02049307
10062.00   0.06604227   0.02020926
10064.00   0.03521924   0.01947370
10066.00   0.05616824   0.01907531
10068.00   0.11643945   0.01859844
10070.00   0.15330663   0.01860689
10072.00   0.21133256   0.01892566
10074.00   0.21526271   0.01952915
10076.00   0.15207098   0.02049926
10078.00   0.07779528   0.02155356
10080.00   0.02320726   0.02266322
10082.00   -0.02869664   0.02386341
10084.00   -0.02256730   0.02400085
10086.00   0.05830830   0.02303861
10088.00   0.09767868   0.02246380
10090.00   0.11361755   0.02162432
10092.00   0.12931378   0.02132062
10094.00   0.15952811   0.02227510
10096.00   0.19116434   0.02375352
10098.00   0.18555017   0.02383671
10100.00   0.14448495   0.02288595
10102.00   0.11137670   0.02218479
10104.00   0.05154822   0.02108532
10106.00   0.02583288   0.02026520
10108.00   0.06089376   0.01995846
10110.00   0.11682357   0.01992156
10112.00   0.13119981   0.01962962
10114.00   0.13453633   0.01804787
10116.00   0.09932144   0.02100118
10118.00   -0.00951486   0.02819438
10120.00   -0.06221974   0.03149178
10122.00   -0.04573604   0.03187484
10124.00   -0.00529379   0.03089221
10126.00   0.02605682   0.02908387
10128.00   0.06818361   0.02555903
10130.00   0.07570922   0.02346784
10132.00   0.03773793   0.02209304
10134.00   0.03512640   0.02106499
10136.00   0.06832747   0.02063062
10138.00   0.10393942   0.02057242
10140.00   0.12110121   0.02068183
10142.00   0.13065222   0.02106496
10144.00   0.15130360   0.02193521
10146.00   0.19277085   0.02309969
10148.00   0.20164086   0.02471403
10150.00   0.17900814   0.02745542
10152.00   0.15723230   0.02911890
10154.00   0.15119031   0.02903019
10156.00   0.14767843   0.02795207
10158.00   0.12233522   0.02696279
10160.00   0.06617729   0.02430151
10162.00   0.04649663   0.02483322
10164.00   0.04175213   0.02790123
10166.00   0.05574827   0.03072333
10168.00   0.10890815   0.03331403
10170.00   0.16425683   0.03571162
10172.00   0.14944336   0.03764094
10174.00   0.06955007   0.03996985
10176.00   0.05379892   0.03914621
10178.00   0.09148454   0.03353557
10180.00   0.09232108   0.03059291
10182.00   0.03079794   0.03183061
10184.00   -0.01978439   0.03382818
10186.00   0.01494203   0.03417968
10188.00   0.11005669   0.03404899
10190.00   0.16552433   0.03331450
10192.00   0.23159799   0.03126775
10194.00   0.25409532   0.03007867
10196.00   0.23031741   0.02915630
10198.00   0.19180167   0.02914039
10200.00   0.14307718   0.03035092
10202.00   0.08372838   0.03250121
10204.00   0.09277499   0.03581089
10206.00   0.18911971   0.04203851
10208.00   0.21713765   0.04381268
10210.00   0.21464282   0.04292479
10212.00   0.19177575   0.04102918
10214.00   0.13088064   0.03779664
10216.00   0.05896409   0.03351580
10218.00   0.06894553   0.03160667
10220.00   0.16758186   0.03133089
10222.00   0.18788287   0.03188606
10224.00   0.15916055   0.03455728
10226.00   0.14283203   0.03609534
10228.00   0.14136411   0.03619906
10230.00   0.14997190   0.03576026
10232.00   0.17680319   0.03557096
10234.00   0.22707129   0.03543548
10236.00   0.24947000   0.03453728
10238.00   0.27173582   0.03274731
10240.00   0.25909686   0.03103421
10242.00   0.19287565   0.02901842
10244.00   0.12398126   0.02726449
10246.00   0.08983142   0.02646733
10248.00   0.06948444   0.02639766
10250.00   0.11178201   0.02729928
10252.00   0.28009734   0.02998633
10254.00   0.31830189   0.03119577
10256.00   0.22503674   0.03104808
10258.00   0.13668244   0.03124195
10260.00   0.11626041   0.03288475
10262.00   0.12638883   0.03506515
10264.00   0.15123504   0.03552613
10266.00   0.24285740   0.03466258
10268.00   0.24518383   0.03409998
10270.00   0.16968185   0.03288538
10272.00   0.10588580   0.03232194
10274.00   0.06839911   0.03238546
10276.00   0.04799959   0.03336457
10278.00   0.06557722   0.03651972
10280.00   0.13028182   0.04111493
10282.00   0.16842413   0.04593533
10284.00   0.22139320   0.05327677
10286.00   0.23433742   0.05677729
10288.00   0.18237591   0.05622438
10290.00   0.11828822   0.05381894
10292.00   0.11102023   0.05129721
10294.00   0.14273074   0.04704225
10296.00   0.13434914   0.04580757
10298.00   0.09221578   0.04811135
10300.00   0.07539658   0.04820151
10302.00   0.06101378   0.04531401
10304.00   0.08341607   0.04288338
10306.00   0.19787167   0.04451968
10308.00   0.38632607   0.04858020
10310.00   0.42272988   0.04827218
10312.00   0.34823391   0.04462503
10314.00   0.27911571   0.04163156
10316.00   0.14844753   0.03742628
10318.00   0.06076169   0.03414945
10320.00   0.07809729   0.03382515
10322.00   0.15359861   0.03528460
10324.00   0.18670706   0.03529892
10326.00   0.23101693   0.03320993
10328.00   0.22791710   0.03530284
10330.00   0.16025324   0.04136847
10332.00   0.12376445   0.04524236
10334.00   0.14755407   0.04652854
10336.00   0.19382793   0.04648647
10338.00   0.21527255   0.04547666
10340.00   0.23907197   0.04247365
10342.00   0.22553171   0.04111730
10344.00   0.13115269   0.04036917
10346.00   0.12099521   0.04020895
10348.00   0.24830613   0.04103549
10350.00   0.38377574   0.04201319
10352.00   0.37965968   0.04215959
10354.00   0.27939019   0.04186697
10356.00   0.25512934   0.04155451
10358.00   0.25839737   0.04068355
10360.00   0.26529616   0.04049186
10362.00   0.29245377   0.04082360
10364.00   0.30931491   0.04159412
10366.00   0.28908002   0.04282088
10368.00   0.24492337   0.04444995
10370.00   0.21853586   0.04614140
10372.00   0.17528632   0.04877589
10374.00   0.18156292   0.04975756
10376.00   0.23570366   0.04906004
10378.00   0.29979205   0.04861907
10380.00   0.38122264   0.04977548
10382.00   0.46334931   0.05120545
10384.00   0.44174737   0.04945919
10386.00   0.30756366   0.04257485
10388.00   0.23344748   0.04115546
10390.00   0.15188852   0.04457667
10392.00   0.10770553   0.04649981
10394.00   0.12163818   0.04629137
10396.00   0.15989506   0.04503106
10398.00   0.17014401   0.04283698
10400.00   0.17211768   0.03850469
10402.00   0.17261484   0.03676168
10404.00   0.17356496   0.03581430
10406.00   0.16280049   0.03734318
10408.00   0.11409451   0.04203486
10410.00   0.08599999   0.04698375
10412.00   0.15525162   0.05029538
10414.00   0.30602852   0.05313924
10416.00   0.35109824   0.05503607
10418.00   0.33968630   0.05687391
10420.00   0.31153044   0.05676019
10422.00   0.21537745   0.05432826
10424.00   0.15877272   0.05112467
10426.00   0.22614813   0.04777294
10428.00   0.37006035   0.04382467
10430.00   0.44600403   0.04179916
10432.00   0.54035860   0.04219476
10434.00   0.53454411   0.04129818
10436.00   0.40420821   0.03982436
10438.00   0.29661202   0.03835819
10440.00   0.24920389   0.03609101
10442.00   0.23775783   0.03421191
10444.00   0.28724858   0.03781774
10446.00   0.44274259   0.04720352
10448.00   0.49327299   0.04979680
10450.00   0.46254194   0.04908108
10452.00   0.46505767   0.04808391
10454.00   0.53083050   0.04604958
10456.00   0.60585421   0.04437201
10458.00   0.62677950   0.04693150
10460.00   0.62158585   0.05344977
10462.00   0.57954377   0.05406017
10464.00   0.46523106   0.05041898
10466.00   0.39647552   0.04747193
10468.00   0.38071603   0.04474781
10470.00   0.37416559   0.04225590
10472.00   0.34651157   0.04039513
10474.00   0.31279412   0.03897727
10476.00   0.26130909   0.03947406
10478.00   0.13856237   0.04311603
10480.00   0.12802516   0.04417321
10482.00   0.25222856   0.04337391
10484.00   0.36413965   0.04203308
10486.00   0.38003913   0.04043628
10488.00   0.35097307   0.03843227
10490.00   0.36112732   0.03791092
10492.00   0.40435970   0.03909077
10494.00   0.40097651   0.03918923
10496.00   0.34938326   0.03736774
10498.00   0.31380510   0.03800085
10500.00   0.31499910   0.04311057
10502.00   0.33205193   0.04921889
10504.00   0.33980152   0.05206041
10506.00   0.34122002   0.05430151
10508.00   0.36400476   0.05360260
10510.00   0.42007461   0.04854264
10512.00   0.45030168   0.04475241
10514.00   0.42985171   0.04291561
10516.00   0.40949941   0.04237077
10518.00   0.46602470   0.04343686
10520.00   0.60130477   0.04664681
10522.00   0.59405994   0.04704851
10524.00   0.44453788   0.04538763
10526.00   0.36996880   0.04441193
10528.00   0.36154020   0.04385852
10530.00   0.37615648   0.04359769
10532.00   0.39426628   0.04363525
10534.00   0.42649919   0.04394371
10536.00   0.44980270   0.04502883
10538.00   0.48761207   0.04776599
10540.00   0.48942912   0.04856761
10542.00   0.45900911   0.04764852
10544.00   0.41479987   0.04661932
10546.00   0.34611773   0.04610167
10548.00   0.26708353   0.04576356
10550.00   0.28324428   0.04599218
10552.00   0.42494819   0.04708930
10554.00   0.46046230   0.04753152
10556.00   0.42157570   0.04773105
10558.00   0.40788791   0.04780644
10560.00   0.45093331   0.04766826
10562.00   0.51225650   0.04747791
10564.00   0.54182231   0.04769603
10566.00   0.56170136   0.04830629
10568.00   0.56058407   0.04855672
10570.00   0.52634245   0.04837932
10572.00   0.50492722   0.04866606
10574.00   0.50394475   0.04990876
10576.00   0.50369143   0.05097708
10578.00   0.48050025   0.05036131
10580.00   0.43504062   0.04814203
10582.00   0.43940708   0.04841926
10584.00   0.48194295   0.05110591
10586.00   0.52616012   0.05224435
10588.00   0.59912258   0.05222810
10590.00   0.64997286   0.05169578
10592.00   0.62934673   0.05074826
10594.00   0.55978787   0.04926613
10596.00   0.53678465   0.04868148
10598.00   0.53286034   0.04872811
10600.00   0.53067404   0.04875064
10602.00   0.54950988   0.04919952
10604.00   0.54992419   0.04930628
10606.00   0.49714378   0.04841318
10608.00   0.42451897   0.04711537
10610.00   0.43991640   0.04746556
10612.00   0.56267154   0.04995345
10614.00   0.58328456   0.05008663
10616.00   0.52802980   0.04823047
10618.00   0.49802563   0.04712031
10620.00   0.52078086   0.04770621
10622.00   0.55740124   0.04867760
10624.00   0.56046873   0.04826260
10626.00   0.54577142   0.04672943
10628.00   0.52868152   0.04614777
10630.00   0.47976071   0.04595039
10632.00   0.47247717   0.04595778
10634.00   0.52585673   0.04639371
10636.00   0.58861721   0.04680519
10638.00   0.60715669   0.04663024
10640.00   0.59919435   0.04605019
10642.00   0.62103570   0.04567725
10644.00   0.67652267   0.04524240
10646.00   0.69539601   0.04496018
10648.00   0.68383271   0.04496257
10650.00   0.65585005   0.04485040
10652.00   0.61042410   0.04437891
10654.00   0.54827905   0.04366749
10656.00   0.52411395   0.04271021
10658.00   0.53267592   0.04116944
10660.00   0.52842158   0.04007540
10662.00   0.53091413   0.03940574
10664.00   0.51896316   0.03859168
10666.00   0.47012991   0.03719241
10668.00   0.41006267   0.03562386
10670.00   0.41589990   0.03517855
10672.00   0.48633346   0.03574377
10674.00   0.51755244   0.03609733
10676.00   0.55998439   0.03701016
10678.00   0.55901754   0.03731382
10680.00   0.48104078   0.03685597
10682.00   0.38564315   0.03587671
10684.00   0.36707014   0.03438269
10686.00   0.39696690   0.03175477
10688.00   0.42046329   0.03079871
10690.00   0.47815523   0.03137083
10692.00   0.49972910   0.03157712
10694.00   0.47218546   0.03150135
10696.00   0.43864614   0.03136348
10698.00   0.43840593   0.03105778
10700.00   0.45636284   0.03047666
10702.00   0.45776355   0.03136877
10704.00   0.46002746   0.03423501
10706.00   0.44450593   0.03529383
10708.00   0.39155629   0.03547380
10710.00   0.35848826   0.03456312
10712.00   0.39011598   0.03158077
10714.00   0.45853004   0.02659439
10716.00   0.46658739   0.02470662
10718.00   0.41844174   0.02602201
10720.00   0.41476390   0.02586826
10722.00   0.43640587   0.02537340
10724.00   0.46157512   0.02490609
10726.00   0.49312514   0.02454372
10728.00   0.52317148   0.02423987
10730.00   0.51335281   0.02401698
10732.00   0.45296720   0.02345971
10734.00   0.44406590   0.02421736
10736.00   0.47205973   0.02686192
10738.00   0.48952693   0.02796339
10740.00   0.49624392   0.02713358
10742.00   0.49320415   0.02543783
10744.00   0.46879613   0.02390791
10746.00   0.41740733   0.02173649
10748.00   0.40305847   0.02078023
10750.00   0.41374180   0.02099820
10752.00   0.42370066   0.02112545
10754.00   0.43798351   0.02124453
10756.00   0.45204440   0.02150796
10758.00   0.46256465   0.02212774
10760.00   0.47247708   0.02307250
10762.00   0.45966953   0.02276139
10764.00   0.41262662   0.02116412
10766.00   0.39236513   0.01992890
10768.00   0.39872852   0.01801637
10770.00   0.39971396   0.01715417
10772.00   0.37427682   0.01913756
10774.00   0.33745643   0.02223701
10776.00   0.33343357   0.02239910
10778.00   0.34551576   0.02004377
10780.00   0.37652987   0.01903890
10782.00   0.46338040   0.01858787
10784.00   0.50273889   0.01800351
10786.00   0.45538777   0.01670511
10788.00   0.36849433   0.01539832
10790.00   0.31349918   0.01608132
10792.00   0.25474760   0.01881260
10794.00   0.22684829   0.01939918
10796.00   0.21749474   0.01900123
10798.00   0.23158182   0.01835685
10800.00   0.28658473   0.01724774
10802.00   0.34697479   0.01593673
10804.00   0.36115161   0.01502916
10806.00   0.34139848   0.01428092
10808.00   0.35707995   0.01394792
10810.00   0.42010957   0.01432493
10812.00   0.42430282   0.01436206
10814.00   0.34615159   0.01412913
10816.00   0.27515382   0.01380567
10818.00   0.28244275   0.01339448
10820.00   0.33560973   0.01285626
10822.00   0.35392833   0.01293913
10824.00   0.37300876   0.01362772
10826.00   0.36668336   0.01411342
10828.00   0.30732143   0.01471843
10830.00   0.28155327   0.01509210
