# File created by shivutils (I.Shivvers)
# wl(A)   flm    er(optional)
3444.00   25.15317917   0.22131811
3446.00   24.68695450   0.22203599
3448.00   24.53340340   0.23289369
3450.00   24.77080345   0.23022710
3452.00   24.40582848   0.23127043
3454.00   25.04776955   0.23665856
3456.00   24.91798973   0.23830271
3458.00   25.18502426   0.24097797
3460.00   25.19863892   0.24398667
3462.00   25.52055740   0.24759743
3464.00   25.44494438   0.24892388
3466.00   25.36515808   0.25046766
3468.00   25.32033730   0.25289741
3470.00   25.81256485   0.25592914
3472.00   26.21826172   0.25871518
3474.00   26.75826454   0.26207602
3476.00   26.67764091   0.26340824
3478.00   27.64139748   0.26979667
3480.00   27.55858803   0.27143398
3482.00   28.40865135   0.27571121
3484.00   28.60381889   0.27863947
3486.00   29.86526489   0.28526384
3488.00   29.39435577   0.28411630
3490.00   30.56405258   0.29008740
3492.00   30.79594803   0.29255894
3494.00   30.96852303   0.29477644
3496.00   31.02794266   0.29641739
3498.00   31.23679352   0.29886487
3500.00   31.95068741   0.30365780
3502.00   32.98981857   0.30842325
3504.00   33.26314926   0.31064138
3506.00   33.49275589   0.31246442
3508.00   33.41680527   0.31266955
3510.00   33.70267868   0.31359538
3512.00   33.70603180   0.31289145
3514.00   33.90379715   0.32178444
3516.00   32.71389771   0.30944848
3518.00   32.81115341   0.31074944
3520.00   33.37165451   0.31150159
3522.00   33.73970795   0.31213129
3524.00   33.65726089   0.31079197
3526.00   33.24481583   0.30957457
3528.00   34.19308090   0.31421119
3530.00   33.23599243   0.30980882
3532.00   33.64960861   0.31132370
3534.00   33.65212631   0.31145069
3536.00   33.72426224   0.31162560
3538.00   33.93930054   0.31201708
3540.00   33.62588501   0.30996436
3542.00   33.83382797   0.30992800
3544.00   34.74057770   0.31375617
3546.00   34.73887253   0.31266919
3548.00   34.27302933   0.30990085
3550.00   35.13376617   0.31197876
3552.00   35.02968597   0.30960724
3554.00   35.19123840   0.30912289
3556.00   35.79869080   0.30987382
3558.00   36.29499054   0.31011817
3560.00   36.16969299   0.30826268
3562.00   35.82232285   0.30483180
3564.00   36.28337479   0.30382851
3566.00   35.92775726   0.29969454
3568.00   36.38058853   0.29968017
3570.00   35.70954895   0.29563999
3572.00   34.94178772   0.29088825
3574.00   34.12406540   0.28623891
3576.00   35.19635391   0.28860012
3578.00   34.16514587   0.28274268
3580.00   33.88471603   0.27963299
3582.00   34.02751923   0.27785110
3584.00   33.25230408   0.27341339
3586.00   32.82886505   0.27039862
3588.00   32.84596252   0.27026257
3590.00   32.76848602   0.26895854
3592.00   32.24367523   0.26546788
3594.00   31.51770401   0.26166278
3596.00   30.85817146   0.25762054
3598.00   31.29152298   0.25837436
3600.00   30.86922073   0.25576755
3602.00   31.06255341   0.25391772
3604.00   31.61142540   0.25490409
3606.00   32.02391434   0.25518331
3608.00   31.80493355   0.25333443
3610.00   32.02445602   0.25324416
3612.00   32.56341553   0.25452766
3614.00   32.84359360   0.25478241
3616.00   33.31341934   0.25458127
3618.00   33.94604492   0.25428388
3620.00   34.70108032   0.25579384
3622.00   34.40410233   0.25398421
3624.00   35.19857788   0.25565994
3626.00   35.02999115   0.25403938
3628.00   35.81581879   0.25544792
3630.00   36.01729584   0.25416270
3632.00   35.44496918   0.25068402
3634.00   35.51657104   0.24970056
3636.00   34.56335068   0.24529986
3638.00   33.74826431   0.24232191
3640.00   33.50906754   0.24072210
3642.00   32.83915329   0.23686621
3644.00   33.10288620   0.23600131
3646.00   32.14342499   0.23196580
3648.00   31.03599930   0.22936226
3650.00   30.93104935   0.22899215
3652.00   30.14670944   0.22441737
3654.00   29.43381119   0.22041106
3656.00   28.26628113   0.21505320
3658.00   27.91062164   0.21218885
3660.00   27.15800858   0.20887206
3662.00   26.27596283   0.20503105
3664.00   25.70411110   0.20198385
3666.00   25.22561455   0.19875807
3668.00   24.33910370   0.19458076
3670.00   24.02292824   0.19231415
3672.00   23.37340164   0.18911813
3674.00   22.22770500   0.18437058
3676.00   21.86376381   0.18179470
3678.00   21.64590836   0.17982647
3680.00   21.38920212   0.17837572
3682.00   20.87374496   0.17575721
3684.00   20.41360474   0.17298569
3686.00   20.34358978   0.17195518
3688.00   19.31271362   0.16766523
3690.00   19.37937355   0.16795413
3692.00   19.11629677   0.16608860
3694.00   18.65803719   0.16325724
3696.00   18.72137642   0.16308947
3698.00   18.65293884   0.16260433
3700.00   18.00106621   0.15956779
3702.00   17.90010452   0.15805230
3704.00   18.30657196   0.15801688
3706.00   17.89333153   0.15581785
3708.00   17.63264084   0.15469074
3710.00   17.30600548   0.15313153
3712.00   17.51258469   0.15394583
3714.00   17.20975304   0.15239899
3716.00   16.93640327   0.15035075
3718.00   17.22040176   0.15001133
3720.00   17.44488335   0.14883894
3722.00   17.48040581   0.14924268
3724.00   17.54812622   0.14962456
3726.00   17.48466682   0.14886281
3728.00   17.68641663   0.14930712
3730.00   18.09810257   0.15020515
3732.00   18.51569557   0.15003920
3734.00   18.28529930   0.14792004
3736.00   18.36504555   0.14808547
3738.00   18.08993721   0.14791287
3740.00   18.23518562   0.14852583
3742.00   18.35988617   0.14858185
3744.00   18.41885948   0.14739595
3746.00   18.76613426   0.14736763
3748.00   18.80011177   0.14715619
3750.00   18.37061691   0.14569636
3752.00   18.05187225   0.14555162
3754.00   17.91811943   0.14502239
3756.00   18.21513748   0.14515723
3758.00   17.78165817   0.14300406
3760.00   18.24692917   0.14432847
3762.00   18.02883339   0.14325173
3764.00   18.21602821   0.14354512
3766.00   18.12363625   0.14341983
3768.00   18.02630806   0.14281853
3770.00   18.36558151   0.14389539
3772.00   18.00704956   0.14281069
3774.00   18.09386826   0.14311811
3776.00   18.29441833   0.14351502
3778.00   18.22382545   0.14308894
3780.00   18.27196884   0.14327666
3782.00   18.37139893   0.14336435
3784.00   18.51588821   0.14350867
3786.00   18.80354118   0.14355770
3788.00   18.67027473   0.14299546
3790.00   18.98182678   0.14365047
3792.00   19.02174568   0.14338261
3794.00   19.36051559   0.14399309
3796.00   19.38412285   0.14320429
3798.00   19.41361237   0.14957720
3800.00   19.49025345   0.14323701
3802.00   19.56822205   0.14362793
3804.00   19.89780617   0.14406519
3806.00   19.91788101   0.14329606
3808.00   20.33047104   0.14425983
3810.00   20.75440788   0.14540623
3812.00   21.30872345   0.14653285
3814.00   21.66345978   0.14670119
3816.00   22.30130959   0.14815521
3818.00   22.86154366   0.14968225
3820.00   23.19807625   0.15014406
3822.00   23.96151733   0.15242720
3824.00   24.41461945   0.15306425
3826.00   25.04306221   0.15430531
3828.00   25.69886589   0.15618131
3830.00   26.02165604   0.15663679
3832.00   26.43384743   0.15722907
3834.00   27.21485329   0.15901081
3836.00   27.97952080   0.16088374
3838.00   28.26642609   0.16106690
3840.00   28.75606918   0.16257058
3842.00   29.50631714   0.16437696
3844.00   30.46452904   0.16685393
3846.00   30.94171906   0.16772559
3848.00   31.74826050   0.16949467
3850.00   32.81957245   0.17164923
3852.00   33.49880600   0.17307395
3854.00   34.24055481   0.17470942
3856.00   35.49267960   0.17733707
3858.00   36.21035385   0.17856772
3860.00   36.91870117   0.18009807
3862.00   37.40786743   0.18126148
3864.00   38.39287949   0.18330216
3866.00   38.93157959   0.18435848
3868.00   39.56070328   0.18494284
3870.00   39.58405304   0.18486074
3872.00   40.00592422   0.18527029
3874.00   40.33068085   0.18611878
3876.00   40.91053772   0.18689375
3878.00   40.84807587   0.18620950
3880.00   41.03962708   0.18598424
3882.00   41.22807693   0.18621731
3884.00   41.69000244   0.18683335
3886.00   41.88112259   0.18683532
3888.00   41.69711304   0.18595932
3890.00   42.20116806   0.18696414
3892.00   42.16651917   0.18677220
3894.00   42.43007278   0.18700619
3896.00   42.43216324   0.18678546
3898.00   42.92911530   0.18746679
3900.00   43.38113022   0.18794027
3902.00   43.93592834   0.18878311
3904.00   44.24131012   0.18932365
3906.00   44.43082428   0.18979205
3908.00   44.25981903   0.18938109
3910.00   44.24466705   0.18952122
3912.00   44.29809570   0.18929502
3914.00   44.91440964   0.18996352
3916.00   45.54718781   0.19008994
3918.00   45.16320038   0.18849649
3920.00   45.62142563   0.18905209
3922.00   45.77171326   0.18892789
3924.00   46.21246719   0.18961246
3926.00   46.35117340   0.18945420
3928.00   46.76489258   0.18927214
3930.00   46.00820923   0.19095796
3932.00   43.85966110   0.18311638
3934.00   44.66402435   0.18423903
3936.00   45.81580353   0.18632041
3938.00   45.20535660   0.18522337
3940.00   44.75244904   0.18427318
3942.00   44.44760132   0.18351226
3944.00   43.40116501   0.18182757
3946.00   43.19381714   0.18695679
3948.00   42.35586548   0.17817327
3950.00   42.09233093   0.17799056
3952.00   41.13137817   0.17594282
3954.00   40.81656265   0.17501393
3956.00   40.32291031   0.17411292
3958.00   40.57717133   0.17439964
3960.00   40.17031479   0.17347673
3962.00   40.71338654   0.17403829
3964.00   39.80986786   0.17174242
3966.00   38.54906845   0.16867268
3968.00   38.47650528   0.16831641
3970.00   38.93367767   0.16933919
3972.00   38.47861099   0.16860540
3974.00   38.32514191   0.16813184
3976.00   37.54761887   0.16672418
3978.00   37.31847763   0.16617139
3980.00   37.31560516   0.16591606
3982.00   36.81919098   0.16454101
3984.00   36.52787018   0.16369174
3986.00   36.38528442   0.16328080
3988.00   36.59039688   0.16381115
3990.00   36.42168045   0.16355258
3992.00   36.63456726   0.16390020
3994.00   36.59669495   0.16385762
3996.00   36.73219299   0.16397870
3998.00   36.51166916   0.16331387
4000.00   36.58668518   0.16324072
4002.00   36.82362747   0.16357021
4004.00   36.92244720   0.16331489
4006.00   37.07356262   0.16339125
4008.00   37.36215591   0.16394912
4010.00   37.36481476   0.16376349
4012.00   37.79284668   0.16439027
4014.00   37.90486526   0.16435391
4016.00   38.10388565   0.16450071
4018.00   38.71526337   0.16578540
4020.00   39.21730423   0.16668680
4022.00   39.64274216   0.16725212
4024.00   39.63311005   0.16690002
4026.00   40.22359467   0.16758026
4028.00   40.80661011   0.16819498
4030.00   41.22573471   0.16845736
4032.00   41.75214386   0.16873230
4034.00   42.01422882   0.16891223
4036.00   41.89490128   0.16874620
4038.00   42.61638641   0.16990651
4040.00   43.03929138   0.17019966
4042.00   43.60898972   0.17112078
4044.00   43.96244049   0.17324878
4046.00   44.21355057   0.17468014
4048.00   44.29982376   0.17340857
4050.00   44.30455399   0.17109723
4052.00   44.65121460   0.17100972
4054.00   44.77983475   0.17101985
4056.00   45.28543091   0.17138104
4058.00   45.29106522   0.17091647
4060.00   45.57552338   0.17095904
4062.00   45.96307755   0.17114696
4064.00   46.80307388   0.17223199
4066.00   47.05555344   0.17253128
4068.00   46.91180038   0.17219135
4070.00   47.38707352   0.17252430
4072.00   47.36825562   0.17217076
4074.00   47.74024963   0.17259017
4076.00   47.73587036   0.17235300
4078.00   48.09635162   0.17268689
4080.00   48.08615494   0.17246629
4082.00   48.00734329   0.17183290
4084.00   48.43746567   0.17230459
4086.00   48.61141205   0.17226459
4088.00   48.69419098   0.17221886
4090.00   48.77008820   0.17181879
4092.00   48.77520370   0.17154139
4094.00   48.59031677   0.17083199
4096.00   48.94727325   0.17107284
4098.00   49.10713959   0.17112736
4100.00   49.20788574   0.17065924
4102.00   49.42706680   0.17064767
4104.00   48.95195007   0.16993484
4106.00   48.80090714   0.16956194
4108.00   48.98830032   0.16961396
4110.00   48.90206528   0.16903599
4112.00   49.52955246   0.16968684
4114.00   49.23720932   0.16898997
4116.00   48.92124557   0.16819145
4118.00   48.63996887   0.16733292
4120.00   48.17180634   0.16633277
4122.00   47.63920975   0.16518529
4124.00   47.45442200   0.16455761
4126.00   46.84204102   0.16323796
4128.00   46.21660995   0.16196498
4130.00   46.09820938   0.16141750
4132.00   45.82692337   0.16047041
4134.00   45.45019150   0.15955718
4136.00   45.55066299   0.15941760
4138.00   45.07566071   0.15854968
4140.00   45.46264648   0.15888901
4142.00   45.28731537   0.15801355
4144.00   45.46297836   0.15777366
4146.00   45.18424606   0.15713118
4148.00   44.89783096   0.15653479
4150.00   44.61635590   0.15581818
4152.00   43.95220566   0.15441948
4154.00   44.28321838   0.15445766
4156.00   44.37911606   0.15430126
4158.00   43.42941666   0.15244178
4160.00   43.24789047   0.15187187
4162.00   43.14598846   0.15156229
4164.00   42.98096848   0.15111302
4166.00   42.45680618   0.14984570
4168.00   42.60031891   0.14954321
4170.00   42.56623077   0.14886792
4172.00   42.50416565   0.14836237
4174.00   42.67642593   0.14835058
4176.00   42.91986847   0.14853017
4178.00   42.61424255   0.14792331
4180.00   42.69207382   0.14762911
4182.00   42.30706024   0.14670143
4184.00   42.36092758   0.14643238
4186.00   42.07993698   0.14584066
4188.00   41.73133087   0.14496130
4190.00   41.59625244   0.14477897
4192.00   41.41499329   0.14427239
4194.00   40.59572220   0.14265236
4196.00   40.10448456   0.14150555
4198.00   39.95483780   0.14094315
4200.00   39.39821243   0.13972183
4202.00   38.94176865   0.13888687
4204.00   38.36788940   0.13788234
4206.00   38.20898438   0.13751884
4208.00   37.76813507   0.13648124
4210.00   37.68587875   0.13607623
4212.00   36.54862976   0.13381651
4214.00   36.41699219   0.13313949
4216.00   36.01142502   0.13212787
4218.00   35.73275375   0.13130952
4220.00   35.36080551   0.13052329
4222.00   34.95777512   0.12954435
4224.00   34.91847229   0.12897250
4226.00   34.54295731   0.12805364
4228.00   34.27579498   0.12759897
4230.00   33.98808670   0.12716743
4232.00   33.60336304   0.12625974
4234.00   33.19062424   0.12522241
4236.00   32.74612045   0.12429764
4238.00   32.51062775   0.12369502
4240.00   31.95065117   0.12238050
4242.00   31.58530617   0.12147303
4244.00   31.35251617   0.12124051
4246.00   30.70176888   0.12010054
4248.00   30.61444283   0.11948548
4250.00   29.88458252   0.11791965
4252.00   29.52926064   0.11716102
4254.00   28.99053001   0.11604288
4256.00   28.60950470   0.11522453
4258.00   28.15628624   0.11420725
4260.00   27.77083397   0.11332352
4262.00   27.23692322   0.11240949
4264.00   26.58511543   0.11126494
4266.00   26.32450867   0.11177798
4268.00   26.01399612   0.10936262
4270.00   25.84362984   0.10874955
4272.00   25.06552505   0.10699909
4274.00   24.96442413   0.10680186
4276.00   24.56667900   0.10613335
4278.00   24.38944435   0.10581882
4280.00   24.23242188   0.10526623
4282.00   24.11377144   0.10505813
4284.00   24.07379341   0.10468129
4286.00   23.65031624   0.10365178
4288.00   23.79170799   0.10362006
4290.00   23.78647995   0.10336504
4292.00   23.56310463   0.10281851
4294.00   23.73490334   0.10306729
4296.00   23.75571823   0.10344971
4298.00   23.95738220   0.10281713
4300.00   23.89817619   0.10239173
4302.00   23.97834396   0.10232350
4304.00   24.31298065   0.10288998
4306.00   24.27917671   0.10275564
4308.00   24.49667931   0.10291600
4310.00   24.58695412   0.10309827
4312.00   24.54850197   0.10347409
4314.00   24.83260727   0.10426679
4316.00   25.16335487   0.10472794
4318.00   25.39676285   0.10524927
4320.00   25.59760857   0.10558128
4322.00   26.04744720   0.10600229
4324.00   26.54488564   0.10656688
4326.00   26.82404137   0.10702396
4328.00   27.00651550   0.10754108
4330.00   26.99815750   0.10767647
4332.00   27.53622246   0.10878582
4334.00   27.54470253   0.10879108
4336.00   27.87362289   0.10923107
4338.00   27.75973320   0.10873134
4340.00   28.04059029   0.10905194
4342.00   27.81909752   0.10868653
4344.00   27.76974297   0.10861963
4346.00   27.55229187   0.10853634
4348.00   27.72033691   0.10877293
4350.00   27.72068977   0.10855271
4352.00   27.74489212   0.10838418
4354.00   27.79151726   0.10941978
4356.00   27.44267654   0.11243401
4358.00   27.68804741   0.11433032
4360.00   27.77180481   0.11219572
4362.00   27.96158028   0.11001956
4364.00   28.06951141   0.10907034
4366.00   28.29310608   0.10919761
4368.00   28.64322281   0.10949622
4370.00   28.91865921   0.10992056
4372.00   28.86389160   0.10969105
4374.00   29.12327385   0.11001848
4376.00   29.16976357   0.10995909
4378.00   29.34315872   0.11018264
4380.00   29.37750053   0.10997690
4382.00   29.63401031   0.11004193
4384.00   29.84021187   0.11003804
4386.00   29.77900314   0.10994565
4388.00   29.87130737   0.11004835
4390.00   30.04837990   0.11016033
4392.00   29.94986534   0.10993993
4394.00   29.59541130   0.10928371
4396.00   29.67545891   0.10944241
4398.00   29.47384453   0.10915527
4400.00   29.22649765   0.10859034
4402.00   29.05981255   0.10814685
4404.00   28.59869194   0.10715877
4406.00   28.47568321   0.10696758
4408.00   28.19457817   0.10654750
4410.00   27.84844208   0.10609511
4412.00   27.88349915   0.10607453
4414.00   27.82227898   0.10593244
4416.00   27.51280022   0.10533963
4418.00   27.51506042   0.10529494
4420.00   27.37946701   0.10483386
4422.00   27.28298187   0.10456442
4424.00   26.91529655   0.10380860
4426.00   26.94316483   0.10386334
4428.00   27.18775177   0.10424130
4430.00   27.27085876   0.10439518
4432.00   27.19316483   0.10416019
4434.00   27.28465271   0.10419074
4436.00   27.34242058   0.10424237
4438.00   27.73074913   0.10488650
4440.00   27.67211723   0.10485506
4442.00   27.85507774   0.10498409
4444.00   27.86550522   0.10493734
4446.00   28.20877457   0.10551440
4448.00   28.31689262   0.10548542
4450.00   28.85684967   0.10641415
4452.00   29.09740448   0.10682260
4454.00   29.65317917   0.10764268
4456.00   29.92767525   0.10806623
4458.00   30.25470161   0.10856657
4460.00   30.78790092   0.10946693
4462.00   31.18561554   0.11011156
4464.00   31.47962570   0.11061762
4466.00   31.88258743   0.11126637
4468.00   32.64611435   0.11246869
4470.00   33.00517273   0.11304220
4472.00   33.40225601   0.11358222
4474.00   33.78561783   0.11404870
4476.00   33.93853760   0.11411540
4478.00   34.35479736   0.11458667
4480.00   34.49385452   0.11478583
4482.00   34.88282394   0.11534649
4484.00   35.16868973   0.11589891
4486.00   35.27799988   0.11610276
4488.00   35.44764328   0.11634192
4490.00   35.68566132   0.11682416
4492.00   35.67932510   0.11672577
4494.00   35.80778885   0.11689144
4496.00   36.29572296   0.11764298
4498.00   36.48300171   0.11788399
4500.00   36.61469650   0.11816004
4502.00   36.87216568   0.11841910
4504.00   36.69728851   0.11815512
4506.00   37.04076767   0.11862577
4508.00   37.22929382   0.11881332
4510.00   37.30855179   0.11891358
4512.00   37.52267456   0.11910252
4514.00   37.60321808   0.11907289
4516.00   37.89242935   0.11952674
4518.00   37.80133057   0.11949705
4520.00   37.71699905   0.11929479
4522.00   37.82662201   0.11942065
4524.00   38.07695770   0.11963131
4526.00   37.94132614   0.11944520
4528.00   37.94535065   0.11934371
4530.00   37.56216431   0.11874989
4532.00   37.10804749   0.11806234
4534.00   37.09154510   0.11809179
4536.00   36.83372498   0.11768326
4538.00   36.84572220   0.11768387
4540.00   36.80578613   0.11758824
4542.00   36.79111481   0.11755019
4544.00   36.49742889   0.11699596
4546.00   36.53451920   0.11691300
4548.00   36.55542374   0.11681169
4550.00   36.34783554   0.11645407
4552.00   36.24445343   0.11631492
4554.00   36.20094299   0.11631158
4556.00   36.10947418   0.11611636
4558.00   36.07555771   0.11612250
4560.00   36.30062485   0.11640884
4562.00   36.31737900   0.11633147
4564.00   36.41779327   0.11642875
4566.00   36.62425995   0.11663859
4568.00   36.50771713   0.11646158
4570.00   36.45967102   0.11632838
4572.00   36.37410736   0.11614095
4574.00   36.49132919   0.11626445
4576.00   36.39810944   0.11602895
4578.00   36.28629303   0.11582379
4580.00   36.15901184   0.11552554
4582.00   36.15291595   0.11543271
4584.00   35.84919739   0.11490224
4586.00   35.78380203   0.11477144
4588.00   35.70903397   0.11470685
4590.00   35.52007675   0.11435755
4592.00   35.50533295   0.11434126
4594.00   35.49881363   0.11432205
4596.00   35.53633118   0.11414997
4598.00   35.42454529   0.11396506
4600.00   35.15472794   0.11344782
4602.00   34.94528580   0.11309005
4604.00   34.58116150   0.11255558
4606.00   34.45086288   0.11241101
4608.00   34.45660019   0.11245463
4610.00   33.73622513   0.11143478
4612.00   33.63355255   0.11124504
4614.00   33.35801315   0.11071847
4616.00   33.12899399   0.11024614
4618.00   32.58305740   0.10939633
4620.00   32.38197708   0.10913976
4622.00   31.83437538   0.10830522
4624.00   31.70318031   0.10803691
4626.00   31.11693764   0.10711317
4628.00   31.00128174   0.10683542
4630.00   30.52619553   0.10604657
4632.00   30.04604530   0.10536436
4634.00   29.90412140   0.10506520
4636.00   29.78553009   0.10476451
4638.00   29.32578087   0.10402174
4640.00   28.93988609   0.10339789
4642.00   29.03322792   0.10346343
4644.00   28.68161392   0.10273693
4646.00   28.63410950   0.10258830
4648.00   28.28615570   0.10205709
4650.00   28.21195030   0.10186353
4652.00   27.81089783   0.10121666
4654.00   27.79168129   0.10114146
4656.00   27.54457855   0.10061399
4658.00   27.51150894   0.10062990
4660.00   27.72049904   0.10092124
4662.00   27.52417946   0.10048962
4664.00   27.29559898   0.09994214
4666.00   27.53258324   0.10022837
4668.00   27.36832619   0.09996627
4670.00   27.33869934   0.09993980
4672.00   27.20160103   0.09964602
4674.00   27.28343773   0.09968229
4676.00   27.40452385   0.09984960
4678.00   27.08235550   0.09922373
4680.00   26.99498177   0.09902462
4682.00   26.93366623   0.09887364
4684.00   27.09795761   0.09907611
4686.00   26.83651161   0.09860675
4688.00   26.79193115   0.09847428
4690.00   26.90468216   0.09856610
4692.00   26.65911865   0.09810734
4694.00   26.79768944   0.09833406
4696.00   26.58534813   0.09802908
4698.00   26.59170151   0.09778069
4700.00   26.76173782   0.09799837
4702.00   26.85824585   0.09810680
4704.00   26.60351372   0.09762684
4706.00   26.58212662   0.09762234
4708.00   26.58153915   0.09768865
4710.00   26.40893936   0.09740643
4712.00   26.28336906   0.09718667
4714.00   26.36777878   0.09720056
4716.00   25.87331772   0.09632903
4718.00   26.01187897   0.09651056
4720.00   25.71776199   0.09596509
4722.00   25.64967728   0.09585856
4724.00   25.47092438   0.09551445
4726.00   25.43651199   0.09548291
4728.00   25.09973335   0.09496846
4730.00   25.15903091   0.09499841
4732.00   24.79193115   0.09438628
4734.00   24.73952293   0.09433156
4736.00   24.35700607   0.09367680
4738.00   24.19880486   0.09349424
4740.00   24.26644135   0.09364221
4742.00   24.01577568   0.09318562
4744.00   23.96706963   0.09297319
4746.00   23.97759819   0.09279342
4748.00   23.75010109   0.09216196
4750.00   23.60857201   0.09187271
4752.00   23.44936180   0.09148962
4754.00   23.67053795   0.09188964
4756.00   23.62751007   0.09163684
4758.00   23.38211823   0.09122559
4760.00   23.64902878   0.09151971
4762.00   23.69024086   0.09152304
4764.00   23.58754158   0.09132218
4766.00   23.54250908   0.09121413
4768.00   23.84671974   0.09171960
4770.00   23.91348076   0.09163150
4772.00   23.91828156   0.09163297
4774.00   24.02995872   0.09177557
4776.00   23.93567085   0.09168250
4778.00   23.87431335   0.09153328
4780.00   23.78298759   0.09125434
4782.00   23.84944725   0.09125765
4784.00   23.86613083   0.09115987
4786.00   23.68458748   0.09071628
4788.00   23.54231071   0.09039248
4790.00   23.45654869   0.09023499
4792.00   23.03017426   0.08941425
4794.00   22.83981895   0.08907348
4796.00   22.87713242   0.08896533
4798.00   22.50791931   0.08835598
4800.00   22.27744293   0.08772006
4802.00   21.93725014   0.08707579
4804.00   21.48504257   0.08619301
4806.00   20.98900604   0.08528794
4808.00   20.93038368   0.08511875
4810.00   20.54149437   0.08440357
4812.00   20.03761292   0.08339106
4814.00   19.80964851   0.08297453
4816.00   19.35990334   0.08211423
4818.00   19.32557678   0.08201613
4820.00   19.01041603   0.08134315
4822.00   18.66592216   0.08056296
4824.00   18.39906883   0.08007725
4826.00   18.12743759   0.07949431
4828.00   17.86137772   0.07899984
4830.00   17.69910240   0.07859674
4832.00   17.42823792   0.07811131
4834.00   17.19289780   0.07761527
4836.00   17.12893105   0.07737360
4838.00   16.78866196   0.07678361
4840.00   16.64986610   0.07647633
4842.00   16.45120430   0.07599247
4844.00   16.55203629   0.07609631
4846.00   16.32770348   0.07556619
4848.00   16.32447433   0.07561287
4850.00   16.37465477   0.07559834
4852.00   16.22006035   0.07531403
4854.00   16.17141914   0.07505580
4856.00   16.14159966   0.07483725
4858.00   16.11893845   0.07471928
4860.00   16.25276184   0.07484650
4862.00   16.25318909   0.07482022
4864.00   16.26605034   0.07491335
4866.00   16.20495415   0.07484984
4868.00   16.34828568   0.07504468
4870.00   16.45528793   0.07517587
4872.00   16.71368027   0.07558233
4874.00   16.64194870   0.07545164
4876.00   16.70524216   0.07553039
4878.00   16.96548653   0.07596499
4880.00   17.14201736   0.07625242
4882.00   17.44696617   0.07670064
4884.00   17.41827011   0.07653164
4886.00   17.52966881   0.07661048
4888.00   17.66056824   0.07672336
4890.00   17.78181076   0.07685904
4892.00   17.82589531   0.07696623
4894.00   18.03251839   0.07729524
4896.00   18.02575684   0.07740775
4898.00   18.19009209   0.07764540
4900.00   18.35070419   0.07783584
4902.00   18.36521339   0.07776202
4904.00   18.36532784   0.07770610
4906.00   18.43641281   0.07767839
4908.00   18.37480354   0.07764553
4910.00   18.32504845   0.07745218
4912.00   18.10414314   0.07699905
4914.00   18.34251595   0.07742866
4916.00   18.29587746   0.07731470
4918.00   18.34681320   0.07732718
4920.00   18.38059616   0.07736101
4922.00   18.33136559   0.07722563
4924.00   18.35766983   0.07723910
4926.00   18.27666092   0.07709772
4928.00   18.37132835   0.07721294
4930.00   18.24357033   0.07694919
4932.00   18.24859047   0.07694338
4934.00   18.24464035   0.07698182
4936.00   18.20019722   0.07671799
4938.00   18.25441551   0.07683545
4940.00   18.48937798   0.07715426
4942.00   18.25347900   0.07681035
4944.00   18.43301773   0.07703145
4946.00   18.30564117   0.07686662
4948.00   18.33157921   0.07687742
4950.00   18.27596855   0.07685229
4952.00   18.44664383   0.07724596
4954.00   18.39616966   0.07709652
4956.00   18.39738655   0.07697436
4958.00   18.26428032   0.07665281
4960.00   18.24361801   0.07656994
4962.00   18.31976891   0.07674374
4964.00   18.32255745   0.07675492
4966.00   18.27024269   0.07667463
4968.00   18.17704201   0.07656401
4970.00   18.38976669   0.07694211
4972.00   18.39879417   0.07705753
4974.00   18.56499863   0.07739059
4976.00   18.72989464   0.07763609
4978.00   18.47692108   0.07725541
4980.00   18.41526031   0.07721236
4982.00   18.50215149   0.07733119
4984.00   18.49862480   0.07737982
4986.00   18.66530800   0.07754280
4988.00   18.60989952   0.07728346
4990.00   18.70631027   0.07746253
4992.00   18.62429810   0.07719859
4994.00   18.66858292   0.07723635
4996.00   18.77767563   0.07733630
4998.00   18.63073730   0.07700568
5000.00   18.70651817   0.07702716
5002.00   18.74795341   0.07705221
5004.00   18.69654465   0.07690781
5006.00   18.82682037   0.07710703
5008.00   18.86711311   0.07716496
5010.00   18.96598053   0.07737607
5012.00   18.97149658   0.07739168
5014.00   19.14051437   0.07770077
5016.00   19.18275070   0.07786446
5018.00   19.32202339   0.07810462
5020.00   19.38937187   0.07821989
5022.00   19.30111313   0.07812127
5024.00   19.48310471   0.07850821
5026.00   19.59236336   0.07865008
5028.00   19.68173027   0.07883256
5030.00   19.84856033   0.07916697
5032.00   19.77370453   0.07910649
5034.00   19.99753571   0.07944462
5036.00   20.04381561   0.07946084
5038.00   20.25891685   0.07982553
5040.00   20.38955688   0.08008520
5042.00   20.35163498   0.08014793
5044.00   20.58284378   0.08059989
5046.00   20.85602951   0.08110781
5048.00   20.88201904   0.08127254
5050.00   21.03392792   0.08152638
5052.00   21.37311935   0.08224276
5054.00   21.55781555   0.08254121
5056.00   21.48853302   0.08247039
5058.00   21.68063164   0.08285098
5060.00   21.74157333   0.08300953
5062.00   21.72263908   0.08301096
5064.00   22.04757500   0.08360132
5066.00   21.89027596   0.08345539
5068.00   22.08257294   0.08383085
5070.00   22.16571236   0.08411200
5072.00   22.21338844   0.08417069
5074.00   22.22870445   0.08415277
5076.00   22.48207664   0.08459470
5078.00   22.61091805   0.08495992
5080.00   22.65610504   0.08526877
5082.00   22.66369057   0.08550952
5084.00   22.98196411   0.08625419
5086.00   23.00874519   0.08629858
5088.00   23.05314636   0.08624507
5090.00   23.09391785   0.08621024
5092.00   23.25178146   0.08630493
5094.00   23.22352409   0.08623639
5096.00   23.31675339   0.08643524
5098.00   23.29187202   0.08646813
5100.00   23.49168205   0.08677797
5102.00   23.46696472   0.08674200
5104.00   23.56891632   0.08688582
5106.00   23.51477051   0.08681560
5108.00   23.66068649   0.08713444
5110.00   23.63003349   0.08713643
5112.00   23.48330307   0.08701038
5114.00   23.57321930   0.08721078
5116.00   23.20585060   0.08666953
5118.00   23.31240654   0.08695371
5120.00   23.11770248   0.08667316
5122.00   23.20624924   0.08685529
5124.00   23.15965652   0.08667945
5126.00   23.01737213   0.08648124
5128.00   23.00224686   0.08652521
5130.00   22.86176682   0.08634394
5132.00   22.65223503   0.08608659
5134.00   22.77680588   0.08635532
5136.00   22.76379395   0.08640414
5138.00   22.58448029   0.08626993
5140.00   22.51373672   0.08613461
5142.00   22.46055222   0.08612689
5144.00   22.52045250   0.08629290
5146.00   22.34214020   0.08603539
5148.00   22.23007393   0.08595219
5150.00   22.42081642   0.08634911
5152.00   22.18828011   0.08620504
5154.00   22.31144333   0.08647639
5156.00   22.22148323   0.08646667
5158.00   22.18812180   0.08641591
5160.00   22.28279495   0.08656811
5162.00   22.29538727   0.08668552
5164.00   22.38667297   0.08681228
5166.00   22.44087410   0.08689362
5168.00   22.45891762   0.08707903
5170.00   22.58645248   0.08729178
5172.00   22.61589241   0.08736256
5174.00   22.55222321   0.08746002
5176.00   22.57145119   0.08773120
5178.00   22.80946350   0.08822651
5180.00   22.96058464   0.08852833
5182.00   23.07512093   0.08887443
5184.00   23.11811447   0.08890292
5186.00   23.05920029   0.08892507
5188.00   23.19032860   0.08912405
5190.00   23.22290611   0.08924888
5192.00   23.04137039   0.08909255
5194.00   23.25303078   0.08962219
5196.00   23.14537239   0.08965163
5198.00   22.99715996   0.08970346
5200.00   22.97417068   0.08980497
5202.00   22.77528763   0.08939065
5204.00   22.57376480   0.08910914
5206.00   22.27453804   0.08855695
5208.00   22.09624481   0.08846338
5210.00   21.79334641   0.08812647
5212.00   21.49753571   0.08784358
5214.00   21.16461754   0.08724301
5216.00   20.89518547   0.08698957
5218.00   20.52604103   0.08646461
5220.00   20.31242752   0.08622191
5222.00   19.83014297   0.08533734
5224.00   19.49162865   0.08473261
5226.00   19.36100578   0.08453559
5228.00   18.92723083   0.08376003
5230.00   18.54313087   0.08322136
5232.00   18.32393265   0.08295875
5234.00   18.11515427   0.08266812
5236.00   17.62567329   0.08181966
5238.00   17.54136086   0.08181581
5240.00   17.26835632   0.08146581
5242.00   17.13400459   0.08131879
5244.00   16.72469711   0.08063488
5246.00   16.60324860   0.08047713
5248.00   16.36267662   0.08004071
5250.00   16.16211891   0.07971743
5252.00   16.06495667   0.07970364
5254.00   15.79027176   0.07929679
5256.00   15.67897129   0.07924905
5258.00   15.58644199   0.07930750
5260.00   15.41146946   0.07904030
5262.00   15.32349682   0.07904741
5264.00   15.30446243   0.07907045
5266.00   14.99586010   0.07856642
5268.00   15.13495731   0.07881917
5270.00   15.04870319   0.07894271
5272.00   14.99948120   0.07900842
5274.00   15.00805950   0.07995398
5276.00   14.99995518   0.07934593
5278.00   14.92125034   0.07945838
5280.00   14.98626709   0.07960115
5282.00   14.83821106   0.07940783
5284.00   15.03256607   0.08008794
5286.00   15.05061245   0.08030276
5288.00   15.06602192   0.08030430
5290.00   14.98295975   0.08037405
5292.00   14.94641876   0.08041538
5294.00   15.00364113   0.08063605
5296.00   14.89376450   0.08060033
5298.00   14.93036747   0.08094622
5300.00   14.97235680   0.08122270
5302.00   15.05140400   0.08157679
5304.00   14.98301697   0.08158538
5306.00   14.95872593   0.08171299
5308.00   15.05718136   0.08213864
5310.00   15.05476475   0.08247162
5312.00   15.30656528   0.08328104
5314.00   15.34698677   0.08351006
5316.00   15.31619740   0.08347988
5318.00   15.27624226   0.08359051
5320.00   15.50502300   0.08438114
5322.00   15.48626900   0.08446034
5324.00   15.56025124   0.08470234
5326.00   15.47824192   0.08467442
5328.00   15.69007015   0.08540338
5330.00   15.81145287   0.08581877
5332.00   15.90618038   0.08627719
5334.00   15.88008785   0.08649387
5336.00   16.01464462   0.08705179
5338.00   16.05491829   0.08720923
5340.00   16.24209023   0.08788273
5342.00   16.14995193   0.08795279
5344.00   16.39612389   0.08847483
5346.00   16.13307571   0.08817274
5348.00   16.19324875   0.08853938
5350.00   16.48781204   0.08930898
5352.00   16.36703873   0.08926294
5354.00   16.48380089   0.09000230
5356.00   16.59526443   0.09040110
5358.00   16.50629234   0.09036735
5360.00   16.63185883   0.09087439
5362.00   16.65052605   0.09116469
5364.00   16.57995415   0.09115037
5366.00   16.75993347   0.09178153
5368.00   16.64097977   0.09182698
5370.00   16.80921173   0.09233874
5372.00   16.74565697   0.09250187
5374.00   16.76842690   0.09295388
5376.00   16.60652351   0.09278104
5378.00   16.42729187   0.09266466
5380.00   16.37440872   0.09293177
5382.00   16.02673912   0.06138141
5384.00   16.11944199   0.06012185
5386.00   15.80622292   0.06801084
5388.00   15.81022167   0.06318208
5390.00   15.82343769   0.05611432
5392.00   15.82767963   0.05921296
5394.00   15.57354355   0.06199402
5396.00   15.28475094   0.05628029
5398.00   15.43050861   0.04735781
5400.00   15.73066521   0.04700556
5402.00   15.62346935   0.04910488
5404.00   15.23260689   0.05382002
5406.00   14.78814983   0.06209205
5408.00   14.66034317   0.06373553
5410.00   14.82832050   0.05667701
5412.00   14.84304428   0.05006462
5414.00   14.44808388   0.04920116
5416.00   14.43617249   0.05143095
5418.00   14.08012104   0.05585065
5420.00   14.05370522   0.05698454
5422.00   14.27988148   0.05341392
5424.00   14.20619011   0.04885034
5426.00   13.73953342   0.04752721
5428.00   13.70374298   0.04259656
5430.00   13.49674988   0.03804732
5432.00   13.70669460   0.04359985
5434.00   13.64217281   0.04382249
5436.00   13.30095673   0.03895934
5438.00   13.08473015   0.03717358
5440.00   13.03737259   0.04159534
5442.00   12.79621887   0.05211833
5444.00   12.93793488   0.04663411
5446.00   13.39900017   0.04846027
5448.00   13.35259247   0.04548141
5450.00   13.19727707   0.04055514
5452.00   13.32457256   0.04071799
5454.00   13.14374828   0.03739586
5456.00   13.04295731   0.03699878
5458.00   13.18825626   0.04298381
5460.00   13.02015877   0.04977379
5462.00   12.95831013   0.04681600
5464.00   13.17050266   0.03917839
5466.00   13.52285862   0.04087764
5468.00   13.90428448   0.04831708
5470.00   13.82497978   0.03804732
5472.00   13.84424210   0.03629693
5474.00   13.74076462   0.04070060
5476.00   13.74983692   0.04575587
5478.00   13.93955040   0.04442449
5480.00   14.12135792   0.03772010
5482.00   14.19600677   0.04017297
5484.00   14.60838223   0.03920216
5486.00   15.02248192   0.04529893
5488.00   15.06326580   0.04427051
5490.00   15.32175922   0.04419025
5492.00   15.75731659   0.04664481
5494.00   15.84334087   0.04540712
5496.00   15.70561504   0.04136409
5498.00   15.90077400   0.04211244
5500.00   16.22239113   0.04218237
5502.00   16.54620361   0.04435628
5504.00   16.61100388   0.04351493
5506.00   16.74983597   0.04497213
5508.00   17.16706657   0.05322209
5510.00   16.97541428   0.05502003
5512.00   16.84259415   0.05010789
5514.00   16.87673569   0.05438348
5516.00   16.85979080   0.04996933
5518.00   17.09757233   0.04216981
5520.00   17.34814644   0.04154978
5522.00   17.33518600   0.04736712
5524.00   18.03512383   0.05532679
5526.00   18.15596390   0.05765966
5528.00   18.06123161   0.05785779
5530.00   18.09811020   0.05534869
5532.00   18.10905457   0.05424064
5534.00   18.10871124   0.05430100
5536.00   18.26453209   0.05018476
5538.00   18.15733528   0.04237118
5540.00   18.35597229   0.04533583
5542.00   18.48705292   0.04101076
5544.00   18.61938286   0.04751347
5546.00   18.46923447   0.05538542
5548.00   18.18814850   0.05434551
5550.00   18.27872849   0.04748311
5552.00   18.31823730   0.04491162
5554.00   18.41338730   0.04519309
5556.00   18.32640076   0.04082579
5558.00   18.27637100   0.04195412
5560.00   18.24338341   0.04283320
5562.00   18.19005394   0.04039970
5564.00   18.20553398   0.04416395
5566.00   18.15566635   0.05009095
5568.00   17.84761810   0.04683502
5570.00   17.87451744   0.04377144
5572.00   18.26618195   0.05043138
5574.00   18.19301605   0.05387693
5576.00   17.74851418   0.05181084
5578.00   18.17421722   0.05854128
5580.00   18.66011620   0.06031208
5582.00   18.66610336   0.05009438
5584.00   18.15816116   0.04528791
5586.00   17.95894241   0.04195987
5588.00   18.31183052   0.04459331
5590.00   18.78536224   0.05675815
5592.00   18.94105911   0.06619553
5594.00   18.81849670   0.05571244
5596.00   19.03382492   0.05465047
5598.00   18.86606026   0.05337821
5600.00   18.99107742   0.04856963
5602.00   19.22587395   0.04404151
5604.00   19.01028442   0.04287007
5606.00   18.74613953   0.04076318
5608.00   19.27413750   0.04565446
5610.00   19.27856827   0.04998379
5612.00   19.00834656   0.04771879
5614.00   18.92776489   0.04799556
5616.00   18.98985481   0.04902399
5618.00   19.06705093   0.04491631
5620.00   19.42745972   0.04347205
5622.00   18.97234344   0.04351362
5624.00   18.74862671   0.04762758
5626.00   18.94754791   0.05025444
5628.00   19.01388168   0.04611573
5630.00   19.11630630   0.04089132
5632.00   19.52685165   0.04256827
5634.00   19.37925529   0.04138594
5636.00   19.33099556   0.04259157
5638.00   19.06379318   0.04150179
5640.00   19.16016197   0.04178245
5642.00   19.39709091   0.04791779
5644.00   19.28051567   0.04947869
5646.00   18.87253380   0.03973915
5648.00   18.95924187   0.04147721
5650.00   18.99061394   0.04003484
5652.00   19.25301933   0.04196331
5654.00   19.25826263   0.04086199
5656.00   19.10534668   0.03691854
5658.00   19.06999016   0.03540731
5660.00   19.15484619   0.03918482
5662.00   19.10916710   0.04239848
5664.00   18.96768379   0.03926145
5666.00   18.78785515   0.03662807
5668.00   18.80334473   0.03785267
5670.00   18.77998161   0.03781091
5672.00   18.63897896   0.03698529
5674.00   18.62437630   0.04172910
5676.00   18.68259048   0.04726018
5678.00   18.68739319   0.04018205
5680.00   18.57570076   0.03723426
5682.00   18.49800301   0.03564961
5684.00   18.39755058   0.03411231
5686.00   18.29188728   0.03502449
5688.00   18.29264641   0.03861784
5690.00   18.12072754   0.04030972
5692.00   18.08740234   0.03562152
5694.00   17.87486649   0.03661502
5696.00   17.77842903   0.03867149
5698.00   17.85548019   0.03694966
5700.00   17.86597443   0.03291564
5702.00   17.64005852   0.03282243
5704.00   17.48284340   0.03627279
5706.00   17.39550018   0.03621779
5708.00   17.22778893   0.03730539
5710.00   17.04402542   0.03721137
5712.00   17.02885246   0.03570799
5714.00   17.08639526   0.03612844
5716.00   16.88134766   0.03972722
5718.00   16.76347923   0.03667258
5720.00   16.54894638   0.03632758
5722.00   16.51440430   0.03669803
5724.00   16.55961037   0.03459241
5726.00   16.52123642   0.03203264
5728.00   16.43576622   0.03440902
5730.00   16.48367119   0.04089258
5732.00   16.43883324   0.04193402
5734.00   16.40784454   0.03697532
5736.00   16.04188347   0.04122531
5738.00   16.00583839   0.04342932
5740.00   16.13998795   0.04040283
5742.00   15.95056820   0.03858989
5744.00   15.79926300   0.04017199
5746.00   15.84600735   0.03621170
5748.00   15.92304325   0.03594228
5750.00   16.01686096   0.03827849
5752.00   16.17289734   0.03987167
5754.00   15.99339962   0.03826439
5756.00   15.29937840   0.03714257
5758.00   14.89783859   0.04433130
5760.00   15.39043617   0.04076032
5762.00   15.66684914   0.03573913
5764.00   15.33988953   0.04062502
5766.00   14.81451225   0.04704932
5768.00   14.88540554   0.04654507
5770.00   15.56214046   0.04081869
5772.00   15.54513550   0.04209248
5774.00   15.45485687   0.03918075
5776.00   14.90163898   0.03411585
5778.00   15.41893101   0.04292857
5780.00   15.60961246   0.05745629
5782.00   15.35104847   0.05787592
5784.00   15.57987595   0.04855059
5786.00   14.50818443   0.08049664
5788.00   14.99911690   0.05864763
5790.00   15.44144344   0.03831168
5792.00   15.53385162   0.03862747
5794.00   15.45341206   0.04597338
5796.00   15.38636684   0.04758912
5798.00   15.31645679   0.04658372
5800.00   15.22240162   0.04665069
5802.00   15.74398232   0.04661613
5804.00   16.20736122   0.04196537
5806.00   16.36242294   0.03875834
5808.00   16.28604317   0.03993700
5810.00   16.32728958   0.04145471
5812.00   16.50044632   0.04075116
5814.00   15.75492096   0.04572204
5816.00   15.64919758   0.04752197
5818.00   15.80832386   0.05143874
5820.00   16.07680321   0.04503378
5822.00   16.43434715   0.04014066
5824.00   16.70582390   0.04349195
5826.00   16.64316559   0.03907918
5828.00   16.54517937   0.04441581
5830.00   16.52845001   0.04361996
5832.00   16.31773186   0.04550216
5834.00   16.21236420   0.04759037
5836.00   16.16559029   0.04782875
5838.00   16.32133675   0.04526448
5840.00   17.02199745   0.04007523
5842.00   17.20218849   0.03992787
5844.00   16.41249275   0.04605271
5846.00   16.06060219   0.04726588
5848.00   16.40796471   0.04337082
5850.00   16.69002533   0.04274338
5852.00   16.61903381   0.04635853
5854.00   16.86258888   0.04358883
5856.00   16.40113449   0.04568460
5858.00   16.89110565   0.03945313
5860.00   17.01463509   0.03683759
5862.00   16.65384483   0.04256329
5864.00   16.55142021   0.04751368
5866.00   16.98760986   0.04539383
5868.00   17.16824532   0.03984944
5870.00   17.19684982   0.03925205
5872.00   17.09189606   0.03814512
5874.00   16.69498062   0.04417658
5876.00   16.49271965   0.04724252
5878.00   16.65628815   0.04249286
5880.00   16.85361862   0.03432934
5882.00   16.78844070   0.03373802
5884.00   16.89539146   0.03262562
5886.00   16.71673012   0.03730125
5888.00   16.51912117   0.03922625
5890.00   16.49550819   0.03959342
5892.00   16.43534851   0.04489575
5894.00   16.24254417   0.05245456
5896.00   16.46921349   0.04922332
5898.00   16.87398911   0.03839250
5900.00   17.14799500   0.03658699
5902.00   17.28696251   0.03328378
5904.00   17.24526596   0.03247957
5906.00   17.25657463   0.03604916
5908.00   17.52135468   0.03769038
5910.00   17.64106941   0.03633748
5912.00   17.39261246   0.03091114
5914.00   17.25769234   0.03032725
5916.00   17.14907455   0.03378560
5918.00   17.08982658   0.03500170
5920.00   17.04933548   0.03233596
5922.00   16.97808456   0.03000155
5924.00   17.06323814   0.03278350
5926.00   17.47722244   0.03574507
5928.00   17.45027733   0.03201639
5930.00   17.37310982   0.03276598
5932.00   17.47387886   0.03606384
5934.00   17.56746864   0.03539623
5936.00   17.40632248   0.03083224
5938.00   17.22038460   0.03023814
5940.00   17.00533867   0.03297051
5942.00   17.10054398   0.03592517
5944.00   17.06854630   0.03692257
5946.00   16.89144707   0.03713942
5948.00   16.87046814   0.03836253
5950.00   17.12403107   0.04059240
5952.00   17.29833221   0.04268283
5954.00   17.22746086   0.03920633
5956.00   17.18552017   0.04229161
5958.00   16.96852303   0.04124489
5960.00   17.00554276   0.03860986
5962.00   17.22680092   0.03866242
5964.00   16.86977196   0.03663340
5966.00   16.68482208   0.03947543
5968.00   17.00978661   0.04376154
5970.00   17.15183640   0.04505834
5972.00   16.96491241   0.04331788
5974.00   16.53504944   0.03833103
5976.00   16.27044106   0.03393861
5978.00   16.56114769   0.03804765
5980.00   16.56223106   0.04304123
5982.00   16.44224739   0.04396072
5984.00   16.11770821   0.04385131
5986.00   15.88878536   0.04218426
5988.00   15.65000248   0.04059406
5990.00   15.19581127   0.03911260
5992.00   14.77402306   0.03493717
5994.00   14.86912537   0.04146780
5996.00   14.69972706   0.04838757
5998.00   14.60601425   0.04499140
6000.00   14.35118103   0.04244610
6002.00   13.75021744   0.03988853
6004.00   13.15657520   0.03206088
6006.00   13.18347645   0.03445132
6008.00   13.03838348   0.03568122
6010.00   12.76310062   0.03272771
6012.00   12.71794319   0.03513238
6014.00   12.12049580   0.03424627
6016.00   11.44707203   0.03108242
6018.00   11.58367538   0.03333148
6020.00   11.69023514   0.03434638
6022.00   11.07912159   0.02963032
6024.00   10.69396877   0.02911752
6026.00   10.52623940   0.02858624
6028.00   10.19528008   0.02766028
6030.00   9.71727657   0.02749413
6032.00   9.40980434   0.02859644
6034.00   9.23764610   0.03124197
6036.00   9.19239712   0.03624053
6038.00   9.10386181   0.03185406
6040.00   8.62709713   0.02668673
6042.00   8.18047047   0.02515209
6044.00   8.04021645   0.02574319
6046.00   8.02524471   0.02663718
6048.00   8.00181007   0.02935610
6050.00   7.41811609   0.02476762
6052.00   7.23612452   0.02271249
6054.00   7.12878799   0.02233016
6056.00   7.00691366   0.02260091
6058.00   6.87270689   0.02349354
6060.00   6.67761135   0.02450146
6062.00   6.50553322   0.02413482
6064.00   6.52821684   0.02531062
6066.00   6.58615255   0.02654774
6068.00   6.29222059   0.02480426
6070.00   5.99028063   0.02281508
6072.00   5.93426514   0.02226303
6074.00   5.88628817   0.02062665
6076.00   5.84617662   0.02079808
6078.00   5.62372065   0.02102641
6080.00   5.53647423   0.02226599
6082.00   5.53653908   0.02323450
6084.00   5.45384979   0.02284533
6086.00   5.30052662   0.02158211
6088.00   5.26052666   0.02098471
6090.00   5.26041508   0.02046252
6092.00   5.15111923   0.02091601
6094.00   5.13074112   0.02050393
6096.00   5.08934546   0.02060536
6098.00   5.06125116   0.02058011
6100.00   5.05418587   0.02038580
6102.00   4.95939302   0.02161129
6104.00   4.99620628   0.02106853
6106.00   5.03971577   0.01995161
6108.00   4.95934582   0.02027898
6110.00   4.85828590   0.02080883
6112.00   4.91826439   0.02123118
6114.00   5.12398434   0.02294123
6116.00   5.19624615   0.02568836
6118.00   4.92397499   0.02190479
6120.00   4.97403669   0.02139863
6122.00   5.07824278   0.02184720
6124.00   5.13731861   0.02233110
6126.00   5.13657999   0.02229891
6128.00   5.12080050   0.02180574
6130.00   5.15796804   0.02155785
6132.00   5.21163559   0.02012011
6134.00   5.34225082   0.02070732
6136.00   5.49536037   0.02285987
6138.00   5.64191055   0.02352598
6140.00   5.72514772   0.02234467
6142.00   5.71638966   0.02159305
6144.00   5.69045353   0.02290959
6146.00   5.76353168   0.02287938
6148.00   5.86528540   0.02282842
6150.00   5.96908569   0.02148911
6152.00   6.07048368   0.02106977
6154.00   6.20640230   0.02308158
6156.00   6.37348604   0.02538622
6158.00   6.46255970   0.02480130
6160.00   6.46712875   0.02189674
6162.00   6.62331581   0.02372592
6164.00   6.76710653   0.02696514
6166.00   6.90901852   0.02573230
6168.00   7.06998062   0.02319894
6170.00   7.19266939   0.02567568
6172.00   7.23799610   0.02533630
6174.00   7.37286329   0.02532351
6176.00   7.70905399   0.02598813
6178.00   8.07163811   0.02787361
6180.00   8.25346470   0.02824091
6182.00   8.34246254   0.02759813
6184.00   8.54209995   0.02861150
6186.00   8.67754173   0.02877733
6188.00   8.87387562   0.02957933
6190.00   9.00064468   0.02948933
6192.00   9.20384216   0.02908766
6194.00   9.42452621   0.02880215
6196.00   9.61682987   0.02715978
6198.00   9.81840992   0.02374272
6200.00   9.90487385   0.02629880
6202.00   9.94890881   0.02811349
6204.00   10.21798229   0.02579655
6206.00   10.43404102   0.02560433
6208.00   10.61014175   0.02900894
6210.00   10.77541542   0.03109424
6212.00   10.84907818   0.02864407
6214.00   11.10387707   0.02677085
6216.00   11.30007744   0.03092700
6218.00   11.47697067   0.03166172
6220.00   11.58273125   0.03172851
6222.00   11.62118626   0.03009303
6224.00   11.73710442   0.02698427
6226.00   12.02036381   0.02775957
6228.00   12.02519989   0.03048119
6230.00   12.23154163   0.02761363
6232.00   12.43296051   0.02615679
6234.00   12.49564362   0.02757598
6236.00   12.39130402   0.03354373
6238.00   12.40055275   0.03683190
6240.00   12.81613255   0.02717813
6242.00   12.78551483   0.02605572
6244.00   12.83184052   0.02469115
6246.00   13.07921886   0.02703561
6248.00   13.33262444   0.02985393
6250.00   13.50186825   0.03094997
6252.00   13.60494900   0.03000689
6254.00   13.63703346   0.02741572
6256.00   13.76595592   0.02618828
6258.00   13.98978615   0.03160368
6260.00   13.99727058   0.03412528
6262.00   14.08051968   0.03145969
6264.00   14.38286304   0.02945074
6266.00   14.62071896   0.03237945
6268.00   14.43822193   0.03263517
6270.00   14.23213577   0.03105417
6272.00   14.46817398   0.02916675
6274.00   14.60387897   0.02882032
6276.00   14.44135380   0.03076990
6278.00   14.38667679   0.03085098
6280.00   14.71520901   0.02776345
6282.00   14.92094994   0.02984896
6284.00   15.32520008   0.03240527
6286.00   15.20330906   0.02852191
6288.00   14.84837055   0.02974033
6290.00   14.89675236   0.03677956
6292.00   15.11309624   0.03899267
6294.00   14.91055870   0.03271236
6296.00   14.76122761   0.03261872
6298.00   15.19000340   0.03153289
6300.00   15.50459480   0.03182784
6302.00   15.43525600   0.02952298
6304.00   15.23407745   0.02965606
6306.00   15.31699276   0.03084725
6308.00   15.63945007   0.02761209
6310.00   15.45957947   0.02831321
6312.00   15.18332005   0.03114933
6314.00   15.11993599   0.03188528
6316.00   15.37439156   0.03023432
6318.00   15.54910278   0.03014157
6320.00   15.49596882   0.03434314
6322.00   15.50504684   0.03795414
6324.00   15.64859104   0.03054082
6326.00   15.69491005   0.02822338
6328.00   15.79488659   0.03374060
6330.00   15.59523869   0.03736101
6332.00   15.56194210   0.03660314
6334.00   15.74689198   0.03307238
6336.00   15.62845039   0.02959941
6338.00   15.83924961   0.02922398
6340.00   15.43560123   0.03505722
6342.00   15.50324726   0.03409282
6344.00   15.70344162   0.03513602
6346.00   15.95952129   0.03646990
6348.00   16.02264977   0.03583180
6350.00   15.52125168   0.03615690
6352.00   15.43530941   0.02822415
6354.00   15.54872131   0.02973270
6356.00   15.85380459   0.03314431
6358.00   15.97866726   0.03372453
6360.00   15.73618126   0.03142044
6362.00   15.43787861   0.03007570
6364.00   15.53356361   0.03373013
6366.00   15.55571175   0.03922497
6368.00   15.17654324   0.03847711
6370.00   15.28506660   0.03232293
6372.00   15.39468765   0.02882232
6374.00   15.18648052   0.03298044
6376.00   14.98774910   0.03599438
6378.00   15.24624157   0.02887983
6380.00   15.47521687   0.03112560
6382.00   15.35517311   0.02845789
6384.00   15.23535919   0.02686481
6386.00   15.08744526   0.02850634
6388.00   15.05142212   0.03108223
6390.00   15.24313927   0.03208989
6392.00   15.40226173   0.03242986
6394.00   15.23612118   0.03879674
6396.00   15.13663864   0.03477988
6398.00   15.01712608   0.02777141
6400.00   14.99955368   0.02813124
6402.00   15.01011562   0.03337772
6404.00   14.94430828   0.03508063
6406.00   14.96389103   0.03363739
6408.00   14.91461945   0.03340224
6410.00   14.77407074   0.03024292
6412.00   14.63942242   0.02803935
6414.00   14.49583149   0.02780623
6416.00   14.41489220   0.02813850
6418.00   14.50126743   0.02816221
6420.00   14.67461586   0.02861107
6422.00   14.64268684   0.02722007
6424.00   14.59076405   0.02558257
6426.00   14.54151344   0.02565829
6428.00   14.53152275   0.02784671
6430.00   14.60204601   0.02977380
6432.00   14.68889046   0.02934808
6434.00   14.57352829   0.02764492
6436.00   14.42448616   0.02820242
6438.00   14.34568977   0.02838846
6440.00   14.22912216   0.03064382
6442.00   14.21164131   0.03180418
6444.00   14.29174423   0.02995289
6446.00   14.28552246   0.02757281
6448.00   14.22544765   0.02899330
6450.00   14.24898911   0.03075523
6452.00   14.17489910   0.02970799
6454.00   14.19927406   0.03145026
6456.00   14.34651566   0.03576910
6458.00   14.41240978   0.03847108
6460.00   14.19925213   0.03726700
6462.00   13.82831383   0.03409679
6464.00   13.81433678   0.02940882
6466.00   14.13609409   0.03255970
6468.00   14.13749790   0.03412900
6470.00   13.87821484   0.03041001
6472.00   13.67954254   0.02822896
6474.00   13.51743603   0.03456030
6476.00   13.18669415   0.03420458
6478.00   13.51537228   0.03435036
6480.00   13.76587105   0.03600899
6482.00   13.53575516   0.03159098
6484.00   13.33802509   0.02869982
6486.00   13.51201248   0.03330228
6488.00   13.54904842   0.03361043
6490.00   13.14918900   0.02606152
6492.00   13.28094006   0.02953883
6494.00   13.48308086   0.03556764
6496.00   13.42879391   0.03456425
6498.00   13.19335842   0.02939807
6500.00   13.03073883   0.02823270
6502.00   13.04893208   0.03078895
6504.00   13.28766251   0.02896446
6506.00   13.16137791   0.02752906
6508.00   13.07536983   0.02967484
6510.00   13.12955379   0.03294138
6512.00   13.05382824   0.03274288
6514.00   12.81547546   0.03125595
6516.00   12.84956932   0.03635010
6518.00   12.74244595   0.03343760
6520.00   12.63092995   0.03115278
6522.00   12.78189087   0.03281473
6524.00   12.84132767   0.03243092
6526.00   12.83347797   0.03226939
6528.00   12.96755981   0.03631741
6530.00   13.00421047   0.03870348
6532.00   12.76649475   0.04027857
6534.00   12.43579578   0.03260765
6536.00   12.50103283   0.03203994
6538.00   12.47095585   0.03223922
6540.00   12.39875793   0.03259456
6542.00   12.54948902   0.03594446
6544.00   12.33228970   0.03037426
6546.00   12.20056248   0.02540140
6548.00   12.12926483   0.02479863
6550.00   12.23667240   0.02688329
6552.00   12.30374908   0.02831699
6554.00   12.21992016   0.02958382
6556.00   12.15865326   0.03112428
6558.00   12.31029797   0.02880705
6560.00   12.28237057   0.02887472
6562.00   12.11007500   0.03033360
6564.00   12.03415394   0.02682112
6566.00   12.05013943   0.02528165
6568.00   12.06384563   0.02785060
6570.00   12.02561092   0.02777788
6572.00   11.91473484   0.02757433
6574.00   11.85619450   0.02852545
6576.00   11.91809559   0.02873730
6578.00   11.83692932   0.02710896
6580.00   11.76642132   0.02637828
6582.00   11.77959442   0.02724983
6584.00   11.70329380   0.02673324
6586.00   11.59107685   0.02419693
6588.00   11.62754250   0.02261682
6590.00   11.61343479   0.02404206
6592.00   11.59593201   0.02443583
6594.00   11.60022068   0.02321252
6596.00   11.59722042   0.02345490
6598.00   11.55350304   0.02595758
6600.00   11.48952007   0.02309185
6602.00   11.57617474   0.02879304
6604.00   11.57571220   0.02872179
6606.00   11.28683567   0.03044319
6608.00   11.09114742   0.02912416
6610.00   11.23355007   0.02400804
6612.00   11.37496948   0.02638278
6614.00   11.25535297   0.02357462
6616.00   11.16000557   0.02159747
6618.00   11.04554749   0.02305858
6620.00   10.88826847   0.02589442
6622.00   10.89292622   0.02726688
6624.00   11.03979492   0.02564986
6626.00   10.96074581   0.02216179
6628.00   10.77763367   0.02575599
6630.00   10.80836201   0.02570991
6632.00   10.74622917   0.02370381
6634.00   10.78680229   0.02418497
6636.00   10.89166451   0.02457249
6638.00   10.89982033   0.02212518
6640.00   10.84348583   0.02120060
6642.00   10.70295143   0.02094508
6644.00   10.56794071   0.02345682
6646.00   10.55522919   0.02338032
6648.00   10.63607121   0.02207863
6650.00   10.67771149   0.02132585
6652.00   10.63767242   0.02118999
6654.00   10.64212418   0.02097839
6656.00   10.64347363   0.02078146
6658.00   10.58269405   0.02281120
6660.00   10.56691837   0.02379540
6662.00   10.60181046   0.02278673
6664.00   10.60171318   0.02112644
6666.00   10.56419659   0.02093531
6668.00   10.63821888   0.02223615
6670.00   10.62053776   0.02310034
6672.00   10.49088001   0.02166590
6674.00   10.50207329   0.02221268
6676.00   10.51771450   0.02495088
6678.00   10.43160820   0.02575920
6680.00   10.34284115   0.02302472
6682.00   10.37020683   0.02235770
6684.00   10.39097881   0.02246495
6686.00   10.35573959   0.02102574
6688.00   10.28117847   0.02093252
6690.00   10.21680832   0.02229483
6692.00   10.18289948   0.02375066
6694.00   10.15807438   0.02462637
6696.00   10.12599850   0.02500164
6698.00   10.16024971   0.02455947
6700.00   10.13417530   0.02339670
6702.00   10.08423519   0.02179369
6704.00   10.06120491   0.02319960
6706.00   10.04731560   0.02625029
6708.00   9.98476791   0.02635285
6710.00   9.88540363   0.02338847
6712.00   9.81201935   0.02441830
6714.00   9.86096382   0.02253521
6716.00   9.89039707   0.02104214
6718.00   9.84962463   0.02202819
6720.00   9.75096226   0.02340877
6722.00   9.64885712   0.02307228
6724.00   9.70049477   0.02366023
6726.00   9.71332073   0.02573453
6728.00   9.76698494   0.02292320
6730.00   9.69997311   0.02152411
6732.00   9.58964157   0.02321840
6734.00   9.58522224   0.02422480
6736.00   9.63911152   0.02314836
6738.00   9.48368835   0.02480797
6740.00   9.19886017   0.02950125
6742.00   9.30938435   0.02593338
6744.00   9.51830578   0.02294318
6746.00   9.53644753   0.02491649
6748.00   9.39012814   0.02671442
6750.00   9.28157043   0.02563904
6752.00   9.17562580   0.02985571
6754.00   9.23816490   0.02720938
6756.00   9.30423164   0.02648061
6758.00   9.30109692   0.02727792
6760.00   9.18937683   0.02847578
6762.00   9.12089443   0.02768790
6764.00   9.30558300   0.02201831
6766.00   9.23469830   0.02495793
6768.00   9.27017593   0.02335556
6770.00   9.32797337   0.02863119
6772.00   9.20116615   0.03136343
6774.00   9.01358795   0.03089499
6776.00   8.94999599   0.03073544
6778.00   8.91712856   0.02922855
6780.00   9.04310799   0.02450036
6782.00   9.08455467   0.02897111
6784.00   8.97886848   0.03108917
6786.00   8.96340752   0.03095865
6788.00   9.05614567   0.02796343
6790.00   9.09275341   0.02251777
6792.00   9.06370068   0.02292783
6794.00   9.10945034   0.02458407
6796.00   8.94300079   0.02956830
6798.00   8.99793434   0.02581171
6800.00   9.15063953   0.02078450
6802.00   9.12901402   0.02127292
6804.00   8.94462872   0.02444492
6806.00   8.93515396   0.02950980
6808.00   9.14307213   0.02568967
6810.00   8.95616341   0.02858542
6812.00   8.93256569   0.02673653
6814.00   8.97928333   0.02343568
6816.00   8.92261219   0.02285623
6818.00   8.84407520   0.02273459
6820.00   8.86366367   0.02287609
6822.00   8.79138374   0.02870702
6824.00   8.91952324   0.02424840
6826.00   8.79249001   0.02580781
6828.00   8.80569267   0.02746844
6830.00   9.05792904   0.02483008
6832.00   9.10261631   0.02391171
6834.00   8.92416573   0.02508094
6836.00   8.77547646   0.02353992
6838.00   8.63333511   0.02285360
6840.00   8.72124386   0.02030785
6842.00   8.78292084   0.02281673
6844.00   8.71479225   0.02793893
6846.00   8.72310638   0.02820211
6848.00   8.69346046   0.02946643
6850.00   8.67553616   0.02627859
6852.00   8.82374001   0.02265475
6854.00   8.83616066   0.02157048
6856.00   8.73814201   0.02314044
6858.00   8.65040779   0.02640804
6860.00   8.57855034   0.02989311
6862.00   8.62402534   0.02887103
6864.00   8.45915890   0.02641518
6866.00   8.19319153   0.02840921
6868.00   8.27358627   0.02791135
6870.00   8.55389595   0.02431244
6872.00   8.66030025   0.02246863
6874.00   8.58049679   0.02462016
6876.00   8.67640495   0.02393788
6878.00   8.61520386   0.02297958
6880.00   8.53484535   0.02263763
6882.00   8.45907879   0.02193506
6884.00   8.37169266   0.02150977
6886.00   8.35165405   0.02289121
6888.00   8.49988842   0.02528648
6890.00   8.51074028   0.02418734
6892.00   8.41689301   0.02114845
6894.00   8.36546421   0.02153507
6896.00   8.34041595   0.02192138
6898.00   8.37157440   0.02134171
6900.00   8.45168304   0.02191699
6902.00   8.45114613   0.02342746
6904.00   8.33687401   0.02024051
6906.00   8.30845737   0.01974568
6908.00   8.35193825   0.02312317
6910.00   8.32346535   0.02547587
6912.00   8.21465492   0.02411729
6914.00   8.15978622   0.02015450
6916.00   8.22855949   0.01840351
6918.00   8.15766144   0.01831551
6920.00   8.11641216   0.01841019
6922.00   8.18905163   0.01867654
6924.00   8.28649235   0.01854942
6926.00   8.23841190   0.01889232
6928.00   8.06698799   0.02057936
6930.00   8.07228947   0.02197214
6932.00   8.15583134   0.01867490
6934.00   8.21670914   0.01822976
6936.00   8.20378971   0.01891863
6938.00   8.10203838   0.02078299
6940.00   8.06099510   0.02175447
6942.00   8.16886711   0.02004909
6944.00   8.18280220   0.01848401
6946.00   8.07044315   0.01829534
6948.00   8.05535793   0.01892259
6950.00   8.09061241   0.02062390
6952.00   8.06572914   0.02007536
6954.00   8.01814175   0.01800880
6956.00   8.05238152   0.01818128
6958.00   8.08454418   0.01824431
6960.00   8.06895351   0.01889208
6962.00   8.10137081   0.02188296
6964.00   8.14710999   0.02265460
6966.00   8.13888264   0.02080308
6968.00   8.05072498   0.01859109
6970.00   7.96051788   0.01821485
6972.00   8.03180981   0.01794493
6974.00   8.04674339   0.01907246
6976.00   8.08172798   0.02180072
6978.00   8.09188271   0.02056978
6980.00   8.05305290   0.01805073
6982.00   7.97306633   0.01774486
6984.00   7.91891766   0.01864979
6986.00   8.05167007   0.02232800
6988.00   8.09403706   0.02299439
6990.00   7.91808176   0.02209300
6992.00   7.83781338   0.02021382
6994.00   7.83191633   0.01877856
6996.00   7.85706234   0.01936733
6998.00   7.97919035   0.02104676
7000.00   7.81279516   0.01926183
7002.00   7.91277409   0.01830263
7004.00   8.00893497   0.01820780
7006.00   7.95623302   0.01808140
7008.00   7.83238745   0.01798798
7010.00   7.81273508   0.01826419
7012.00   7.94196558   0.01904480
7014.00   7.99694681   0.02198201
7016.00   7.94538689   0.02047501
7018.00   7.77301550   0.01830853
7020.00   7.65071821   0.01803151
7022.00   7.69823885   0.01831725
7024.00   7.82140970   0.01876298
7026.00   7.80103970   0.02145849
7028.00   7.67602396   0.02070210
7030.00   7.71174192   0.01992288
7032.00   7.81486797   0.01848890
7034.00   7.89394188   0.01958196
7036.00   7.87706041   0.02153740
7038.00   7.75950527   0.02148687
7040.00   7.62956619   0.02044284
7042.00   7.65909481   0.02014659
7044.00   7.71625996   0.01928921
7046.00   7.68453693   0.01966185
7048.00   7.60964584   0.02062460
7050.00   7.58778477   0.02083618
7052.00   7.65603304   0.02087903
7054.00   7.75454235   0.02296850
7056.00   7.76749182   0.02361125
7058.00   7.67083740   0.02124818
7060.00   7.68662882   0.02031633
7062.00   7.71927929   0.01978422
7064.00   7.69436455   0.02041841
7066.00   7.67661333   0.02245340
7068.00   7.73477268   0.02110593
7070.00   7.90360785   0.02523068
7072.00   7.83598900   0.02489248
7074.00   7.70175505   0.01945509
7076.00   7.69058084   0.01752254
7078.00   7.71828508   0.02058749
7080.00   7.63805628   0.02087298
7082.00   7.64137840   0.02063760
7084.00   7.69412184   0.01986840
7086.00   7.65467262   0.01842900
7088.00   7.68594837   0.01931802
7090.00   7.81097555   0.02091695
7092.00   7.86761761   0.02080250
7094.00   7.76401281   0.01913369
7096.00   7.75067425   0.01898277
7098.00   7.74988747   0.01980607
7100.00   7.71231842   0.01923048
7102.00   7.75717163   0.02033260
7104.00   7.76315451   0.02060052
7106.00   7.69486475   0.01916569
7108.00   7.69365835   0.01931075
7110.00   7.74145699   0.02139824
7112.00   7.81609583   0.02099250
7114.00   7.78991318   0.02094251
7116.00   7.67863894   0.02070650
7118.00   7.67215681   0.02090948
7120.00   7.74451065   0.02262003
7122.00   7.68491125   0.02487021
7124.00   7.71314049   0.02399515
7126.00   7.68975639   0.02114392
7128.00   7.58692741   0.02016199
7130.00   7.61814928   0.02081363
7132.00   7.62859631   0.01973316
7134.00   7.54566193   0.01699544
7136.00   7.60818911   0.01734967
7138.00   7.69989443   0.01769920
7140.00   7.67491198   0.02183423
7142.00   7.75115776   0.02673292
7144.00   7.69524622   0.02443592
7146.00   7.59608269   0.01945953
7148.00   7.60896730   0.01989661
7150.00   7.60706425   0.02077182
7152.00   7.53128862   0.02029396
7154.00   7.49870777   0.01957801
7156.00   7.58489799   0.02038129
7158.00   7.48533821   0.02114247
7160.00   7.30763292   0.02062551
7162.00   7.31157351   0.01913996
7164.00   7.40735102   0.01841979
7166.00   7.44233799   0.02100705
7168.00   7.49157572   0.02153581
7170.00   7.40731239   0.02199449
7172.00   7.45188618   0.02286150
7174.00   7.50777674   0.02302323
7176.00   7.40603781   0.02339282
7178.00   7.45041609   0.02637893
7180.00   7.55255508   0.02066050
7182.00   7.59255791   0.01956177
7184.00   7.36360168   0.01990452
7186.00   7.41670084   0.02232427
7188.00   7.62114286   0.02282801
7190.00   7.51748180   0.01973061
7192.00   7.43535852   0.02156435
7194.00   7.44260073   0.01936983
7196.00   7.45500422   0.02098865
7198.00   7.37353897   0.02073025
7200.00   7.40567160   0.02165150
7202.00   7.56089687   0.02388721
7204.00   7.59574604   0.02425995
7206.00   7.40170097   0.02339611
7208.00   7.22912550   0.02274774
7210.00   7.45936632   0.02250026
7212.00   7.56579256   0.02144918
7214.00   7.34780073   0.02310042
7216.00   7.16789961   0.02382182
7218.00   7.34384251   0.01905680
7220.00   7.39619875   0.01969483
7222.00   7.23998690   0.01840328
7224.00   7.16803980   0.01714215
7226.00   7.21369219   0.01885499
7228.00   7.30225420   0.01954459
7230.00   7.32486868   0.01879551
7232.00   7.24812984   0.01981505
7234.00   7.19361591   0.01947707
7236.00   7.38527441   0.02269097
7238.00   7.27970362   0.02135208
7240.00   7.23073149   0.01893457
7242.00   7.25870943   0.02012495
7244.00   7.23649454   0.02228418
7246.00   7.18540621   0.02025862
7248.00   7.17738247   0.01813292
7250.00   6.95045424   0.01871099
7252.00   6.95995522   0.01869660
7254.00   7.06120443   0.01863222
7256.00   7.04620695   0.01839669
7258.00   6.95662355   0.01779382
7260.00   6.97906351   0.01750226
7262.00   6.95246363   0.01805217
7264.00   6.93911457   0.01878623
7266.00   6.92105007   0.01815886
7268.00   6.90168953   0.01759935
7270.00   6.94147301   0.01777460
7272.00   6.98030519   0.01820653
7274.00   6.86872911   0.01853803
7276.00   6.80991697   0.01920618
7278.00   7.02307510   0.01900698
7280.00   7.07007265   0.01820810
7282.00   6.93970156   0.01784933
7284.00   6.83311939   0.01852618
7286.00   6.82190371   0.01923055
7288.00   6.76384115   0.01854188
7290.00   6.78199482   0.01837494
7292.00   6.75463343   0.01810315
7294.00   6.77126217   0.01791971
7296.00   6.85139179   0.01794376
7298.00   6.87694359   0.01786391
7300.00   6.77426434   0.01764280
7302.00   6.67443943   0.01793483
7304.00   6.72876310   0.01851643
7306.00   6.79840374   0.01848439
7308.00   6.72680807   0.01741746
7310.00   6.63602066   0.01808105
7312.00   6.61708736   0.01955531
7314.00   6.66385984   0.01945698
7316.00   6.76547480   0.01917335
7318.00   6.80225182   0.02264992
7320.00   6.64621973   0.02161433
7322.00   6.58594179   0.01902775
7324.00   6.61055803   0.01756158
7326.00   6.56227636   0.01786313
7328.00   6.41692543   0.01869029
7330.00   6.37938070   0.01933764
7332.00   6.37882042   0.01726832
7334.00   6.37606192   0.01698424
7336.00   6.38673019   0.01635944
7338.00   6.37028551   0.01756790
7340.00   6.29084635   0.02086266
7342.00   6.17955780   0.02275255
7344.00   6.13349056   0.02006188
7346.00   6.20304251   0.01937587
7348.00   6.27008390   0.01909879
7350.00   6.21047163   0.01872598
7352.00   6.14353466   0.01768702
7354.00   6.12903881   0.01777879
7356.00   6.10824442   0.01999879
7358.00   6.14558983   0.01968982
7360.00   6.13623953   0.02073712
7362.00   6.10964537   0.02183566
7364.00   6.16035128   0.01956145
7366.00   6.16976690   0.01688099
7368.00   6.09898663   0.01664679
7370.00   6.07017660   0.01679278
7372.00   6.06900454   0.01842434
7374.00   6.00395489   0.02096860
7376.00   5.94877672   0.01803161
7378.00   5.97514057   0.01672106
7380.00   5.97808933   0.01713621
7382.00   5.85934305   0.01747574
7384.00   5.69365358   0.01929098
7386.00   5.66401911   0.01843129
7388.00   5.72095537   0.01620393
7390.00   5.69734716   0.01626703
7392.00   5.58899641   0.01809126
7394.00   5.52396441   0.01791417
7396.00   5.57062244   0.01570481
7398.00   5.63967419   0.01599292
7400.00   5.63422728   0.01615710
7402.00   5.44126368   0.01605840
7404.00   5.40227127   0.01722406
7406.00   5.31919289   0.01829412
7408.00   5.24290085   0.01781051
7410.00   5.23104620   0.01614025
7412.00   5.10166597   0.01579482
7414.00   5.02773523   0.01780840
7416.00   5.13798332   0.01724583
7418.00   5.10780573   0.01754801
7420.00   5.06156635   0.01656999
7422.00   5.03543615   0.01622386
7424.00   5.01797771   0.01774393
7426.00   5.08780527   0.01677015
7428.00   5.00584078   0.01540576
7430.00   5.05154514   0.01614844
7432.00   5.04905081   0.01574949
7434.00   5.04000378   0.01657718
7436.00   5.01487064   0.01769687
7438.00   4.95366430   0.01749695
7440.00   4.95251989   0.01791851
7442.00   5.00601959   0.01562813
7444.00   5.05868578   0.01611027
7446.00   4.99057913   0.01562616
7448.00   4.97666454   0.01495926
7450.00   5.01456594   0.01548246
7452.00   4.97601652   0.01653873
7454.00   4.94026947   0.01658815
7456.00   4.99085522   0.01536759
7458.00   4.97550154   0.01587357
7460.00   5.00105619   0.01658703
7462.00   5.03712654   0.01696923
7464.00   5.03237963   0.01660060
7466.00   4.98055267   0.01547709
7468.00   4.89800692   0.01505330
7470.00   4.89131880   0.01509932
7472.00   4.91865110   0.01521457
7474.00   4.90488338   0.01586376
7476.00   4.92197990   0.01591232
7478.00   4.96327400   0.01543215
7480.00   4.94484425   0.01544456
7482.00   4.91555929   0.01511772
7484.00   4.79881668   0.01497342
7486.00   4.72985268   0.02125244
7488.00   4.79314470   0.02045859
7490.00   4.90534830   0.01622008
7492.00   4.94450617   0.01513927
7494.00   4.90000486   0.01623054
7496.00   4.89785433   0.01651031
7498.00   4.96730852   0.01648090
7500.00   5.02098989   0.01587765
7502.00   5.02107143   0.01572173
7504.00   4.95267010   0.01570054
7506.00   4.88449860   0.01539457
7508.00   4.90317488   0.01522155
7510.00   4.92926216   0.01540537
7512.00   4.92317677   0.01612882
7514.00   4.88995361   0.01786241
7516.00   4.91015434   0.01728759
7518.00   4.94194841   0.01552709
7520.00   4.98840714   0.01588028
7522.00   5.10403967   0.01795549
7524.00   5.04988289   0.01660732
7526.00   4.80826521   0.01965068
7528.00   4.87384653   0.01972610
7530.00   5.00386810   0.01734817
7532.00   5.03717422   0.01601769
7534.00   5.00600719   0.01667827
7536.00   4.97709036   0.01572945
7538.00   5.00863647   0.01525259
7540.00   5.03841019   0.01619211
7542.00   5.00955868   0.01747237
7544.00   5.02905369   0.01790171
7546.00   5.09672070   0.01689802
7548.00   5.13899088   0.01630195
7550.00   5.14317369   0.01854419
7552.00   5.13555765   0.01670183
7554.00   5.16070127   0.01559762
7556.00   5.17842245   0.01556781
7558.00   5.16403008   0.01553490
7560.00   5.18085289   0.01626974
7562.00   5.23769617   0.01785082
7564.00   5.22118330   0.01783063
7566.00   5.28837633   0.01658403
7568.00   5.35827541   0.01616438
7570.00   5.36664629   0.01640607
7572.00   5.39071846   0.01643618
7574.00   5.43025494   0.01661731
7576.00   5.43696022   0.01743671
7578.00   5.45654154   0.01795105
7580.00   5.52888584   0.01870703
7582.00   5.56440067   0.01759656
7584.00   5.53891802   0.01630623
7586.00   5.41131115   0.01658893
7588.00   5.33813763   0.01746816
7590.00   5.45087957   0.01905658
7592.00   5.55883026   0.02539384
7594.00   5.85554886   0.03629036
7596.00   5.90610313   0.03691827
7598.00   5.71703053   0.03555580
7600.00   5.55459929   0.03594080
7602.00   5.52532578   0.03876280
7604.00   5.50658703   0.04064592
7606.00   5.42869377   0.03455963
7608.00   5.28639746   0.03024147
7610.00   5.48722458   0.03373291
7612.00   5.27759552   0.04139444
7614.00   5.34987688   0.04163418
7616.00   5.93711424   0.03240960
7618.00   6.18728209   0.02217683
7620.00   5.73661041   0.02169206
7622.00   5.61957407   0.02257382
7624.00   5.76620007   0.02673321
7626.00   5.70100212   0.02764747
7628.00   5.56682491   0.02561351
7630.00   5.60617685   0.02353306
7632.00   5.74260759   0.02297722
7634.00   5.84834337   0.02277567
7636.00   5.75625229   0.02363747
7638.00   5.81892681   0.02250855
7640.00   5.72812653   0.02449150
7642.00   5.63651323   0.02548980
7644.00   5.76624966   0.02323009
7646.00   5.93487978   0.02194012
7648.00   5.73864651   0.02066475
7650.00   5.79721403   0.01968509
7652.00   5.84180593   0.02113711
7654.00   5.80106258   0.02475239
7656.00   5.78595209   0.02479354
7658.00   5.82662773   0.02010649
7660.00   5.79725409   0.01793224
7662.00   5.77594233   0.01976232
7664.00   5.80461931   0.01885465
7666.00   5.85290003   0.01895408
7668.00   5.85223103   0.01873873
7670.00   5.83949518   0.01825403
7672.00   5.80474043   0.01842238
7674.00   5.66702652   0.01871035
7676.00   5.70967484   0.01804440
7678.00   5.83035374   0.01748287
7680.00   5.85125351   0.01906416
7682.00   5.80119181   0.02077723
7684.00   5.80820131   0.02004419
7686.00   5.85632753   0.01805567
7688.00   5.78938580   0.02058776
7690.00   5.94320583   0.02553851
7692.00   5.86308479   0.02434179
7694.00   5.79570580   0.02013701
7696.00   5.84559107   0.01692954
7698.00   5.88796043   0.01770466
7700.00   5.81596804   0.01980501
7702.00   5.76031351   0.01938729
7704.00   5.73827505   0.01954074
7706.00   5.72365618   0.02133472
7708.00   5.80669165   0.01997804
7710.00   5.87808943   0.01791560
7712.00   5.91770458   0.01761518
7714.00   5.96351099   0.01812993
7716.00   5.92441750   0.01822729
7718.00   5.80078030   0.01890157
7720.00   5.85956907   0.01845996
7722.00   5.93669891   0.01778830
7724.00   6.06097984   0.01925509
7726.00   6.14622164   0.02099865
7728.00   6.06750154   0.02009634
7730.00   5.98363066   0.01800705
7732.00   6.03110838   0.01785726
7734.00   6.03392315   0.01761127
7736.00   6.03364038   0.01844314
7738.00   6.03273726   0.01890488
7740.00   5.94911671   0.01943644
7742.00   5.79750061   0.02121590
7744.00   5.86854315   0.02148260
7746.00   6.01057243   0.01892136
7748.00   6.06177711   0.01773396
7750.00   6.04810953   0.01992197
7752.00   6.00752783   0.02068673
7754.00   6.02216434   0.02091621
7756.00   6.11815357   0.02393267
7758.00   6.09347582   0.02208037
7760.00   6.08157110   0.01866633
7762.00   6.20741224   0.01780761
7764.00   6.22665501   0.01787328
7766.00   6.17516136   0.01775665
7768.00   6.14619017   0.01834652
7770.00   6.12094688   0.01980701
7772.00   6.17909384   0.01870222
7774.00   6.12995529   0.01772688
7776.00   6.10675621   0.01849283
7778.00   6.08263397   0.01899274
7780.00   6.04044199   0.02063207
7782.00   5.99333382   0.02192311
7784.00   6.00107050   0.02021120
7786.00   6.23243904   0.02532105
7788.00   6.17367649   0.02110570
7790.00   6.13488865   0.01803507
7792.00   6.10753202   0.01851975
7794.00   6.03640938   0.02021701
7796.00   5.97811127   0.02043275
7798.00   6.02588797   0.01860616
7800.00   5.95570087   0.01819078
7802.00   6.04463768   0.01925232
7804.00   6.08146524   0.02375063
7806.00   6.11840868   0.02279475
7808.00   6.14038277   0.01856603
7810.00   6.17941189   0.01793646
7812.00   6.34395266   0.01851080
7814.00   6.21838188   0.01816945
7816.00   6.28961325   0.02064161
7818.00   6.32191229   0.02018378
7820.00   6.27907324   0.01927472
7822.00   6.23993969   0.01921078
7824.00   6.20735550   0.01959878
7826.00   6.08440256   0.02102553
7828.00   6.17979574   0.02033355
7830.00   6.05702639   0.01859443
7832.00   5.97834682   0.01774430
7834.00   5.98740911   0.01797563
7836.00   6.08427048   0.01903201
7838.00   6.20492983   0.01996129
7840.00   6.16492605   0.01913541
7842.00   5.98272991   0.01970868
7844.00   5.85378742   0.02138783
7846.00   5.94386625   0.01989944
7848.00   6.03542328   0.01878839
7850.00   6.09563541   0.01939072
7852.00   6.16028357   0.02005182
7854.00   5.95325375   0.02255152
7856.00   6.04635763   0.02099096
7858.00   6.04235411   0.02034758
7860.00   5.99848461   0.01925337
7862.00   5.99445677   0.01837225
7864.00   5.96426439   0.01834778
7866.00   5.81620312   0.01996833
7868.00   5.68446636   0.02480722
7870.00   5.77028418   0.02366696
7872.00   5.78689051   0.02053289
7874.00   5.80978394   0.01853839
7876.00   5.88627911   0.01822197
7878.00   5.91527987   0.01846655
7880.00   5.81844664   0.01895685
7882.00   5.80811310   0.02013152
7884.00   5.80576372   0.02014617
7886.00   5.77395344   0.02162597
7888.00   5.80452538   0.02059420
7890.00   5.82510376   0.01888445
7892.00   5.79558611   0.01924459
7894.00   5.79888296   0.02066933
7896.00   5.85794353   0.02218965
7898.00   5.91011238   0.02094924
7900.00   5.78396654   0.02083468
7902.00   5.65912962   0.02552787
7904.00   5.69036818   0.02517843
7906.00   5.78189659   0.01867470
7908.00   5.75572824   0.01953575
7910.00   5.84499788   0.02033032
7912.00   5.81887007   0.01954165
7914.00   5.72065592   0.02025826
7916.00   5.70741034   0.02099402
7918.00   5.73608112   0.02133550
7920.00   5.65966082   0.02301977
7922.00   5.51435328   0.02571088
7924.00   5.74203777   0.02036216
7926.00   5.79841995   0.02111504
7928.00   5.81202841   0.02209928
7930.00   5.74500799   0.02099867
7932.00   5.68862200   0.01938332
7934.00   5.72126007   0.01916682
7936.00   5.73621988   0.01945405
7938.00   5.56899500   0.02104001
7940.00   5.61732435   0.02256807
7942.00   5.70928144   0.02017872
7944.00   5.70029259   0.01859242
7946.00   5.58119297   0.01877940
7948.00   5.46253109   0.01892221
7950.00   5.45311689   0.02096597
7952.00   5.53501511   0.02312695
7954.00   5.55080700   0.02088320
7956.00   5.49411583   0.02099214
7958.00   5.38727331   0.02342095
7960.00   5.34583998   0.02394073
7962.00   5.40244389   0.02115449
7964.00   5.38052845   0.01922598
7966.00   5.24768925   0.01909550
7968.00   5.19095039   0.01859202
7970.00   5.26529074   0.01903014
7972.00   5.34068680   0.01931367
7974.00   5.30628061   0.01904918
7976.00   5.20810127   0.01928089
7978.00   5.19252920   0.02050211
7980.00   5.16933250   0.01942457
7982.00   5.14820528   0.01906128
7984.00   5.10660124   0.01833352
7986.00   5.00894690   0.02007690
7988.00   4.95116901   0.02203462
7990.00   5.02654696   0.02065347
7992.00   5.08312225   0.01901998
7994.00   4.95383120   0.01899506
7996.00   4.91837978   0.01871566
7998.00   4.93078089   0.01813304
8000.00   5.00248814   0.02019733
8002.00   5.08148289   0.02205608
8004.00   5.07301998   0.01989893
8006.00   5.01343346   0.01888877
8008.00   4.98731709   0.01898470
8010.00   4.90765667   0.01867968
8012.00   4.86106777   0.01842063
8014.00   4.92037392   0.01995814
8016.00   4.95131111   0.02233914
8018.00   4.79728222   0.02270832
8020.00   4.70676041   0.01987716
8022.00   4.77945662   0.01873885
8024.00   4.71454716   0.02220791
8026.00   4.54667664   0.02380602
8028.00   4.62036800   0.02550548
8030.00   4.84493113   0.02570803
8032.00   4.79365683   0.02084632
8034.00   4.88063908   0.02653527
8036.00   4.67086124   0.02161544
