# File created by shivutils (I.Shivvers)
# wl(A)   flm    er(optional)
3458.00   2.21700556   0.44106455
3460.00   2.82367701   0.44172877
3462.00   2.52044530   0.45036501
3464.00   2.59317335   0.46925686
3466.00   1.39412746   0.46815572
3468.00   1.04712712   0.47330615
3470.00   1.69352442   0.47448447
3472.00   2.59474337   0.47152762
3474.00   1.62211396   0.45044156
3476.00   1.73546925   0.45272974
3478.00   2.28811463   0.48226981
3480.00   1.45733213   0.49766620
3482.00   2.01250104   0.48993085
3484.00   1.79347225   0.49087404
3486.00   2.90120293   0.50903337
3488.00   2.92581949   0.50109049
3490.00   2.51305423   0.47676377
3492.00   1.85945537   0.47557452
3494.00   1.37829208   0.47688886
3496.00   1.30928576   0.47361076
3498.00   2.79302223   0.49878738
3500.00   2.62593197   0.51839078
3502.00   1.25765350   0.51571035
3504.00   2.61001379   0.51850589
3506.00   2.42999700   0.51060632
3508.00   2.72403225   0.51037730
3510.00   2.45200276   0.50144689
3512.00   0.89128541   0.47972291
3514.00   2.29141143   0.48037845
3516.00   2.01136371   0.49620523
3518.00   2.14958544   0.50740825
3520.00   1.60949790   0.49159770
3522.00   2.39015938   0.47593070
3524.00   2.85501110   0.46326149
3526.00   2.50452744   0.46799218
3528.00   1.72767471   0.48603684
3530.00   2.07400768   0.49446038
3532.00   1.77049887   0.48947611
3534.00   2.60728435   0.50476841
3536.00   2.40056782   0.50660541
3538.00   2.35709142   0.50917188
3540.00   3.10614382   0.50581591
3542.00   2.73477160   0.50892760
3544.00   3.34384147   0.51956886
3546.00   2.90201090   0.51272437
3548.00   2.85129819   0.51309253
3550.00   2.93764472   0.51004776
3552.00   2.36417353   0.48507572
3554.00   1.42251075   0.47029573
3556.00   2.69486889   0.48563959
3558.00   3.01224303   0.48415765
3560.00   3.53708868   0.48899277
3562.00   2.77659431   0.48961163
3564.00   3.04904738   0.46655344
3566.00   1.56616610   0.43440618
3568.00   2.85895366   0.43678435
3570.00   1.93657200   0.42177075
3572.00   2.81655187   0.44491061
3574.00   3.45777970   0.45882161
3576.00   2.21681954   0.44642870
3578.00   2.64175205   0.43280956
3580.00   2.89565293   0.41330197
3582.00   2.46911015   0.40344072
3584.00   2.56169704   0.38443544
3586.00   2.89396536   0.38333570
3588.00   2.28628674   0.38881114
3590.00   2.98535994   0.42390176
3592.00   2.25498174   0.41853609
3594.00   2.67831688   0.41748460
3596.00   2.94989286   0.42282089
3598.00   2.63940097   0.42613692
3600.00   1.67470156   0.41690902
3602.00   2.11528398   0.40385513
3604.00   3.00218681   0.39383163
3606.00   2.57244325   0.38129486
3608.00   2.14220063   0.36848963
3610.00   2.51485494   0.37481262
3612.00   3.00607293   0.39781787
3614.00   3.01231592   0.40628919
3616.00   2.96992840   0.39240668
3618.00   2.65882965   0.36307967
3620.00   3.29892437   0.36686385
3622.00   3.73092760   0.38733801
3624.00   3.60161312   0.39704607
3626.00   2.76162164   0.39741385
3628.00   3.50618682   0.40291774
3630.00   3.06434252   0.38039626
3632.00   3.56553792   0.37500148
3634.00   3.34234379   0.36966118
3636.00   3.88343651   0.37925921
3638.00   3.69978705   0.38692068
3640.00   3.58036821   0.39172307
3642.00   3.87383414   0.39497147
3644.00   3.82154640   0.39485676
3646.00   4.12242987   0.39474116
3648.00   2.92412604   0.45985862
3650.00   3.63660728   0.51754373
3652.00   4.38826928   0.49429789
3654.00   3.75091739   0.45794114
3656.00   2.83348180   0.42829717
3658.00   4.27231011   0.39894869
3660.00   3.21510890   0.39810859
3662.00   4.96346730   0.43174103
3664.00   4.87154273   0.41935104
3666.00   4.31994297   0.37883817
3668.00   4.52701335   0.36204774
3670.00   4.28959182   0.35942167
3672.00   4.20457678   0.35926192
3674.00   3.64841137   0.35318890
3676.00   3.48093687   0.34215102
3678.00   4.26001142   0.33759322
3680.00   4.39058658   0.33642323
3682.00   4.27858877   0.33963707
3684.00   4.50382437   0.33571968
3686.00   4.42471357   0.32453402
3688.00   4.81372465   0.32704633
3690.00   4.27244607   0.33922411
3692.00   4.27940159   0.34206953
3694.00   4.66866945   0.33567927
3696.00   4.37759731   0.33362051
3698.00   5.37687913   0.34440496
3700.00   4.91165913   0.34425236
3702.00   4.85748626   0.33401707
3704.00   5.12785711   0.32113641
3706.00   4.81793559   0.31077105
3708.00   4.42578523   0.30684906
3710.00   5.10986347   0.32047008
3712.00   5.32072242   0.33387960
3714.00   5.11893737   0.33831892
3716.00   5.15010309   0.32974013
3718.00   4.81054496   0.31123041
3720.00   5.01876816   0.29757698
3722.00   5.11658161   0.29671111
3724.00   5.21947208   0.31498833
3726.00   5.27252001   0.32061737
3728.00   5.18399149   0.31633907
3730.00   5.44293944   0.31242399
3732.00   5.17927517   0.29490163
3734.00   5.10687944   0.27585805
3736.00   4.63508173   0.27013524
3738.00   4.36875154   0.28644638
3740.00   4.29603890   0.29977863
3742.00   4.59512199   0.29890102
3744.00   4.23925850   0.27688891
3746.00   4.72935880   0.27247716
3748.00   4.37678972   0.26429461
3750.00   4.32818019   0.27284251
3752.00   4.46949868   0.29453231
3754.00   3.98157003   0.30221524
3756.00   4.02594127   0.29135703
3758.00   3.97453694   0.27667415
3760.00   3.87334455   0.27491880
3762.00   4.22806611   0.28232824
3764.00   4.47917525   0.28313904
3766.00   3.52639710   0.27330119
3768.00   3.33858496   0.27181321
3770.00   4.01181377   0.28232609
3772.00   4.16488373   0.28839185
3774.00   3.95189224   0.29118575
3776.00   3.65990215   0.28815152
3778.00   3.63972063   0.28978305
3780.00   3.61560030   0.29239670
3782.00   3.17882595   0.29186053
3784.00   3.42678655   0.29002971
3786.00   3.19197014   0.27632359
3788.00   2.37768671   0.26317778
3790.00   3.09966721   0.27016463
3792.00   2.48576086   0.26529473
3794.00   3.22285490   0.26171047
3796.00   2.86025868   0.24968590
3798.00   2.99344878   0.24959461
3800.00   2.59047840   0.25418332
3802.00   2.62253810   0.26793179
3804.00   2.74673410   0.26897064
3806.00   3.00959759   0.26532399
3808.00   3.15122166   0.26520555
3810.00   2.74427762   0.26790457
3812.00   2.04044447   0.25542974
3814.00   2.49717788   0.24304500
3816.00   2.29270534   0.24122048
3818.00   2.32404128   0.23927882
3820.00   2.38386639   0.23360433
3822.00   2.01063018   0.23099083
3824.00   2.11973781   0.22762550
3826.00   2.74725751   0.22314944
3828.00   2.41826938   0.22662638
3830.00   2.38101069   0.22707198
3832.00   1.72224389   0.21365644
3834.00   2.13363686   0.21673151
3836.00   2.43612799   0.22167214
3838.00   1.76277722   0.21378312
3840.00   1.91208018   0.21942541
3842.00   2.08545003   0.23323363
3844.00   1.80524110   0.23911510
3846.00   2.05688672   0.24183255
3848.00   1.68147869   0.23595275
3850.00   1.54620110   0.23722624
3852.00   1.02576028   0.23864878
3854.00   1.55739555   0.23731312
3856.00   2.31502654   0.23300723
3858.00   1.95738424   0.21860237
3860.00   1.53106021   0.21614328
3862.00   2.22674754   0.23573207
3864.00   2.42248043   0.24196161
3866.00   2.74765962   0.24009373
3868.00   1.98560242   0.22933870
3870.00   2.15747404   0.22263819
3872.00   2.17137462   0.22698333
3874.00   2.09100117   0.24305065
3876.00   2.73326771   0.24657457
3878.00   2.80819079   0.23626575
3880.00   2.82839105   0.23401240
3882.00   3.22506534   0.24111735
3884.00   2.82059057   0.24042379
3886.00   3.06220431   0.24101157
3888.00   3.37465983   0.24264439
3890.00   3.30269312   0.24688995
3892.00   3.66923468   0.25385341
3894.00   2.99334942   0.25300571
3896.00   3.56769520   0.25685807
3898.00   3.26882629   0.25387982
3900.00   3.06954385   0.25012649
3902.00   2.91526175   0.25027243
3904.00   3.00819540   0.25101064
3906.00   3.26459487   0.26844635
3908.00   2.31317763   0.27961779
3910.00   3.43568712   0.29275275
3912.00   2.40297772   0.29877359
3914.00   2.54230834   0.28796811
3916.00   2.96460494   0.26410295
3918.00   3.03731747   0.24537174
3920.00   3.61285235   0.23717590
3922.00   3.25187108   0.23065572
3924.00   3.15347175   0.23021179
3926.00   2.78915239   0.21843001
3928.00   3.05805079   0.20711592
3930.00   3.50544743   0.19810414
3932.00   2.78521577   0.19455291
3934.00   2.61741041   0.19245409
3936.00   3.19920368   0.19502090
3938.00   3.39918890   0.20510095
3940.00   3.61382912   0.21789472
3942.00   3.63880846   0.22630338
3944.00   3.89080470   0.23686953
3946.00   3.38082606   0.23636195
3948.00   2.99412553   0.23368298
3950.00   3.66464091   0.23753582
3952.00   3.39104156   0.23456865
3954.00   3.34178350   0.23447371
3956.00   3.59214028   0.23275633
3958.00   3.75711619   0.23440725
3960.00   3.41177880   0.23493303
3962.00   3.68242789   0.22664859
3964.00   3.73480725   0.20982351
3966.00   3.71643820   0.19517167
3968.00   3.60721852   0.18627130
3970.00   3.60559201   0.18991539
3972.00   3.94799625   0.20390111
3974.00   4.11847549   0.21675075
3976.00   4.22027850   0.22549171
3978.00   4.27470858   0.23249487
3980.00   3.99961007   0.23614248
3982.00   4.30609273   0.23725218
3984.00   4.40071286   0.23699134
3986.00   4.75573009   0.24026075
3988.00   4.21302252   0.24274887
3990.00   5.08226572   0.24838703
3992.00   4.17162539   0.24384763
3994.00   5.15376964   0.25100696
3996.00   5.19710768   0.25470299
3998.00   4.69339539   0.25190541
4000.00   5.10102772   0.24878084
4002.00   5.02873288   0.24596559
4004.00   5.44860966   0.24249166
4006.00   5.65934485   0.24161116
4008.00   5.80082816   0.24667380
4010.00   6.50776344   0.25321892
4012.00   6.04319752   0.25054407
4014.00   6.01852170   0.25034301
4016.00   5.91382051   0.24934637
4018.00   5.84144069   0.26075777
4020.00   6.36824522   0.27922903
4022.00   5.67405116   0.28201269
4024.00   6.23232165   0.27725168
4026.00   6.39299490   0.26747392
4028.00   6.41154752   0.25920047
4030.00   6.25536138   0.25151016
4032.00   6.52060575   0.24624819
4034.00   6.07204909   0.24477852
4036.00   6.55258875   0.25002804
4038.00   5.93568540   0.24690907
4040.00   5.96922671   0.25784985
4042.00   6.35092255   0.26011554
4044.00   6.06833874   0.32802311
4046.00   6.67148118   0.40076337
4048.00   6.28600331   0.37523324
4050.00   5.79589788   0.28403417
4052.00   5.83659560   0.25440489
4054.00   6.15990610   0.25492172
4056.00   6.76888391   0.25141575
4058.00   6.34606722   0.24136835
4060.00   5.64998400   0.23674803
4062.00   6.35703203   0.23407806
4064.00   6.27599262   0.23079601
4066.00   6.53625136   0.23575665
4068.00   6.34347767   0.23890005
4070.00   6.41855555   0.23598799
4072.00   6.67900930   0.23375396
4074.00   6.03161044   0.23663681
4076.00   6.28460297   0.25358945
4078.00   6.46154998   0.26205631
4080.00   6.13382689   0.25813090
4082.00   6.52148622   0.25333430
4084.00   6.51492224   0.25015126
4086.00   5.98993290   0.24630678
4088.00   6.55927431   0.24620167
4090.00   6.23084614   0.23682807
4092.00   6.54530902   0.23432813
4094.00   6.42619980   0.23139214
4096.00   6.77124207   0.22999255
4098.00   6.38505259   0.22551879
4100.00   6.61516466   0.21980116
4102.00   6.65159206   0.21661833
4104.00   6.43647870   0.21933640
4106.00   6.42365513   0.22452128
4108.00   5.92051478   0.22455344
4110.00   6.41234062   0.22605210
4112.00   6.05849757   0.22531669
4114.00   5.96090419   0.22794157
4116.00   6.08876430   0.22870512
4118.00   5.71117165   0.22198091
4120.00   5.28066670   0.21779835
4122.00   5.49393349   0.21844788
4124.00   5.34168582   0.21859825
4126.00   5.49260461   0.21874376
4128.00   4.94445310   0.21501371
4130.00   5.28920885   0.21582431
4132.00   4.91571679   0.21620646
4134.00   4.39814717   0.21493299
4136.00   4.70684374   0.21521702
4138.00   5.05779035   0.22168242
4140.00   5.03526483   0.22330015
4142.00   4.71844716   0.21381922
4144.00   4.85941573   0.20730798
4146.00   4.47517304   0.20704492
4148.00   4.54930672   0.20879188
4150.00   4.74111191   0.21433690
4152.00   4.89646650   0.21805426
4154.00   4.90840862   0.21407785
4156.00   5.13036910   0.20913307
4158.00   4.67692247   0.20667266
4160.00   5.44179184   0.21333068
4162.00   5.07775922   0.21671839
4164.00   5.22037967   0.22404139
4166.00   5.06692514   0.22117912
4168.00   5.18460810   0.21195577
4170.00   5.37071126   0.20570632
4172.00   5.58385233   0.20283654
4174.00   5.41767664   0.20030683
4176.00   5.15326121   0.20173737
4178.00   5.66783775   0.20589845
4180.00   5.49961940   0.20355163
4182.00   5.68826810   0.20178366
4184.00   6.11244243   0.20280962
4186.00   5.71003386   0.20091637
4188.00   5.98649207   0.20139922
4190.00   5.78761479   0.20223368
4192.00   6.63316407   0.20772280
4194.00   6.26276225   0.20477631
4196.00   5.64911431   0.19792967
4198.00   5.85655640   0.19698387
4200.00   5.62900208   0.19449458
4202.00   5.45095387   0.19491678
4204.00   5.99024143   0.20022499
4206.00   5.96386502   0.20225413
4208.00   6.16582100   0.20524135
4210.00   6.10654060   0.20564823
4212.00   6.02079097   0.20528375
4214.00   5.73588931   0.20146211
4216.00   5.73394404   0.19928734
4218.00   5.72472470   0.20027549
4220.00   5.45406482   0.19998197
4222.00   5.69749593   0.19900308
4224.00   5.40936632   0.19125723
4226.00   5.47244183   0.18741255
4228.00   4.97403077   0.18975598
4230.00   5.11362383   0.19684298
4232.00   5.42166021   0.20119011
4234.00   5.47642344   0.19902948
4236.00   5.23788547   0.19826915
4238.00   5.03071192   0.19749653
4240.00   5.60739014   0.19793312
4242.00   5.30435681   0.19539961
4244.00   5.13193939   0.20534584
4246.00   5.86407123   0.21917400
4248.00   5.58366430   0.21310913
4250.00   5.43431384   0.19862087
4252.00   5.17518025   0.19240688
4254.00   5.57691403   0.19424385
4256.00   5.40751212   0.19548927
4258.00   5.17208869   0.19222897
4260.00   5.23873336   0.18961142
4262.00   4.88336774   0.18977499
4264.00   4.88768195   0.19135898
4266.00   5.29561378   0.19398687
4268.00   5.05334551   0.19009991
4270.00   5.07997880   0.18642884
4272.00   5.17562800   0.18438539
4274.00   5.40783742   0.18814755
4276.00   5.00985343   0.19151626
4278.00   4.95184994   0.19303858
4280.00   4.93994300   0.19073235
4282.00   4.89397576   0.18976318
4284.00   5.26185861   0.19009465
4286.00   5.17739831   0.18707706
4288.00   5.56101720   0.18663083
4290.00   5.34241726   0.18459895
4292.00   5.04773042   0.18581824
4294.00   5.38844769   0.18929291
4296.00   5.28171407   0.18594563
4298.00   4.97607343   0.17896502
4300.00   5.20688937   0.17667822
4302.00   5.45806104   0.17783645
4304.00   5.14377682   0.17807056
4306.00   4.94507145   0.17741139
4308.00   5.33551752   0.17755799
4310.00   5.11156482   0.17906078
4312.00   5.23330064   0.19274749
4314.00   4.87329996   0.20150457
4316.00   5.02130575   0.20249287
4318.00   5.06279602   0.20312461
4320.00   5.42688551   0.20654254
4322.00   5.28329373   0.20228349
4324.00   5.10292724   0.19487467
4326.00   5.51321145   0.19503058
4328.00   5.09198880   0.19359262
4330.00   5.53301342   0.19502409
4332.00   5.35706757   0.19381451
4334.00   5.19592457   0.19355215
4336.00   5.04984063   0.19261738
4338.00   5.24856365   0.19048040
4340.00   5.22420506   0.18936949
4342.00   4.62463996   0.18874050
4344.00   4.99067428   0.19654236
4346.00   4.26977873   0.20385751
4348.00   5.17799836   0.20998147
4350.00   5.53186212   0.20847117
4352.00   5.09463075   0.19852330
4354.00   5.10958970   0.22241896
4356.00   4.93528366   0.35223136
4358.00   5.12140338   0.42693290
4360.00   5.83225338   0.38595557
4362.00   4.77428260   0.28034403
4364.00   4.75548094   0.22337102
4366.00   4.47082211   0.20911547
4368.00   5.04386515   0.20610580
4370.00   4.69562783   0.20227101
4372.00   4.68916298   0.20541398
4374.00   4.44873356   0.20666229
4376.00   4.92671950   0.20526818
4378.00   4.53204223   0.19917937
4380.00   4.19577666   0.19419388
4382.00   4.18203623   0.18799596
4384.00   4.27641734   0.18471553
4386.00   4.22319477   0.18600779
4388.00   4.21590033   0.18774944
4390.00   4.15649290   0.18916726
4392.00   3.97386401   0.18923847
4394.00   3.79772610   0.18651802
4396.00   3.76248018   0.18808101
4398.00   4.01864008   0.19300789
4400.00   3.71717966   0.19453551
4402.00   3.56655065   0.19079043
4404.00   3.86789571   0.18559370
4406.00   3.91666690   0.18447593
4408.00   3.97782176   0.18743161
4410.00   3.70613467   0.18846112
4412.00   3.38078423   0.18973198
4414.00   3.59767345   0.19197772
4416.00   3.62656750   0.19134714
4418.00   3.52719565   0.19040463
4420.00   3.71265692   0.19037182
4422.00   3.70313571   0.18894920
4424.00   3.09846536   0.18569249
4426.00   3.90686244   0.18854690
4428.00   3.85435911   0.18768433
4430.00   3.90532777   0.18817149
4432.00   3.63081744   0.18614970
4434.00   3.48267428   0.18406876
4436.00   3.51960020   0.18426580
4438.00   3.68279317   0.18659260
4440.00   3.05924512   0.18444990
4442.00   3.36741768   0.18359388
4444.00   3.39651372   0.18344246
4446.00   3.54586113   0.18455783
4448.00   3.43607659   0.18415553
4450.00   3.55507937   0.18431265
4452.00   3.83901537   0.18403663
4454.00   3.27709336   0.18030590
4456.00   3.76303240   0.18154954
4458.00   3.52199007   0.18065009
4460.00   3.35333724   0.18119995
4462.00   3.41804732   0.18141536
4464.00   3.48037887   0.18276561
4466.00   3.59430692   0.18309950
4468.00   3.39829634   0.18132439
4470.00   3.77186924   0.18218908
4472.00   3.34606351   0.18272882
4474.00   3.10652512   0.18201404
4476.00   3.64258559   0.18437018
4478.00   3.10978586   0.18161507
4480.00   3.16616699   0.17910700
4482.00   3.12054640   0.17860254
4484.00   3.44341340   0.18230370
4486.00   3.26186794   0.18312391
4488.00   3.41838352   0.18316574
4490.00   3.05817095   0.18137407
4492.00   3.32571127   0.18329772
4494.00   3.21174520   0.18331143
4496.00   3.74562324   0.18506968
4498.00   3.45744983   0.18523619
4500.00   3.23219778   0.18390091
4502.00   3.37120070   0.18357217
4504.00   3.76282084   0.18475527
4506.00   3.52167283   0.18372542
4508.00   3.34078221   0.18224993
4510.00   3.34332536   0.18076543
4512.00   3.23050035   0.18016648
4514.00   3.19488990   0.17903678
4516.00   3.60698865   0.17930888
4518.00   3.72931733   0.17918760
4520.00   3.23543150   0.17768035
4522.00   3.47515782   0.17728735
4524.00   3.24247908   0.17462272
4526.00   3.31693207   0.17291778
4528.00   3.34148064   0.17125294
4530.00   3.68657728   0.17236677
4532.00   3.53803255   0.17246120
4534.00   3.53067591   0.17220142
4536.00   3.46442169   0.17226883
4538.00   3.09352941   0.17148937
4540.00   3.35271638   0.17343014
4542.00   3.19564422   0.17346018
4544.00   3.53366386   0.17550962
4546.00   3.63083901   0.17391098
4548.00   3.19153503   0.17073273
4550.00   3.03017730   0.16813394
4552.00   3.08212372   0.16727326
4554.00   3.29258656   0.16836959
4556.00   3.59991025   0.16997976
4558.00   3.12517143   0.16960446
4560.00   3.51428514   0.17056117
4562.00   3.38309783   0.16837696
4564.00   3.46316133   0.16744049
4566.00   3.78794637   0.16808233
4568.00   3.52192644   0.16642414
4570.00   3.41937576   0.16663757
4572.00   3.91369431   0.16892406
4574.00   3.59454234   0.16864627
4576.00   3.68894557   0.16748967
4578.00   3.80973370   0.16629467
4580.00   4.04278699   0.16385845
4582.00   3.98844547   0.16165042
4584.00   3.83459439   0.16101335
4586.00   4.31080143   0.16270807
4588.00   4.24583675   0.16394414
4590.00   4.30010397   0.16418511
4592.00   4.24973753   0.16428623
4594.00   4.34304109   0.16422172
4596.00   4.28731754   0.16306750
4598.00   4.24058105   0.16249877
4600.00   4.20417206   0.16086375
4602.00   4.34259541   0.16053264
4604.00   4.60987024   0.16186949
4606.00   4.55026922   0.16245476
4608.00   4.42178433   0.16288699
4610.00   4.41491793   0.16294861
4612.00   4.47542252   0.16227905
4614.00   4.39572898   0.16087211
4616.00   4.26452054   0.15945233
4618.00   4.27836196   0.15925707
4620.00   4.36880154   0.15967832
4622.00   4.53256384   0.15967442
4624.00   4.48530008   0.15973675
4626.00   4.48110853   0.15956987
4628.00   4.62278620   0.16013105
4630.00   4.81267696   0.16036213
4632.00   4.84107663   0.16043645
4634.00   4.40002718   0.15867415
4636.00   4.47189682   0.15868167
4638.00   4.46254730   0.15782791
4640.00   4.41856662   0.15811821
4642.00   4.54965631   0.15835869
4644.00   4.38893938   0.15777325
4646.00   4.51819275   0.15727971
4648.00   4.27782651   0.15667601
4650.00   4.86589855   0.16003453
4652.00   4.73474926   0.16045160
4654.00   4.46000786   0.15985045
4656.00   4.60650785   0.16094014
4658.00   4.53791018   0.16214182
4660.00   4.63066980   0.16466082
4662.00   4.96964792   0.16712632
4664.00   4.85257319   0.16735120
4666.00   4.89872117   0.16889812
4668.00   5.31498564   0.17237557
4670.00   4.85493124   0.17309405
4672.00   5.07812592   0.17256438
4674.00   5.07804356   0.17118123
4676.00   4.84196277   0.16761770
4678.00   5.12451237   0.16638175
4680.00   5.41913690   0.16487134
4682.00   5.23649700   0.16319432
4684.00   5.27727926   0.16298353
4686.00   5.37100846   0.16234499
4688.00   5.40097473   0.16237178
4690.00   5.44586214   0.16091896
4692.00   5.12216293   0.15957683
4694.00   5.28261589   0.16018233
4696.00   5.48761071   0.16016614
4698.00   5.26733568   0.15795365
4700.00   5.01562094   0.15542600
4702.00   5.00221071   0.15571197
4704.00   5.19070276   0.15794373
4706.00   5.15626376   0.15904546
4708.00   5.27342183   0.16064579
4710.00   5.15245929   0.16067152
4712.00   4.94910928   0.15999901
4714.00   5.16005233   0.15945191
4716.00   5.00528375   0.15818438
4718.00   4.71689038   0.15734074
4720.00   4.79240523   0.15784592
4722.00   5.00977608   0.15826988
4724.00   4.88104368   0.15745810
4726.00   4.96473408   0.16097171
4728.00   4.88589302   0.16615026
4730.00   5.01967816   0.16856052
4732.00   4.84268963   0.16898153
4734.00   4.77093645   0.17061086
4736.00   5.05969847   0.17407134
4738.00   5.04566793   0.17701698
4740.00   4.77806159   0.17918349
4742.00   4.87277007   0.18467432
4744.00   4.96096185   0.18221678
4746.00   5.12142158   0.17261336
4748.00   4.91035869   0.16205023
4750.00   4.73252128   0.15998105
4752.00   4.90333966   0.16017840
4754.00   4.61672183   0.15871743
4756.00   4.97857648   0.15578126
4758.00   5.32320205   0.15375622
4760.00   5.12263443   0.15044532
4762.00   4.76569317   0.14718546
4764.00   5.01621532   0.14697202
4766.00   4.84948773   0.14510750
4768.00   5.04536136   0.14533016
4770.00   5.05355751   0.14587897
4772.00   5.25368654   0.14656073
4774.00   5.12132080   0.14651392
4776.00   4.69895296   0.14788687
4778.00   4.94815005   0.15226314
4780.00   4.98445522   0.15232899
4782.00   4.90735755   0.14878679
4784.00   5.13160428   0.14678214
4786.00   5.06375678   0.14503866
4788.00   5.05215042   0.14427595
4790.00   4.70730304   0.14369263
4792.00   4.50175426   0.14351678
4794.00   4.72328910   0.14400017
4796.00   4.58968948   0.14192794
4798.00   4.64277457   0.14087964
4800.00   4.30516400   0.13940879
4802.00   4.46318984   0.13942759
4804.00   4.13812069   0.13811456
4806.00   4.38310455   0.13938853
4808.00   4.21177230   0.13938232
4810.00   4.21889548   0.13986135
4812.00   4.16236434   0.13942199
4814.00   3.97973217   0.13913585
4816.00   3.98505781   0.13866893
4818.00   4.28692687   0.14008497
4820.00   4.15091343   0.13995694
4822.00   3.75739127   0.13925839
4824.00   3.59910919   0.13915968
4826.00   3.84376656   0.14147626
4828.00   3.76226698   0.14164377
4830.00   3.87276193   0.14209692
4832.00   4.03411106   0.14341535
4834.00   3.69785878   0.14209538
4836.00   3.97075600   0.14279837
4838.00   3.86000285   0.14470861
4840.00   4.10577818   0.14691178
4842.00   3.94894263   0.14460824
4844.00   3.75581194   0.14219924
4846.00   3.81548933   0.14327486
4848.00   3.77400756   0.14317313
4850.00   4.11370066   0.14498780
4852.00   3.78546423   0.14358539
4854.00   3.90837379   0.14244652
4856.00   4.05347431   0.14058635
4858.00   3.81564915   0.13792187
4860.00   3.94474357   0.13760484
4862.00   3.91116500   0.13780685
4864.00   4.07440383   0.14053185
4866.00   4.06568454   0.14160693
4868.00   3.94041573   0.14147257
4870.00   4.04860537   0.14080644
4872.00   3.83839331   0.13979531
4874.00   3.95777304   0.14133371
4876.00   4.08122666   0.14287465
4878.00   3.46363905   0.14229292
4880.00   3.77590489   0.14377302
4882.00   3.41929820   0.14143118
4884.00   3.72505867   0.14032170
4886.00   3.48327586   0.13749069
4888.00   3.31668444   0.13561953
4890.00   3.22221661   0.13560216
4892.00   3.43389502   0.13647610
4894.00   3.23684198   0.13808276
4896.00   3.28692745   0.13888339
4898.00   3.10839772   0.13755235
4900.00   3.10172829   0.13659404
4902.00   3.18173286   0.13609723
4904.00   3.08248171   0.13517887
4906.00   3.06369595   0.13628811
4908.00   2.53028440   0.13546237
4910.00   2.83523217   0.13693124
4912.00   2.77693105   0.13600852
4914.00   2.66089791   0.13592569
4916.00   2.86695600   0.13655842
4918.00   3.14370073   0.13606696
4920.00   2.67428505   0.13330935
4922.00   2.87358600   0.13313625
4924.00   2.76701699   0.13283715
4926.00   2.94274778   0.13338895
4928.00   3.11519233   0.13351802
4930.00   2.97601990   0.13253052
4932.00   3.02164898   0.13261836
4934.00   3.16281713   0.13309707
4936.00   3.29903408   0.13381422
4938.00   2.93876769   0.13227699
4940.00   3.19805042   0.13457471
4942.00   3.20350940   0.13468430
4944.00   3.20744036   0.13406741
4946.00   3.28692320   0.13357669
4948.00   3.13582586   0.13316573
4950.00   3.36363761   0.13442466
4952.00   3.48397363   0.13715721
4954.00   3.37221179   0.13771011
4956.00   3.61417730   0.13653273
4958.00   3.52288873   0.13505265
4960.00   3.68095826   0.13535593
4962.00   3.50375490   0.13565434
4964.00   3.62167491   0.13739190
4966.00   3.57968286   0.13800376
4968.00   3.51246199   0.13836116
4970.00   3.75217828   0.14212588
4972.00   3.15273334   0.14477817
4974.00   3.51078526   0.15180978
4976.00   3.38908975   0.15648527
4978.00   3.53926076   0.16476433
4980.00   2.72017560   0.17044127
4982.00   3.10537491   0.17620100
4984.00   3.11684738   0.17666395
4986.00   3.07818198   0.17287719
4988.00   2.91557664   0.16580855
4990.00   3.08998716   0.16066867
4992.00   3.26077285   0.15516704
4994.00   2.93343345   0.14768415
4996.00   2.81313153   0.14239648
4998.00   3.00476503   0.13757721
5000.00   2.63229495   0.13286752
5002.00   2.76362933   0.13072865
5004.00   2.42371616   0.12728906
5006.00   2.50604893   0.12543451
5008.00   2.68711576   0.12467683
5010.00   2.58021573   0.12402284
5012.00   2.46136317   0.12168701
5014.00   2.54754949   0.12164888
5016.00   2.44779650   0.12263408
5018.00   2.67337255   0.12494950
5020.00   2.56911148   0.12611156
5022.00   2.36171536   0.12512106
5024.00   2.30214163   0.12277902
5026.00   2.25904158   0.12126459
5028.00   2.49929735   0.12246105
5030.00   2.45644476   0.12459148
5032.00   2.44795463   0.12518197
5034.00   2.63831073   0.12368487
5036.00   2.38293930   0.12052360
5038.00   2.63321834   0.11967400
5040.00   2.52013166   0.11762917
5042.00   2.53854924   0.11829144
5044.00   2.48865518   0.11965216
5046.00   2.44706779   0.11915690
5048.00   2.46578409   0.11935706
5050.00   2.63763017   0.12020946
5052.00   2.71261801   0.12053190
5054.00   2.96840844   0.12146047
5056.00   2.83163414   0.12120938
5058.00   2.82307707   0.12118586
5060.00   2.86491933   0.12252299
5062.00   2.97831247   0.12593884
5064.00   3.18407130   0.12993293
5066.00   2.96981684   0.13149486
5068.00   3.02556055   0.13588647
5070.00   2.85360199   0.13796390
5072.00   3.37883830   0.13696338
5074.00   3.36551305   0.13454631
5076.00   3.32758039   0.13236348
5078.00   2.94671720   0.13225296
5080.00   2.95844982   0.14463385
5082.00   2.93096526   0.16056878
5084.00   3.00004010   0.17143767
5086.00   3.17083647   0.17472800
5088.00   3.26090184   0.16743611
5090.00   3.20934510   0.15413475
5092.00   2.83329121   0.14136225
5094.00   2.96171896   0.13456500
5096.00   2.94795205   0.13484034
5098.00   2.88845180   0.13836318
5100.00   2.71298809   0.13964285
5102.00   2.91359531   0.13659706
5104.00   2.96291830   0.13123461
5106.00   2.83372420   0.12667390
5108.00   2.94329020   0.12571104
5110.00   2.67531074   0.12448285
5112.00   3.02380909   0.12630844
5114.00   2.71155512   0.12678977
5116.00   2.67619720   0.12748492
5118.00   2.91878717   0.12748526
5120.00   2.91984031   0.12499497
5122.00   2.83137802   0.12245650
5124.00   2.81689112   0.12104558
5126.00   2.63417480   0.12025429
5128.00   2.49287859   0.11896945
5130.00   2.79010553   0.12070284
5132.00   2.83372583   0.12055612
5134.00   2.70024388   0.11986075
5136.00   2.59624650   0.11920053
5138.00   2.64445104   0.11895068
5140.00   2.43014603   0.11815344
5142.00   2.34821901   0.11826456
5144.00   2.36803024   0.11921802
5146.00   2.51526674   0.12163269
5148.00   2.45274247   0.12574211
5150.00   2.46191796   0.13024419
5152.00   2.22831691   0.13435461
5154.00   2.44138106   0.13807088
5156.00   2.46247204   0.13603472
5158.00   2.21250070   0.13110720
5160.00   2.24994605   0.12709001
5162.00   2.37165872   0.12417857
5164.00   2.21134275   0.11990312
5166.00   2.46803598   0.11812436
5168.00   2.53126303   0.11736235
5170.00   2.39851142   0.11569071
5172.00   2.16020920   0.11482545
5174.00   2.09092077   0.11691798
5176.00   2.40657205   0.12002198
5178.00   2.34688148   0.12072848
5180.00   2.19074082   0.11895878
5182.00   2.49796597   0.11898209
5184.00   2.53733683   0.11752495
5186.00   2.42872918   0.11820185
5188.00   2.45018593   0.11906100
5190.00   2.54708110   0.11979093
5192.00   2.41812046   0.12005293
5194.00   2.34315092   0.12061611
5196.00   2.50557950   0.12263598
5198.00   2.38620941   0.12316023
5200.00   2.52277405   0.12474772
5202.00   2.80853559   0.12515130
5204.00   2.69873939   0.12412668
5206.00   2.68762827   0.12375586
5208.00   2.63444666   0.12628111
5210.00   2.88210625   0.13031380
5212.00   2.61926831   0.12962327
5214.00   2.79439371   0.12806651
5216.00   2.70316756   0.12794162
5218.00   2.71930635   0.12921909
5220.00   2.53941304   0.12970975
5222.00   2.73633378   0.12938149
5224.00   2.84351308   0.12789103
5226.00   2.74582024   0.12599683
5228.00   2.85569902   0.12651161
5230.00   3.02915194   0.12771978
5232.00   3.03566003   0.12780701
5234.00   3.17091774   0.12862557
5236.00   3.16289361   0.12919349
5238.00   3.00026376   0.13047357
5240.00   3.04255377   0.13141393
5242.00   3.44385636   0.13149774
5244.00   2.94087866   0.13245554
5246.00   3.16624423   0.13045979
5248.00   2.83268304   0.12771057
5250.00   3.06982340   0.12887370
5252.00   3.18838344   0.12846207
5254.00   3.25797914   0.13064441
5256.00   3.13749866   0.13308845
5258.00   3.38327159   0.13735020
5260.00   3.48928663   0.13592499
5262.00   3.38711681   0.13497591
5264.00   3.34151975   0.13198243
5266.00   3.09348834   0.12974634
5268.00   3.28660956   0.13021174
5270.00   3.49432073   0.13078208
5272.00   3.47359951   0.13138056
5274.00   3.51337808   0.13280378
5276.00   3.63205426   0.13395734
5278.00   3.45497869   0.13317744
5280.00   3.51763020   0.13374055
5282.00   3.64757742   0.13536320
5284.00   3.74867089   0.13789729
5286.00   3.82750379   0.13977822
5288.00   3.76899524   0.13974994
5290.00   3.82807530   0.13863401
5292.00   3.50380894   0.13628378
5294.00   3.62161325   0.13629332
5296.00   3.39357588   0.13554156
5298.00   3.40831041   0.13631147
5300.00   3.64061907   0.13813424
5302.00   3.52029972   0.13762311
5304.00   3.81334611   0.13866489
5306.00   3.75989454   0.13866050
5308.00   3.97166403   0.13936169
5310.00   3.75183664   0.13997285
5312.00   3.61948551   0.13931276
5314.00   3.43513892   0.13876596
5316.00   3.60757323   0.13993681
5318.00   3.63012686   0.13964295
5320.00   3.67692479   0.13919180
5322.00   3.75592426   0.13981618
5324.00   3.40267026   0.13947060
5326.00   3.77101187   0.14066752
5328.00   3.73879333   0.14134645
5330.00   3.66709908   0.14196130
5332.00   3.62186840   0.14353827
5334.00   3.65221334   0.14318503
5336.00   3.61584433   0.14379062
5338.00   3.75763247   0.14730818
5340.00   4.00084515   0.15156074
5342.00   3.83588318   0.15293116
5344.00   3.80686013   0.15273729
5346.00   3.87286139   0.15475402
5348.00   3.55167014   0.16003066
5350.00   3.46608915   0.16194596
5352.00   3.46056405   0.16025192
5354.00   3.49331901   0.16503084
5356.00   3.45347017   0.16712435
5358.00   3.67565605   0.16476770
5360.00   3.79555227   0.16033554
5362.00   3.76497626   0.15720948
5364.00   3.69146061   0.15415773
5366.00   3.69730491   0.15314492
5368.00   3.74277081   0.15234435
5370.00   3.63608447   0.15180356
5372.00   3.86620569   0.15537537
5374.00   3.60200640   0.15936312
5376.00   4.10647682   0.16426365
5378.00   4.11798350   0.16416690
5380.00   3.85543622   0.16234952
5382.00   3.37737020   0.15946718
5384.00   3.43894819   0.15985393
5386.00   4.03977506   0.16388691
5388.00   3.60800323   0.16398285
5390.00   3.57037855   0.16959055
5392.00   4.02740643   0.17492935
5394.00   4.22589043   0.17593827
5396.00   3.57741359   0.17225661
5398.00   3.62863610   0.17270407
5400.00   3.76922086   0.17380356
5402.00   3.66444591   0.17406890
5404.00   3.91378604   0.17576716
5406.00   4.31235875   0.17968300
5408.00   4.35246110   0.18241049
5410.00   4.05304378   0.18417391
5412.00   3.47061646   0.18841951
5414.00   3.71478598   0.19595524
5416.00   3.14439165   0.19988079
5418.00   3.71808082   0.20667271
5420.00   3.42136309   0.20794635
5422.00   3.42158260   0.20792165
5424.00   3.11033842   0.20680084
5426.00   3.28895933   0.20589935
5428.00   3.54761412   0.20555942
5430.00   3.33793828   0.20539792
5432.00   3.39227064   0.20625602
5434.00   2.98385131   0.20396569
5436.00   2.85126082   0.20445756
5438.00   3.03421949   0.20647541
5440.00   3.11842399   0.20852986
5442.00   3.03181513   0.21018717
5444.00   2.92697689   0.21247181
5446.00   2.71862192   0.21426160
5448.00   2.89565930   0.21421415
5450.00   2.91605435   0.21459361
5452.00   2.68171522   0.21377587
5454.00   2.86717138   0.21536537
5456.00   2.67947614   0.23915075
5458.00   2.93984437   0.15185047
5460.00   2.66202450   0.15329015
5462.00   2.36816609   0.14528214
5464.00   2.51193964   0.13890096
5466.00   3.15000641   0.12811436
5468.00   3.42622972   0.12036010
5470.00   3.41194963   0.11463564
5472.00   3.34273547   0.10829114
5474.00   3.34484184   0.10459871
5476.00   3.30392534   0.10316507
5478.00   3.19077218   0.09862350
5480.00   3.07020354   0.09135340
5482.00   2.90988255   0.08683678
5484.00   2.60076231   0.08480773
5486.00   2.39771444   0.08364089
5488.00   2.31746596   0.08252451
5490.00   2.25631076   0.08164443
5492.00   2.42616355   0.07916493
5494.00   2.92792654   0.07322083
5496.00   3.20052528   0.07215902
5498.00   3.43963897   0.07700631
5500.00   3.46310329   0.07946952
5502.00   3.23687696   0.07705352
5504.00   2.93481183   0.07223059
5506.00   2.76004791   0.07007702
5508.00   2.62967080   0.07005127
5510.00   2.52649075   0.07064906
5512.00   2.46609235   0.07227360
5514.00   2.41382706   0.07412463
5516.00   2.36165917   0.07841243
5518.00   2.35947865   0.08029225
5520.00   2.37830764   0.07840490
5522.00   2.35463428   0.07560446
5524.00   2.37172991   0.07337991
5526.00   2.39090365   0.07072657
5528.00   2.54225141   0.06839675
5530.00   2.93290722   0.06631192
5532.00   3.16354346   0.06403882
5534.00   3.04858887   0.06258180
5536.00   2.72131681   0.06170546
5538.00   2.56244880   0.06094551
5540.00   2.45576918   0.06066724
5542.00   2.43649191   0.06064901
5544.00   2.51788890   0.06017234
5546.00   2.59436524   0.06124243
5548.00   2.66004848   0.06552403
5550.00   2.71817255   0.06888810
5552.00   2.77454448   0.06767359
5554.00   2.84882760   0.06346791
5556.00   2.84376001   0.06128435
5558.00   2.73848456   0.05926572
5560.00   2.66788453   0.05807963
5562.00   2.69735450   0.05747916
5564.00   2.70985591   0.05849863
5566.00   2.57171643   0.06217315
5568.00   2.41747266   0.06561936
5570.00   2.44362372   0.06989034
5572.00   2.64428258   0.07703764
5574.00   2.66436261   0.08097533
5576.00   2.55960977   0.08059984
5578.00   2.56488907   0.07819209
5580.00   2.76243865   0.07462498
5582.00   3.02530539   0.06825281
5584.00   3.03692591   0.06479411
5586.00   2.86732614   0.06322857
5588.00   2.82350945   0.06225166
5590.00   2.85061312   0.06238542
5592.00   2.82350826   0.06243113
5594.00   2.75615710   0.06211373
5596.00   2.67597139   0.06147391
5598.00   2.65174592   0.06025031
5600.00   2.67376584   0.05838466
5602.00   2.72964323   0.05783520
5604.00   2.89499724   0.05865153
5606.00   2.92743540   0.05887040
5608.00   2.78297019   0.05834312
5610.00   2.60523558   0.05762471
5612.00   2.54949582   0.05810744
5614.00   2.56631958   0.05980680
5616.00   2.59285855   0.06090342
5618.00   2.67546260   0.06260117
5620.00   2.71454686   0.06295321
5622.00   2.76384771   0.06096361
5624.00   2.78603613   0.05794663
5626.00   2.68908596   0.05709292
5628.00   2.49459654   0.05787393
5630.00   2.41470712   0.05756659
5632.00   2.39972192   0.05597577
5634.00   2.35127747   0.05677793
5636.00   2.28917062   0.06085148
5638.00   2.26509959   0.06403211
5640.00   2.22122949   0.06481967
5642.00   2.18114233   0.06411967
5644.00   2.24044210   0.06305302
5646.00   2.39610195   0.06080024
5648.00   2.43452549   0.06005144
5650.00   2.36980152   0.06042835
5652.00   2.35802758   0.06092862
5654.00   2.37124646   0.06103499
5656.00   2.41736513   0.06064873
5658.00   2.54943204   0.06238452
5660.00   2.79739213   0.06515804
5662.00   2.84663534   0.07236277
5664.00   2.73443687   0.08663878
5666.00   2.59229237   0.09323833
5668.00   2.42789924   0.09140079
5670.00   2.30455256   0.08586294
5672.00   2.26975530   0.08317265
5674.00   2.29636550   0.07890387
5676.00   2.46704543   0.08376609
5678.00   2.85760534   0.09269381
5680.00   3.10072339   0.10702839
5682.00   3.29981351   0.13097570
5684.00   3.55623758   0.15009164
5686.00   3.55275774   0.15088555
5688.00   3.20509791   0.13653031
5690.00   3.08363497   0.12769700
5692.00   3.09279943   0.11644750
5694.00   2.95118976   0.10667796
5696.00   2.53317016   0.09806555
5698.00   2.33676463   0.09175234
5700.00   2.57201290   0.08730636
5702.00   2.98756278   0.08647081
5704.00   3.12748766   0.08403012
5706.00   3.20381725   0.08063132
5708.00   3.17471051   0.07973918
5710.00   2.84923184   0.08357618
5712.00   2.72944283   0.08338161
5714.00   2.99545765   0.07861112
5716.00   3.30713177   0.07409835
5718.00   3.35989237   0.07390882
5720.00   3.26367927   0.07748023
5722.00   3.22538412   0.07590858
5724.00   3.15830469   0.06900799
5726.00   3.16251934   0.06392935
5728.00   3.19239187   0.06162443
5730.00   3.19124079   0.06097446
5732.00   3.20868969   0.06141386
5734.00   3.22090030   0.06171149
5736.00   3.29825068   0.06434164
5738.00   3.49436510   0.07041491
5740.00   3.59810948   0.07467113
5742.00   3.54354155   0.07572894
5744.00   3.45246804   0.07533555
5746.00   3.40049493   0.07431070
5748.00   3.25567365   0.06949919
5750.00   3.08251750   0.06812589
5752.00   2.79682916   0.07041572
5754.00   2.77951574   0.07043219
5756.00   3.03632605   0.06424519
5758.00   3.25318885   0.06171773
5760.00   3.38535476   0.06883578
5762.00   3.48708677   0.07981347
5764.00   3.39181924   0.08734791
5766.00   3.09003794   0.09625321
5768.00   2.93866909   0.09826511
5770.00   2.80701423   0.09376118
5772.00   2.79353964   0.08778451
5774.00   3.06748664   0.08057131
5776.00   3.39172316   0.07284582
5778.00   3.29474485   0.06939532
5780.00   2.80057192   0.06994900
5782.00   2.67591757   0.07247850
5784.00   2.72439152   0.07834053
5786.00   2.90964031   0.08331998
5788.00   3.36018050   0.08929487
5790.00   3.78121507   0.09419033
5792.00   3.70946622   0.09568662
5794.00   3.31204033   0.09650275
5796.00   3.08071017   0.09304003
5798.00   2.76056039   0.08243250
5800.00   2.62222499   0.07390765
5802.00   2.78905386   0.06828856
5804.00   2.93659043   0.06640547
5806.00   2.89527667   0.06993508
5808.00   2.87702155   0.07684649
5810.00   2.99907780   0.07684026
5812.00   3.26945198   0.07230726
5814.00   3.33056402   0.06947105
5816.00   3.25319612   0.06466753
5818.00   3.10924268   0.06433292
5820.00   2.91392827   0.07180977
5822.00   2.74814969   0.07852770
5824.00   2.73255658   0.07783451
5826.00   2.83134216   0.07215421
5828.00   2.80418295   0.07235529
5830.00   2.61254430   0.07718960
5832.00   2.62436998   0.07993880
5834.00   2.86648059   0.08011031
5836.00   3.11980152   0.07837298
5838.00   3.20655847   0.07790395
5840.00   3.23433638   0.07873318
5842.00   3.21798682   0.07815386
5844.00   3.14056778   0.07578456
5846.00   3.00433493   0.07477449
5848.00   2.83556795   0.07353182
5850.00   2.64869964   0.07504124
5852.00   2.42674661   0.08287117
5854.00   2.22540665   0.09219715
5856.00   2.32215458   0.09201333
5858.00   2.79317141   0.08315856
5860.00   2.95894158   0.07984084
5862.00   2.89707148   0.07880074
5864.00   2.78823566   0.07863394
5866.00   2.64553380   0.07983733
5868.00   2.45445669   0.08123085
5870.00   2.69013804   0.08386088
5872.00   3.54420900   0.08903296
5874.00   3.68497849   0.09352127
5876.00   3.06833196   0.09425819
5878.00   2.40449476   0.09753122
5880.00   1.83067256   0.10183709
5882.00   1.41972116   0.11256910
5884.00   1.90862460   0.15605267
5886.00   3.11625296   0.21703830
5888.00   4.06327355   0.24524553
5890.00   5.48959565   0.26296399
5892.00   6.29655528   0.26965034
5894.00   5.57391334   0.26220264
5896.00   4.13789749   0.24504328
5898.00   3.59022164   0.22274710
5900.00   3.34768724   0.18198901
5902.00   3.02872074   0.15043324
5904.00   2.71050775   0.11993808
5906.00   2.56960839   0.09657128
5908.00   2.55505937   0.09171667
5910.00   2.63953996   0.09616635
5912.00   2.73897624   0.09256313
5914.00   2.90082788   0.08586365
5916.00   2.75614107   0.08624543
5918.00   2.23383498   0.09431834
5920.00   1.99060345   0.09825771
5922.00   2.02288902   0.09755080
5924.00   2.13954860   0.09611621
5926.00   2.31678647   0.09604022
5928.00   2.63169932   0.09582075
5930.00   2.65427506   0.09286634
5932.00   2.38249379   0.08538401
5934.00   2.25511330   0.08187757
5936.00   2.26468819   0.08347734
5938.00   2.31002957   0.08478399
5940.00   2.27778870   0.08355732
5942.00   2.19110459   0.08113133
5944.00   2.16495854   0.07864017
5946.00   2.14150703   0.07555142
5948.00   2.31381005   0.07613359
5950.00   2.83021402   0.08098022
5952.00   3.08813024   0.08374053
5954.00   3.01243222   0.08529728
5956.00   2.75425136   0.08457084
5958.00   2.45629203   0.08178837
5960.00   2.03834850   0.07652917
5962.00   2.01909488   0.07521998
5964.00   2.36675036   0.07755050
5966.00   2.60938013   0.07901885
5968.00   2.87878752   0.07766868
5970.00   3.09816706   0.07536562
5972.00   3.09460390   0.07705782
5974.00   2.89101279   0.08123865
5976.00   2.79533213   0.08491321
5978.00   2.71171570   0.09108648
5980.00   2.59210593   0.09256956
5982.00   2.38997197   0.08817909
5984.00   2.32408834   0.08346334
5986.00   2.46437490   0.08089718
5988.00   2.73709142   0.07870164
5990.00   2.79669189   0.07721639
5992.00   2.73293424   0.07621721
5994.00   2.69366324   0.07494936
5996.00   2.60493386   0.07443223
5998.00   2.57219678   0.07326566
6000.00   2.67825562   0.06974523
6002.00   2.81256092   0.06671861
6004.00   2.80029756   0.06839230
6006.00   2.64619547   0.07554544
6008.00   2.65384787   0.07702532
6010.00   2.81448328   0.07506131
6012.00   2.91422838   0.07119644
6014.00   2.93843734   0.06641497
6016.00   2.96284795   0.06233511
6018.00   2.94156897   0.06108200
6020.00   2.83216643   0.06281654
6022.00   2.87515414   0.06304291
6024.00   3.10110664   0.06290940
6026.00   3.17919910   0.06317542
6028.00   3.06453788   0.06440258
6030.00   2.91581082   0.06468797
6032.00   2.88230574   0.06335895
6034.00   2.95620680   0.06115210
6036.00   2.96520352   0.06325313
6038.00   2.89744914   0.07033121
6040.00   2.85913861   0.07230582
6042.00   2.91498852   0.06951333
6044.00   3.04104948   0.06545015
6046.00   3.08598614   0.06200512
6048.00   3.09152019   0.05928727
6050.00   3.11753833   0.05971763
6052.00   3.13951695   0.06364979
6054.00   3.13558936   0.06354292
6056.00   3.09519732   0.05958377
6058.00   3.08005917   0.05688572
6060.00   3.12542450   0.05595253
6062.00   3.20230138   0.05577999
6064.00   3.18040574   0.05594955
6066.00   3.07239163   0.05659627
6068.00   3.04040396   0.05690751
6070.00   3.05940020   0.05702920
6072.00   3.06142211   0.05750987
6074.00   3.07774770   0.05833530
6076.00   3.08460999   0.05904814
6078.00   3.04529870   0.05857793
6080.00   3.00473142   0.05680616
6082.00   3.02941239   0.05610312
6084.00   3.11671650   0.05514932
6086.00   3.15658438   0.05568796
6088.00   3.21120179   0.05795418
6090.00   3.23609126   0.06166166
6092.00   3.14873385   0.06561847
6094.00   3.04627597   0.06973906
6096.00   3.06527770   0.07330218
6098.00   3.20563424   0.07768591
6100.00   3.13974679   0.07923156
6102.00   2.87134719   0.07747621
6104.00   2.64537978   0.07555141
6106.00   2.60060960   0.07421205
6108.00   2.67345309   0.07282878
6110.00   2.59016949   0.07424400
6112.00   2.41132659   0.07873401
6114.00   2.35594696   0.07891990
6116.00   2.40502274   0.07506626
6118.00   2.42674279   0.07227739
6120.00   2.43945456   0.06998415
6122.00   2.42479819   0.06765707
6124.00   2.40756911   0.06689588
6126.00   2.39851648   0.06740948
6128.00   2.48756069   0.06672751
6130.00   2.72815436   0.06570712
6132.00   2.84016955   0.06469998
6134.00   2.85369390   0.06149822
6136.00   2.83157462   0.05692223
6138.00   2.78506112   0.05560926
6140.00   2.67371851   0.05715527
6142.00   2.61915612   0.05711590
6144.00   2.56997889   0.05586479
6146.00   2.61389899   0.05638530
6148.00   2.71543205   0.05867135
6150.00   2.84638155   0.06214771
6152.00   3.05710006   0.06679909
6154.00   3.31989300   0.07393252
6156.00   3.40250623   0.07854526
6158.00   3.36451113   0.08271270
6160.00   3.28287768   0.08378777
6162.00   3.10382986   0.08320639
6164.00   2.94286096   0.07927957
6166.00   2.82386792   0.07096951
6168.00   2.73524630   0.06024959
6170.00   2.65473652   0.05485535
6172.00   2.56562465   0.05421612
6174.00   2.48415142   0.05282976
6176.00   2.35573125   0.05180578
6178.00   2.36821514   0.05235408
6180.00   2.57007647   0.05498113
6182.00   2.80711228   0.05628491
6184.00   2.87259996   0.05610354
6186.00   2.80235273   0.05550928
6188.00   2.73981601   0.05413968
6190.00   2.56655061   0.05059486
6192.00   2.56014311   0.04936014
6194.00   2.69833255   0.05013455
6196.00   2.80743945   0.05046472
6198.00   2.83400941   0.04975571
6200.00   2.82177222   0.04878657
6202.00   2.72451514   0.04864073
6204.00   2.47165453   0.04908613
6206.00   2.37980098   0.04936126
6208.00   2.44069868   0.04976287
6210.00   2.52794588   0.05000267
6212.00   2.61812866   0.05018111
6214.00   2.73380136   0.05035008
6216.00   2.70052373   0.04933393
6218.00   2.48743612   0.04600848
6220.00   2.44233817   0.04663423
6222.00   2.58348143   0.05147875
6224.00   2.67832196   0.05568489
6226.00   2.67013144   0.05882648
6228.00   2.65114796   0.05967906
6230.00   2.57268715   0.05739643
6232.00   2.36921531   0.05132752
6234.00   2.30031753   0.04903280
6236.00   2.35857600   0.04958335
6238.00   2.39622045   0.05030006
6240.00   2.38475722   0.05082133
6242.00   2.38901591   0.05073967
6244.00   2.43953854   0.04962705
6246.00   2.52496076   0.04700089
6248.00   2.49774015   0.04622718
6250.00   2.35232252   0.04680959
6252.00   2.25935751   0.04735933
6254.00   2.20654184   0.04789044
6256.00   2.20474601   0.04814842
6258.00   2.25007015   0.04762944
6260.00   2.33455509   0.04704834
6262.00   2.32903731   0.04829262
6264.00   2.24463999   0.05137933
6266.00   2.21280974   0.05204104
6268.00   2.21437168   0.05155773
6270.00   2.23450512   0.05030486
6272.00   2.27672654   0.04746622
6274.00   2.33762288   0.04458531
6276.00   2.33324814   0.04389453
6278.00   2.26246005   0.04461155
6280.00   2.21551460   0.04514729
6282.00   2.20383149   0.04688752
6284.00   2.16140169   0.04750506
6286.00   2.05997002   0.04619298
6288.00   1.95017678   0.04430942
6290.00   1.86099172   0.04374572
6292.00   1.77479726   0.04370316
6294.00   1.79253346   0.04497731
6296.00   1.98246735   0.04791713
6298.00   2.01974142   0.05030304
6300.00   1.90391856   0.05275546
6302.00   1.79658008   0.05427227
6304.00   1.78992724   0.05447159
6306.00   1.82417595   0.05460440
6308.00   1.76354015   0.05332340
6310.00   1.60884440   0.04923449
6312.00   1.52754229   0.04681838
6314.00   1.52074063   0.04766470
6316.00   1.49201095   0.04993313
6318.00   1.38034394   0.04997286
6320.00   1.24180636   0.04696148
6322.00   1.19301149   0.04442850
6324.00   1.19651300   0.04104037
6326.00   1.21131858   0.03958300
6328.00   1.29711053   0.03954217
6330.00   1.33041674   0.03977938
6332.00   1.26728472   0.03981676
6334.00   1.16245019   0.03967989
6336.00   1.08858824   0.03962134
6338.00   1.01553595   0.03990596
6340.00   0.96592143   0.04008188
6342.00   0.92532086   0.04010650
6344.00   0.91000956   0.03975699
6346.00   0.94877517   0.03968500
6348.00   1.01484546   0.03968612
6350.00   1.01803672   0.03927428
6352.00   0.95733896   0.03862758
6354.00   0.92682433   0.03906684
6356.00   0.89287472   0.04100098
6358.00   0.89877155   0.04160826
6360.00   0.94108891   0.04105336
6362.00   0.97990695   0.04021752
6364.00   0.97290444   0.03961285
6366.00   0.92070550   0.03895178
6368.00   0.94063255   0.03846103
6370.00   1.00818971   0.03796291
6372.00   1.08605468   0.03786300
6374.00   1.18733373   0.03825809
6376.00   1.28102541   0.03868193
6378.00   1.34663963   0.03888968
6380.00   1.37909418   0.03913630
6382.00   1.37374610   0.03945924
6384.00   1.31405419   0.03996762
6386.00   1.30387792   0.03962280
6388.00   1.32830507   0.03804450
6390.00   1.35535318   0.03734298
6392.00   1.37955123   0.03799569
6394.00   1.38491392   0.03884127
6396.00   1.34685004   0.03947570
6398.00   1.23060238   0.04076726
6400.00   1.22464180   0.04143046
6402.00   1.30671182   0.04138887
6404.00   1.43786037   0.04112618
6406.00   1.59837437   0.04112625
6408.00   1.72487980   0.04085831
6410.00   1.76577699   0.04028870
6412.00   1.75100762   0.03890712
6414.00   1.76070744   0.03960322
6416.00   1.77291507   0.04294884
6418.00   1.77011007   0.04483763
6420.00   1.74442363   0.04409767
6422.00   1.69821417   0.04148953
6424.00   1.71196908   0.03987334
6426.00   1.83792138   0.03843556
6428.00   1.88013256   0.03757322
6430.00   1.87869823   0.03735319
6432.00   1.85721767   0.03744544
6434.00   1.81957901   0.03779768
6436.00   1.78922397   0.03820862
6438.00   1.83178824   0.03803286
6440.00   1.95354402   0.03722895
6442.00   1.99932843   0.03740409
6444.00   1.98849994   0.03836370
6446.00   2.01266879   0.03838642
6448.00   2.11033493   0.03750145
6450.00   2.14003128   0.03706658
6452.00   2.05141479   0.03696862
6454.00   1.94669181   0.03695704
6456.00   1.91300470   0.03675846
6458.00   1.89648730   0.03644063
6460.00   1.91754347   0.03702435
6462.00   2.01036739   0.03836205
6464.00   2.07057858   0.03971488
6466.00   2.10322350   0.04222668
6468.00   2.11845511   0.04330709
6470.00   2.10471219   0.04116391
6472.00   2.05561823   0.03690981
6474.00   2.06127000   0.03551248
6476.00   2.12085408   0.03629388
6478.00   2.15413445   0.03618646
6480.00   2.14299333   0.03599006
6482.00   2.11913186   0.03625582
6484.00   2.13628018   0.03662202
6486.00   2.17836297   0.03668317
6488.00   2.14512205   0.03786277
6490.00   2.03068817   0.04032324
6492.00   1.98463696   0.04115268
6494.00   1.99161488   0.04064114
6496.00   2.01028234   0.04078902
6498.00   2.05536932   0.04108954
6500.00   2.12339997   0.04091602
6502.00   2.14276820   0.04034538
6504.00   2.12421477   0.03919706
6506.00   2.13756192   0.03860959
6508.00   2.17240065   0.03860577
6510.00   2.21798533   0.03844609
6512.00   2.26163882   0.03757842
6514.00   2.27099198   0.03625138
6516.00   2.26485860   0.03594358
6518.00   2.25714594   0.03676298
6520.00   2.23813379   0.03674857
6522.00   2.18909287   0.03589254
6524.00   2.15505409   0.03532408
6526.00   2.14998913   0.03566650
6528.00   2.14780319   0.03637790
6530.00   2.13916355   0.03688177
6532.00   2.11804235   0.03745393
6534.00   2.12335503   0.03779155
6536.00   2.16736728   0.03816804
6538.00   2.19138819   0.03813223
6540.00   2.15504104   0.03730899
6542.00   2.10006267   0.03626361
6544.00   2.08700955   0.03563484
6546.00   2.08469105   0.03508238
6548.00   2.10319602   0.03502370
6550.00   2.16449183   0.03545995
6552.00   2.17408991   0.03582693
6554.00   2.11551350   0.03633922
6556.00   2.08677918   0.03687573
6558.00   2.10682327   0.03714521
6560.00   2.15866679   0.03739748
6562.00   2.19559824   0.03720848
6564.00   2.24325132   0.03630615
6566.00   2.18781763   0.03560119
6568.00   1.98610103   0.03492122
6570.00   1.88125408   0.03475780
6572.00   1.90161294   0.03492858
6574.00   1.95458847   0.03519768
6576.00   1.98232609   0.03543665
6578.00   2.03620636   0.03573868
6580.00   2.03766245   0.03581663
6582.00   1.97660762   0.03557226
6584.00   1.93876761   0.03561419
6586.00   1.91910732   0.03591454
6588.00   1.91531587   0.03633898
6590.00   1.94619894   0.03651973
6592.00   2.02918762   0.03658503
6594.00   2.07200730   0.03655732
6596.00   2.12120706   0.03609445
6598.00   2.09242594   0.03643448
6600.00   1.99645120   0.03781967
6602.00   1.90910393   0.03843987
6604.00   1.83525473   0.03862045
6606.00   1.77636677   0.03865529
6608.00   1.76438791   0.03753822
6610.00   1.79372627   0.03491687
6612.00   1.79829901   0.03409980
6614.00   1.79324830   0.03475449
6616.00   1.82829601   0.03471976
6618.00   1.89751989   0.03458654
6620.00   1.95910150   0.03460588
6622.00   1.94131142   0.03413512
6624.00   1.84767294   0.03325440
6626.00   1.82398224   0.03292416
6628.00   1.85027528   0.03294363
6630.00   1.87961972   0.03292198
6632.00   1.91358125   0.03330965
6634.00   1.91914076   0.03396106
6636.00   1.86066711   0.03395687
6638.00   1.72868031   0.03338907
6640.00   1.70692176   0.03307454
6642.00   1.78966016   0.03247055
6644.00   1.83397019   0.03259877
6646.00   1.82627416   0.03386874
6648.00   1.79930860   0.03509012
6650.00   1.77818197   0.03515291
6652.00   1.76070011   0.03432014
6654.00   1.78756547   0.03365606
6656.00   1.88179499   0.03252641
6658.00   1.90923446   0.03209299
6660.00   1.87665540   0.03230877
6662.00   1.82059461   0.03252589
6664.00   1.76901561   0.03247711
6666.00   1.70723653   0.03231381
6668.00   1.68648785   0.03231693
6670.00   1.70091206   0.03242727
6672.00   1.73695457   0.03253329
6674.00   1.81816071   0.03259514
6676.00   1.85267717   0.03279166
6678.00   1.81635755   0.03321507
6680.00   1.74071020   0.03346995
6682.00   1.71773684   0.03307251
6684.00   1.72469330   0.03190575
6686.00   1.76255506   0.03270766
6688.00   1.86480719   0.03586102
6690.00   1.90711761   0.03730337
6692.00   1.88494146   0.03744049
6694.00   1.85129362   0.03674304
6696.00   1.85728019   0.03479241
6698.00   1.88973838   0.03139470
6700.00   1.82694250   0.03261964
6702.00   1.62332869   0.03890031
6704.00   1.54696751   0.04115627
6706.00   1.59358370   0.04143671
6708.00   1.66003889   0.04072731
6710.00   1.69093668   0.03855766
6712.00   1.70607841   0.03486873
6714.00   1.68593663   0.03346257
6716.00   1.60212100   0.03359990
6718.00   1.60543555   0.03415610
6720.00   1.71504670   0.03509935
6722.00   1.75775599   0.03646923
6724.00   1.69375610   0.03929655
6726.00   1.59580714   0.04137401
6728.00   1.55713987   0.04045737
6730.00   1.54531771   0.03697110
6732.00   1.56193382   0.03494758
6734.00   1.62630612   0.03257211
6736.00   1.65457886   0.03127338
6738.00   1.66855758   0.03154170
6740.00   1.66648209   0.03217202
6742.00   1.62358934   0.03217887
6744.00   1.54002905   0.03195247
6746.00   1.52696413   0.03192480
6748.00   1.56755215   0.03204650
6750.00   1.60831934   0.03211742
6752.00   1.66077000   0.03218780
6754.00   1.69918352   0.03217159
6756.00   1.71699804   0.03196461
6758.00   1.72653228   0.03162683
6760.00   1.71591628   0.03141751
6762.00   1.67868018   0.03125301
6764.00   1.64579177   0.03111879
6766.00   1.61050695   0.03104449
6768.00   1.56483078   0.03092041
6770.00   1.52335590   0.03064492
6772.00   1.49378973   0.03045005
6774.00   1.46821433   0.03090106
6776.00   1.45645869   0.03192730
6778.00   1.41671234   0.03256535
6780.00   1.32401758   0.03346744
6782.00   1.28774118   0.03399202
6784.00   1.32587630   0.03343786
6786.00   1.39877391   0.03233000
6788.00   1.49490422   0.03169536
6790.00   1.65258706   0.03103699
6792.00   1.69582784   0.03075694
6794.00   1.62333107   0.03107006
6796.00   1.57808560   0.03120886
6798.00   1.56319493   0.03109254
6800.00   1.55645317   0.03091106
6802.00   1.55750138   0.03072843
6804.00   1.57638311   0.03053412
6806.00   1.55409026   0.03041490
6808.00   1.47348481   0.03031293
6810.00   1.43543193   0.03025944
6812.00   1.45724243   0.03034012
6814.00   1.49059176   0.03052649
6816.00   1.48787355   0.03068786
6818.00   1.46340805   0.03063805
6820.00   1.44362390   0.03113932
6822.00   1.39496839   0.03217553
6824.00   1.40871316   0.03313291
6826.00   1.49371046   0.03389475
6828.00   1.56013650   0.03449535
6830.00   1.57064152   0.03495177
6832.00   1.55026895   0.03507271
6834.00   1.55298179   0.03495756
6836.00   1.57195401   0.03432455
6838.00   1.55083913   0.03457146
6840.00   1.47845960   0.03611038
6842.00   1.43598586   0.03636086
6844.00   1.41958481   0.03508663
6846.00   1.42185783   0.03328666
6848.00   1.44337970   0.03174474
6850.00   1.49134845   0.02988981
6852.00   1.47638220   0.02925034
6854.00   1.40376389   0.02994436
6856.00   1.34826699   0.03036426
6858.00   1.28453687   0.03039062
6860.00   1.26084781   0.03102724
6862.00   1.33702126   0.03295630
6864.00   1.49562567   0.03556927
6866.00   1.54145563   0.03575962
6868.00   1.52255225   0.03374797
6870.00   1.48357463   0.03250335
6872.00   1.37815768   0.03107796
6874.00   1.31881237   0.03022109
6876.00   1.36571115   0.03038663
6878.00   1.47039026   0.03088851
6880.00   1.50071561   0.03095607
6882.00   1.49747384   0.03096630
6884.00   1.47856057   0.03096088
6886.00   1.43460009   0.03066600
6888.00   1.40402174   0.03016345
6890.00   1.37871099   0.02955664
6892.00   1.34259927   0.02882230
6894.00   1.32866487   0.02849954
6896.00   1.33802447   0.02829179
6898.00   1.34810215   0.02867876
6900.00   1.35952088   0.03002937
6902.00   1.35692689   0.03105489
6904.00   1.34964007   0.03122399
6906.00   1.33947235   0.03091105
6908.00   1.33980384   0.03066751
6910.00   1.34944373   0.03015089
6912.00   1.36283767   0.03014371
6914.00   1.38423789   0.03062459
6916.00   1.40284711   0.03106068
6918.00   1.42481297   0.03150505
6920.00   1.41498864   0.03189757
6922.00   1.34952456   0.03212669
6924.00   1.24212885   0.03230099
6926.00   1.21601340   0.03207705
6928.00   1.26463327   0.03127014
6930.00   1.27465597   0.03073654
6932.00   1.26400697   0.02978238
6934.00   1.24902511   0.02999110
6936.00   1.23014528   0.03255411
6938.00   1.19906265   0.03558257
6940.00   1.17931548   0.03612698
6942.00   1.15460098   0.03503188
6944.00   1.15118730   0.03442118
6946.00   1.17422062   0.03283973
6948.00   1.22581702   0.03181651
6950.00   1.28659645   0.03202967
6952.00   1.33478999   0.03233907
6954.00   1.31320119   0.03178432
6956.00   1.21879327   0.03052293
6958.00   1.18164530   0.03010485
6960.00   1.17415673   0.03030688
6962.00   1.18097731   0.03041209
6964.00   1.21152684   0.03047484
6966.00   1.24383441   0.03060879
6968.00   1.24262202   0.03070263
6970.00   1.21169779   0.03079050
6972.00   1.20095602   0.03076570
6974.00   1.19376019   0.03001028
6976.00   1.21211606   0.03064132
6978.00   1.24083176   0.03315962
6980.00   1.26745263   0.03483574
6982.00   1.30090150   0.03445078
6984.00   1.34025675   0.03287144
6986.00   1.34106830   0.03176242
6988.00   1.31348264   0.03007854
6990.00   1.27372792   0.02927568
6992.00   1.19298172   0.02899612
6994.00   1.13717353   0.02898795
6996.00   1.12947214   0.03022516
6998.00   1.12252954   0.03294265
7000.00   1.12323672   0.03343731
7002.00   1.14449206   0.03244926
7004.00   1.15711769   0.03154058
7006.00   1.14137906   0.03045170
7008.00   1.15521938   0.02953334
7010.00   1.20066613   0.02932310
7012.00   1.24319834   0.02967641
7014.00   1.26975393   0.03022248
7016.00   1.29080731   0.03143371
7018.00   1.28445703   0.03187124
7020.00   1.23434880   0.03146529
7022.00   1.21969274   0.03114534
7024.00   1.23306590   0.03133175
7026.00   1.24949393   0.03158229
7028.00   1.24582204   0.03168670
7030.00   1.22424710   0.03137599
7032.00   1.19431993   0.03180443
7034.00   1.13743216   0.03330687
7036.00   1.11263737   0.03449974
7038.00   1.12015265   0.03426943
7040.00   1.14724013   0.03304055
7042.00   1.17380676   0.03215963
7044.00   1.20125523   0.03080793
7046.00   1.22039035   0.03020123
7048.00   1.25695810   0.02976155
7050.00   1.23879960   0.03065369
7052.00   1.14596871   0.03293927
7054.00   1.08463326   0.03411462
7056.00   1.07239208   0.03368309
7058.00   1.08181903   0.03264791
7060.00   1.09833318   0.03244390
7062.00   1.13961026   0.03267441
7064.00   1.13677120   0.03267986
7066.00   1.09230959   0.03266793
7068.00   1.08816263   0.03246051
7070.00   1.13053328   0.03195191
7072.00   1.18350372   0.03139104
7074.00   1.18011805   0.03119270
7076.00   1.12277451   0.03116077
7078.00   1.11583611   0.03117553
7080.00   1.15337449   0.03133731
7082.00   1.19151932   0.03161309
7084.00   1.23613816   0.03204141
7086.00   1.25175494   0.03249845
7088.00   1.16225353   0.03255617
7090.00   0.96700969   0.03220229
7092.00   0.92566037   0.03204128
7094.00   1.01036894   0.03204403
7096.00   1.07162800   0.03197288
7098.00   1.13667873   0.03154591
7100.00   1.18722817   0.03094734
7102.00   1.17790517   0.03049960
7104.00   1.12975264   0.02980220
7106.00   1.10391295   0.02990307
7108.00   1.08019161   0.03096807
7110.00   1.04727176   0.03156808
7112.00   1.00480098   0.03145685
7114.00   0.98511919   0.03119936
7116.00   1.02125046   0.03119324
7118.00   1.10741836   0.03098545
7120.00   1.11508501   0.03150650
7122.00   1.06092671   0.03306850
7124.00   1.03882539   0.03386043
7126.00   1.03241342   0.03377926
7128.00   1.04217827   0.03322136
7130.00   1.10055435   0.03263925
7132.00   1.17266333   0.03179687
7134.00   1.15955791   0.03138221
7136.00   1.07985014   0.03134283
7138.00   1.06535119   0.03113205
7140.00   1.09448928   0.03077884
7142.00   1.12290654   0.03047770
7144.00   1.13846809   0.02975233
7146.00   1.12823325   0.02962669
7148.00   1.13611999   0.03119085
7150.00   1.15582097   0.03368938
7152.00   1.14263573   0.03401176
7154.00   1.09334102   0.03275987
7156.00   1.06165081   0.03169702
7158.00   1.02994341   0.02994032
7160.00   1.01264170   0.02862549
7162.00   1.01128355   0.02841006
7164.00   1.02035096   0.02872226
7166.00   1.02233580   0.02885505
7168.00   1.01245198   0.02911659
7170.00   1.02750951   0.02948215
7172.00   1.08640316   0.02991375
7174.00   1.13469350   0.03038642
7176.00   1.13235489   0.03059255
7178.00   1.08337039   0.03044203
7180.00   1.03458372   0.03051780
7182.00   0.95773491   0.03074235
7184.00   0.93140686   0.03044287
7186.00   0.94254386   0.02958869
7188.00   0.96253917   0.02902661
7190.00   0.99109349   0.02857966
7192.00   1.01774183   0.02837105
7194.00   1.02750549   0.02836733
7196.00   1.02984941   0.02846577
7198.00   1.05622649   0.02946833
7200.00   1.10436276   0.03182865
7202.00   1.13420355   0.03305336
7204.00   1.17621455   0.03366435
7206.00   1.20001191   0.03365751
7208.00   1.16414753   0.03273856
7210.00   1.09280542   0.03116826
7212.00   1.06075406   0.03042537
7214.00   1.04867804   0.03016645
7216.00   1.02838549   0.02978152
7218.00   1.01817191   0.02956984
7220.00   1.00489590   0.02933739
7222.00   0.98040897   0.02916554
7224.00   0.95536169   0.02890140
7226.00   0.93841949   0.02906441
7228.00   0.91829434   0.02944242
7230.00   0.91604048   0.03045327
7232.00   0.94690230   0.03170665
7234.00   0.97292423   0.03328706
7236.00   0.98075885   0.03536240
7238.00   0.98759437   0.03727858
7240.00   0.95944118   0.03960271
7242.00   0.87137160   0.04322577
7244.00   0.85586153   0.04440142
7246.00   0.93004638   0.04331517
7248.00   0.98173448   0.04138950
7250.00   0.98617986   0.03835557
7252.00   0.98807067   0.03416409
7254.00   0.97531760   0.03200566
7256.00   0.93581679   0.03140743
7258.00   0.94451940   0.03084519
7260.00   1.02734306   0.03106446
7262.00   1.04260886   0.03101499
7264.00   0.98856652   0.02964236
7266.00   0.90469050   0.02955544
7268.00   0.82626289   0.03312267
7270.00   0.74207145   0.03824657
7272.00   0.73248073   0.04078602
7274.00   0.79118565   0.04315051
7276.00   0.84856963   0.04344932
7278.00   0.95139262   0.04032805
7280.00   1.00948042   0.03782797
7282.00   0.98369303   0.03807700
7284.00   0.93608004   0.03891532
7286.00   0.90470552   0.03806757
7288.00   0.85176677   0.03602441
7290.00   0.84377041   0.03432126
7292.00   0.89790151   0.03181124
7294.00   0.93050405   0.03055104
7296.00   0.94998676   0.03131022
7298.00   0.98432881   0.03286303
7300.00   0.99861267   0.03339782
7302.00   1.00452146   0.03367504
7304.00   0.97423327   0.03356646
7306.00   0.89419439   0.03255850
7308.00   0.82779610   0.03224708
7310.00   0.78192893   0.03290999
7312.00   0.77639714   0.03410203
7314.00   0.81133431   0.03521598
7316.00   0.88214087   0.03666647
7318.00   0.91111803   0.03692758
7320.00   0.92222905   0.03601946
7322.00   0.92221999   0.03522580
7324.00   0.91737333   0.03450863
7326.00   0.92202845   0.03398996
7328.00   0.90365994   0.03390303
7330.00   0.86296892   0.03415427
7332.00   0.83107305   0.03464672
7334.00   0.78049690   0.03549030
7336.00   0.76888464   0.03636002
7338.00   0.81559104   0.03764855
7340.00   0.85337695   0.03858053
7342.00   0.84516278   0.03852794
7344.00   0.83721706   0.03789922
7346.00   0.85581955   0.03718459
7348.00   0.88927627   0.03588863
7350.00   0.91537029   0.03502638
7352.00   0.97082675   0.03462729
7354.00   0.99157032   0.03426824
7356.00   0.95415917   0.03367431
7358.00   0.91327804   0.03347989
7360.00   0.90972966   0.03439223
7362.00   0.92667943   0.03610705
7364.00   0.89653939   0.03809236
7366.00   0.82780567   0.04172054
7368.00   0.77758473   0.04299496
7370.00   0.72600287   0.04184050
7372.00   0.69930929   0.03970832
7374.00   0.71470296   0.03729548
7376.00   0.74970797   0.03382355
7378.00   0.78828982   0.03215000
7380.00   0.85793635   0.03217071
7382.00   0.90828905   0.03204879
7384.00   0.93636286   0.03224474
7386.00   0.96038458   0.03272567
7388.00   0.95811468   0.03365444
7390.00   0.93082851   0.03552666
7392.00   0.93940568   0.03677196
7394.00   0.98834181   0.03815311
7396.00   0.99119866   0.03863537
7398.00   0.96140745   0.03829727
7400.00   0.91931379   0.03744051
7402.00   0.86968464   0.03691645
7404.00   0.80286270   0.03683158
7406.00   0.77045250   0.03623948
7408.00   0.76771376   0.03518911
7410.00   0.77554056   0.03399169
7412.00   0.80489939   0.03252950
7414.00   0.79036883   0.03160057
7416.00   0.71357095   0.03106074
7418.00   0.63209780   0.03104974
7420.00   0.65744437   0.03158254
7422.00   0.76244172   0.03257372
7424.00   0.83229488   0.03455897
7426.00   0.93669850   0.03838537
7428.00   0.96462899   0.04009695
7430.00   0.87652302   0.04057450
7432.00   0.78199154   0.04045169
7434.00   0.75699055   0.03906821
7436.00   0.76160580   0.03696778
7438.00   0.77785587   0.03585130
7440.00   0.85071212   0.03534203
7442.00   0.84969798   0.03403702
7444.00   0.78896043   0.03306119
7446.00   0.75228733   0.03261941
7448.00   0.73672456   0.03241892
7450.00   0.71519428   0.03239544
7452.00   0.74967420   0.03267452
7454.00   0.87007910   0.03352832
7456.00   0.90715328   0.03383729
7458.00   0.85532773   0.03355650
7460.00   0.81703168   0.03364017
7462.00   0.84033185   0.03420205
7464.00   0.88954061   0.03495547
7466.00   0.87953344   0.03538099
7468.00   0.82990184   0.03567958
7470.00   0.78734887   0.03593624
7472.00   0.71148595   0.03591783
7474.00   0.68751255   0.03609095
7476.00   0.75740395   0.03702961
7478.00   0.83603202   0.03800594
7480.00   0.83744371   0.03795841
7482.00   0.80470362   0.03733185
7484.00   0.82147861   0.03667297
7486.00   0.87185141   0.03531075
7488.00   0.89288545   0.03445159
7490.00   0.90334871   0.03448743
7492.00   0.89397630   0.03498445
7494.00   0.87364766   0.03557134
7496.00   0.83391291   0.03685444
7498.00   0.82176277   0.03656074
7500.00   0.83261085   0.03407359
7502.00   0.84380057   0.03301466
7504.00   0.83421946   0.03403275
7506.00   0.82962167   0.03529827
7508.00   0.84718093   0.03591525
7510.00   0.87061378   0.03625227
7512.00   0.89452475   0.03624105
7514.00   0.93786722   0.03519363
7516.00   0.94028512   0.03610228
7518.00   0.88967249   0.03924820
7520.00   0.86328927   0.04092335
7522.00   0.86493197   0.04031767
7524.00   0.87621692   0.03923313
7526.00   0.92508048   0.03942654
7528.00   1.02960417   0.04050143
7530.00   1.01641965   0.03994450
7532.00   0.87862697   0.03790573
7534.00   0.81849417   0.03619477
7536.00   0.80534762   0.03490296
7538.00   0.78108954   0.03388898
7540.00   0.77873540   0.03336051
7542.00   0.81425473   0.03336299
7544.00   0.81179157   0.03320843
7546.00   0.77451792   0.03308314
7548.00   0.73832870   0.03301376
7550.00   0.70699349   0.03303039
7552.00   0.67884108   0.03312715
7554.00   0.65521860   0.03324714
7556.00   0.64152196   0.03345518
7558.00   0.62182334   0.03368201
7560.00   0.58832449   0.03379348
7562.00   0.57630251   0.03421915
7564.00   0.58799562   0.03498614
7566.00   0.61634608   0.03594813
7568.00   0.66149466   0.03688282
7570.00   0.70071445   0.03855523
7572.00   0.69031489   0.04049963
7574.00   0.60671732   0.04350540
7576.00   0.62469272   0.04349390
7578.00   0.73750290   0.04128370
7580.00   0.83812308   0.03923193
7582.00   0.89535567   0.03692486
7584.00   0.91945770   0.03466147
7586.00   0.93064129   0.03416768
7588.00   0.93684989   0.03572593
7590.00   0.89926186   0.03572962
7592.00   0.80049184   0.03416011
7594.00   0.69929528   0.03274852
7596.00   0.58010301   0.03268585
7598.00   0.48366618   0.03448698
7600.00   0.50310341   0.03746516
7602.00   0.61818118   0.04198317
7604.00   0.66495980   0.04463179
7606.00   0.69555146   0.04708041
7608.00   0.70509848   0.04753563
7610.00   0.67054141   0.04622803
7612.00   0.61742271   0.04385756
7614.00   0.59534489   0.04152482
7616.00   0.61437267   0.03892513
7618.00   0.61868644   0.03714868
7620.00   0.62261355   0.03597644
7622.00   0.61533999   0.03514070
7624.00   0.61543107   0.03478744
7626.00   0.61138773   0.03468058
7628.00   0.61715497   0.03478942
7630.00   0.64172223   0.03526972
7632.00   0.65238875   0.03541729
7634.00   0.65561399   0.03524653
7636.00   0.67888510   0.03543752
7638.00   0.72854054   0.03659311
7640.00   0.72875012   0.03678512
7642.00   0.70350455   0.03530458
7644.00   0.68600944   0.03342791
7646.00   0.65562871   0.03305421
7648.00   0.61357430   0.03368832
7650.00   0.57775800   0.03413520
7652.00   0.52528808   0.03485735
7654.00   0.48976706   0.03524535
7656.00   0.53081186   0.03541402
7658.00   0.61065717   0.03570303
7660.00   0.61103185   0.03654958
7662.00   0.55707318   0.03804038
7664.00   0.55112067   0.03842728
7666.00   0.57323122   0.03804033
7668.00   0.59271851   0.03741248
7670.00   0.63971442   0.03628795
7672.00   0.68565857   0.03496649
7674.00   0.66891253   0.03421393
7676.00   0.59641542   0.03386890
7678.00   0.55565690   0.03342169
7680.00   0.49367738   0.03283919
7682.00   0.50252613   0.03266168
7684.00   0.59963721   0.03308412
7686.00   0.68320006   0.03391841
7688.00   0.69112077   0.03447587
7690.00   0.63857932   0.03466668
7692.00   0.59704255   0.03577372
7694.00   0.53312445   0.03757591
7696.00   0.50667912   0.03965553
7698.00   0.51002556   0.04266764
7700.00   0.51702024   0.04414784
7702.00   0.51783970   0.04270777
7704.00   0.48482962   0.04082720
7706.00   0.45782612   0.04414707
7708.00   0.46826728   0.05089758
7710.00   0.49218692   0.05272317
7712.00   0.51522475   0.05133632
7714.00   0.49450818   0.05067861
7716.00   0.47390550   0.04947177
7718.00   0.46244001   0.04829917
7720.00   0.51889838   0.04836077
7722.00   0.64348871   0.04872508
7724.00   0.64953457   0.04695073
7726.00   0.52820712   0.04237486
7728.00   0.47734243   0.03959568
7730.00   0.49080670   0.03771472
7732.00   0.55052026   0.03653794
7734.00   0.59884401   0.03608457
7736.00   0.62506001   0.03621554
7738.00   0.62309697   0.03647302
7740.00   0.59638962   0.03645112
7742.00   0.55728793   0.03815391
7744.00   0.46623042   0.04155283
7746.00   0.42150581   0.04528178
7748.00   0.47001532   0.04909505
7750.00   0.58247152   0.05237140
7752.00   0.61815271   0.05203242
7754.00   0.60989025   0.04809992
7756.00   0.60517792   0.04600649
7758.00   0.61930604   0.04492947
7760.00   0.59295191   0.04345269
7762.00   0.51432489   0.04126783
7764.00   0.43700805   0.03937438
7766.00   0.39686471   0.03909201
7768.00   0.37200955   0.03999422
7770.00   0.37168925   0.04013456
7772.00   0.40388878   0.04032723
7774.00   0.43786278   0.04025731
7776.00   0.49075252   0.03946571
7778.00   0.55373695   0.03878353
7780.00   0.58621304   0.03833689
7782.00   0.59259132   0.03775128
7784.00   0.59972133   0.03834207
7786.00   0.59693284   0.03993220
7788.00   0.60132292   0.04171239
7790.00   0.62289755   0.04454250
7792.00   0.61305872   0.04649152
7794.00   0.52625038   0.04633204
7796.00   0.38129079   0.04510995
7798.00   0.35927690   0.04415959
7800.00   0.43125170   0.04261386
7802.00   0.46706469   0.04127466
7804.00   0.50598311   0.04029007
7806.00   0.55541644   0.04005728
7808.00   0.56864394   0.04023489
7810.00   0.54697879   0.04051816
7812.00   0.50974087   0.04093017
7814.00   0.43271247   0.04145322
7816.00   0.41250440   0.04246535
7818.00   0.42957473   0.04408493
7820.00   0.46847856   0.04546288
7822.00   0.56480201   0.04706220
7824.00   0.65637058   0.04859117
7826.00   0.62592664   0.04708630
7828.00   0.49644731   0.04222126
7830.00   0.45392358   0.04010194
7832.00   0.45615399   0.04023595
7834.00   0.46946144   0.03982182
7836.00   0.51028177   0.03960184
7838.00   0.54313867   0.04019307
7840.00   0.51759686   0.04075793
7842.00   0.43852253   0.04139872
7844.00   0.42191298   0.04257123
7846.00   0.44420516   0.04405424
7848.00   0.46836908   0.04576990
7850.00   0.50656962   0.04833829
7852.00   0.54713517   0.05148596
7854.00   0.55816963   0.05394120
7856.00   0.56764999   0.05580827
7858.00   0.58701208   0.05565236
7860.00   0.61564121   0.05340582
7862.00   0.60568126   0.05155003
7864.00   0.59296155   0.04915487
7866.00   0.55940332   0.04679773
7868.00   0.47051056   0.04551087
7870.00   0.36057643   0.04451740
7872.00   0.34827644   0.04327192
7874.00   0.40649281   0.04187250
7876.00   0.46967310   0.04212793
7878.00   0.57605124   0.04382941
7880.00   0.65937307   0.04554473
7882.00   0.69364536   0.04777488
7884.00   0.68449003   0.04931263
7886.00   0.66497442   0.04870748
7888.00   0.62448500   0.04626476
7890.00   0.57529573   0.04452379
7892.00   0.49698788   0.04260006
7894.00   0.43592277   0.04108489
7896.00   0.39384970   0.03927892
7898.00   0.38668624   0.03760416
7900.00   0.39377891   0.03705179
7902.00   0.41259758   0.03693445
7904.00   0.42799120   0.03847786
7906.00   0.45249768   0.04171067
7908.00   0.45723707   0.04478709
7910.00   0.45913531   0.04832572
7912.00   0.47240007   0.05109395
7914.00   0.48831557   0.05244677
7916.00   0.51367116   0.05352893
7918.00   0.47270587   0.05461377
7920.00   0.35439253   0.05602832
7922.00   0.30808455   0.05568786
7924.00   0.29299563   0.05371347
7926.00   0.30287893   0.05037324
7928.00   0.42869891   0.04663202
7930.00   0.63113691   0.04404079
7932.00   0.72014678   0.04367199
7934.00   0.78058326   0.04621816
7936.00   0.78926396   0.04565268
7938.00   0.70717323   0.04189119
7940.00   0.60692503   0.03831029
7942.00   0.52857442   0.03661971
7944.00   0.49150784   0.03785763
7946.00   0.53251743   0.04117887
7948.00   0.65024009   0.04631810
7950.00   0.69525707   0.04869389
7952.00   0.71972071   0.05096337
7954.00   0.69432515   0.04995891
7956.00   0.60409412   0.04456847
7958.00   0.53448817   0.04065881
7960.00   0.50205399   0.04146877
7962.00   0.48248631   0.04493311
7964.00   0.50803035   0.04597323
7966.00   0.62908302   0.04646947
7968.00   0.63567898   0.04624956
7970.00   0.52604562   0.04520266
7972.00   0.42539171   0.04375556
7974.00   0.40382303   0.04245079
7976.00   0.44040059   0.04168105
7978.00   0.43650533   0.04153827
7980.00   0.40562127   0.04177491
7982.00   0.38933358   0.04230675
7984.00   0.39182226   0.04333583
7986.00   0.42663787   0.04503348
7988.00   0.48126289   0.04771520
7990.00   0.52651960   0.05162368
7992.00   0.51468182   0.05306155
7994.00   0.44760773   0.05246054
7996.00   0.46985772   0.05095064
7998.00   0.58267060   0.04836943
8000.00   0.65139306   0.04577504
8002.00   0.68331607   0.04204130
8004.00   0.68445593   0.03878199
8006.00   0.67332910   0.03784992
8008.00   0.65653002   0.03870974
8010.00   0.64040758   0.03908414
8012.00   0.61639436   0.03974026
8014.00   0.58725046   0.04051926
8016.00   0.54852358   0.04143128
8018.00   0.54278764   0.04263205
8020.00   0.60037123   0.04446194
8022.00   0.69190684   0.04763691
8024.00   0.67430578   0.04825093
8026.00   0.54989143   0.04686151
8028.00   0.50657001   0.04545230
8030.00   0.49404976   0.04439326
8032.00   0.49748661   0.04318763
8034.00   0.54813847   0.04169294
8036.00   0.59337807   0.03991754
8038.00   0.57994780   0.03830745
8040.00   0.51424545   0.03647823
8042.00   0.51688726   0.03599325
8044.00   0.56672007   0.03662997
8046.00   0.61252102   0.03773567
8048.00   0.62316588   0.03937611
8050.00   0.59677978   0.04066296
8052.00   0.60084891   0.04123957
8054.00   0.62526932   0.04118723
8056.00   0.61283097   0.04205763
8058.00   0.53881979   0.04411247
8060.00   0.52184479   0.04551357
8062.00   0.57463033   0.04497987
8064.00   0.66467115   0.04291781
8066.00   0.72575349   0.04187572
8068.00   0.77364773   0.04113439
8070.00   0.72822687   0.03999310
8072.00   0.53580946   0.03813550
8074.00   0.45519140   0.03726509
8076.00   0.48673488   0.03710865
8078.00   0.54667297   0.03709558
8080.00   0.57009129   0.03693656
8082.00   0.59691475   0.03677478
8084.00   0.61836505   0.03681367
8086.00   0.63747559   0.03693477
8088.00   0.62920275   0.03732484
8090.00   0.58633085   0.03806705
8092.00   0.58675079   0.03865703
8094.00   0.67432292   0.03941475
8096.00   0.82611060   0.04094166
8098.00   0.83960691   0.04137992
8100.00   0.74050325   0.04077347
8102.00   0.67468607   0.04045553
8104.00   0.60574424   0.04048051
8106.00   0.58629650   0.04073104
8108.00   0.62316574   0.04101549
8110.00   0.68927158   0.04136535
8112.00   0.75162369   0.04180625
8114.00   0.83670083   0.04260792
8116.00   0.85708082   0.04261224
8118.00   0.81849426   0.04166223
8120.00   0.78088498   0.04095057
8122.00   0.72140065   0.04082448
8124.00   0.66350359   0.04056056
8126.00   0.64779598   0.04009637
8128.00   0.65004177   0.03988242
8130.00   0.62334792   0.03978174
8132.00   0.54863517   0.03986112
8134.00   0.53803861   0.03992104
8136.00   0.60452949   0.03979703
8138.00   0.70928261   0.03914101
8140.00   0.76517522   0.03875958
8142.00   0.75642481   0.03856917
8144.00   0.71329167   0.03827645
8146.00   0.59902678   0.03765522
8148.00   0.55635805   0.03810005
8150.00   0.55345213   0.03983846
8152.00   0.57478335   0.04077302
8154.00   0.61150147   0.04063017
8156.00   0.66190556   0.04029945
8158.00   0.69622096   0.04064802
8160.00   0.73138243   0.04103301
8162.00   0.72071277   0.04239760
8164.00   0.63073683   0.04464592
8166.00   0.59945685   0.04730827
8168.00   0.67406964   0.04915591
8170.00   0.78712934   0.05191849
8172.00   0.82211462   0.05923972
8174.00   0.73613715   0.06677522
8176.00   0.83453944   0.07797190
8178.00   1.19844478   0.09241633
8180.00   1.44758385   0.10557526
8182.00   1.37137035   0.11844127
8184.00   1.16140601   0.13095011
8186.00   1.05071855   0.13599555
8188.00   0.83865964   0.12716952
8190.00   0.54693049   0.13977008
8192.00   0.04069503   0.17557581
8194.00   -0.18208550   0.18891043
8196.00   -0.24333765   0.17465224
8198.00   -0.13686696   0.14897104
8200.00   0.19602094   0.13226386
8202.00   0.81073788   0.11162077
8204.00   1.07014880   0.09510855
8206.00   1.14060247   0.08576586
8208.00   1.09567106   0.07805326
8210.00   0.91525537   0.06881325
8212.00   0.71643864   0.06163324
8214.00   0.58421211   0.05830818
8216.00   0.50472273   0.05743751
8218.00   0.42774354   0.05637667
8220.00   0.38135943   0.05674284
8222.00   0.38325720   0.05580493
8224.00   0.44357216   0.05421653
8226.00   0.45842884   0.05225072
8228.00   0.44684774   0.04906567
8230.00   0.42397489   0.04606322
8232.00   0.44474989   0.04443032
8234.00   0.49710827   0.04353832
8236.00   0.50274189   0.04281148
8238.00   0.47858681   0.04215750
8240.00   0.44464733   0.04306466
8242.00   0.36653695   0.04566091
8244.00   0.33913382   0.04730754
8246.00   0.38965949   0.04755627
8248.00   0.47450474   0.04675539
8250.00   0.49885784   0.04512567
8252.00   0.49495156   0.04132612
8254.00   0.46369077   0.03963543
8256.00   0.39783938   0.03920079
8258.00   0.37335341   0.03904210
8260.00   0.36800237   0.03913625
8262.00   0.37174705   0.03932977
8264.00   0.40879665   0.03915845
8266.00   0.48305191   0.03830289
8268.00   0.53481333   0.03924968
8270.00   0.61106803   0.04178929
8272.00   0.63958390   0.04409646
8274.00   0.57522163   0.04649371
8276.00   0.46029237   0.04867212
8278.00   0.37702419   0.04994144
8280.00   0.26342169   0.05061285
8282.00   0.24615524   0.05246497
8284.00   0.34657116   0.05558261
8286.00   0.43498202   0.05747342
8288.00   0.47840403   0.05821958
8290.00   0.51191324   0.05805072
8292.00   0.49903236   0.05740408
8294.00   0.41583590   0.05617625
8296.00   0.36806992   0.05568571
8298.00   0.30882569   0.05604917
8300.00   0.30215134   0.05533808
8302.00   0.37531433   0.05407381
8304.00   0.48129661   0.05244596
8306.00   0.54485923   0.04996782
8308.00   0.61207408   0.04732924
8310.00   0.56498936   0.04509466
8312.00   0.35073886   0.04283944
8314.00   0.26339549   0.04036757
8316.00   0.32446776   0.03853229
8318.00   0.40662489   0.03777314
8320.00   0.44333244   0.03771386
8322.00   0.46106412   0.03817448
8324.00   0.46607281   0.03837400
8326.00   0.45992415   0.03871634
8328.00   0.44817118   0.03846657
8330.00   0.42641491   0.03633877
8332.00   0.39138949   0.03648673
8334.00   0.31386931   0.03999400
8336.00   0.22294842   0.04584765
8338.00   0.19658994   0.05232716
8340.00   0.17211390   0.06103934
8342.00   0.18601967   0.06479690
8344.00   0.26526991   0.06543147
8346.00   0.37433058   0.06433858
8348.00   0.46986859   0.06263552
8350.00   0.54722738   0.06057736
8352.00   0.54088435   0.05765772
8354.00   0.46580331   0.05359394
8356.00   0.44332901   0.05023736
8358.00   0.43980744   0.04649300
8360.00   0.42765276   0.04402399
8362.00   0.45138904   0.04381133
8364.00   0.49024262   0.04407472
8366.00   0.50838536   0.04367059
8368.00   0.50556570   0.04305784
8370.00   0.49259321   0.04232032
8372.00   0.47739469   0.04003890
8374.00   0.41900133   0.04186462
8376.00   0.27028365   0.04857991
8378.00   0.21711759   0.05225466
8380.00   0.26466023   0.05165817
8382.00   0.32311241   0.04898933
8384.00   0.39315749   0.04672702
8386.00   0.50329600   0.04282853
8388.00   0.54789868   0.04191122
8390.00   0.53941430   0.04316284
8392.00   0.55105221   0.04609334
8394.00   0.51661564   0.05140212
8396.00   0.41956085   0.05702872
8398.00   0.39696778   0.05859506
8400.00   0.45743611   0.05756626
8402.00   0.49467519   0.05584033
8404.00   0.52997966   0.05182752
8406.00   0.51494391   0.04843916
8408.00   0.47466727   0.04607522
8410.00   0.44633144   0.04515057
8412.00   0.47891028   0.04526462
8414.00   0.56256841   0.04642534
8416.00   0.59419034   0.04677065
8418.00   0.59554821   0.04609934
8420.00   0.60761410   0.04699014
8422.00   0.64332476   0.04947591
8424.00   0.59435932   0.05285064
8426.00   0.43420309   0.05635307
8428.00   0.20036666   0.05994283
8430.00   0.11199034   0.06035721
8432.00   0.08368259   0.05853812
8434.00   0.18766685   0.05558673
8436.00   0.49393530   0.04946838
8438.00   0.68966368   0.04374949
8440.00   0.68174204   0.04101241
8442.00   0.57088576   0.04016210
8444.00   0.55553205   0.04061950
8446.00   0.58111802   0.04368395
8448.00   0.55334002   0.04517908
8450.00   0.46626012   0.04579781
8452.00   0.41492745   0.04586102
8454.00   0.38838647   0.04511238
8456.00   0.36696154   0.04428523
8458.00   0.37166765   0.04621587
8460.00   0.41590612   0.05079801
8462.00   0.39584205   0.05358270
8464.00   0.28286822   0.05677608
8466.00   0.24908775   0.05688967
8468.00   0.33524780   0.05410549
8470.00   0.40696597   0.05033024
8472.00   0.34547904   0.04653912
8474.00   0.19772024   0.04145664
8476.00   0.17738318   0.03851641
8478.00   0.24502939   0.03762772
8480.00   0.29175661   0.03689263
8482.00   0.36413669   0.03661785
8484.00   0.41256543   0.03707331
8486.00   0.40343954   0.03845075
8488.00   0.36342797   0.04027464
8490.00   0.33789958   0.04152473
8492.00   0.30686980   0.04282484
8494.00   0.31563552   0.04402462
8496.00   0.36008257   0.04467020
8498.00   0.36028798   0.04500170
8500.00   0.33582722   0.04578836
8502.00   0.30194234   0.04662347
8504.00   0.31994759   0.04657689
8506.00   0.39957908   0.04597355
8508.00   0.40552557   0.04628016
8510.00   0.32237233   0.04813979
8512.00   0.27746119   0.04731284
8514.00   0.29564251   0.04405361
8516.00   0.32810616   0.04055859
8518.00   0.30842304   0.03857889
8520.00   0.23539709   0.03785688
8522.00   0.22122677   0.03721906
8524.00   0.24887935   0.03722580
8526.00   0.28524186   0.03676716
8528.00   0.33325334   0.03594038
8530.00   0.40515639   0.03593715
8532.00   0.46671037   0.03791843
8534.00   0.51746869   0.04083090
8536.00   0.50384535   0.04133064
8538.00   0.40829284   0.03983820
8540.00   0.35004588   0.03949050
8542.00   0.33053034   0.03941399
8544.00   0.32035904   0.03964101
8546.00   0.28906289   0.04056658
8548.00   0.26619406   0.04204711
8550.00   0.27605940   0.04188634
8552.00   0.31933200   0.04039608
8554.00   0.34891033   0.03913848
8556.00   0.36968407   0.03764513
8558.00   0.39096904   0.03637360
8560.00   0.43264033   0.03571697
8562.00   0.48464468   0.03581156
8564.00   0.53082582   0.03637939
8566.00   0.58852373   0.03759408
8568.00   0.61134511   0.03786886
8570.00   0.59129739   0.03677758
8572.00   0.57869892   0.03736853
8574.00   0.59436794   0.04003594
8576.00   0.58916071   0.04202430
8578.00   0.55345793   0.04232195
8580.00   0.50272131   0.04182866
8582.00   0.47359477   0.04093248
8584.00   0.44183111   0.03837249
8586.00   0.44844140   0.03751854
8588.00   0.48502584   0.03775471
8590.00   0.49883826   0.03816847
8592.00   0.47266595   0.03948791
8594.00   0.39490922   0.04177607
8596.00   0.37271225   0.04247380
8598.00   0.37482152   0.04247292
8600.00   0.40018610   0.04174598
8602.00   0.46499538   0.03950169
8604.00   0.52156922   0.03764680
8606.00   0.52029595   0.03694803
8608.00   0.49867605   0.03743308
8610.00   0.48498960   0.03943865
8612.00   0.45284490   0.04314868
8614.00   0.44386438   0.04474439
8616.00   0.47251837   0.04586040
8618.00   0.49160087   0.04595330
8620.00   0.49245758   0.04399616
8622.00   0.49879041   0.04207092
8624.00   0.51116866   0.04205044
8626.00   0.51353624   0.04312971
8628.00   0.51544130   0.04476977
8630.00   0.53573197   0.04797260
8632.00   0.54535937   0.04973509
8634.00   0.50249673   0.05128147
8636.00   0.43918513   0.05118254
8638.00   0.38408124   0.04787154
8640.00   0.30933574   0.04142073
8642.00   0.28079475   0.03981474
8644.00   0.27812925   0.04243648
8646.00   0.31237288   0.04399948
8648.00   0.40998675   0.04593854
8650.00   0.47059407   0.04758709
8652.00   0.46164546   0.04727639
8654.00   0.44407669   0.04473437
8656.00   0.44437088   0.04393154
8658.00   0.44839963   0.04412796
8660.00   0.44960847   0.04412262
8662.00   0.44473055   0.04371112
8664.00   0.45173867   0.04319030
8666.00   0.50386676   0.04262159
8668.00   0.55235951   0.04218779
8670.00   0.55176990   0.04227974
8672.00   0.52462448   0.04281786
8674.00   0.52354620   0.04325193
8676.00   0.50104380   0.04456354
8678.00   0.50467016   0.04422093
8680.00   0.58535272   0.04153799
8682.00   0.66944134   0.03875466
8684.00   0.64918301   0.03797418
8686.00   0.54664153   0.03833631
8688.00   0.52541628   0.03846699
8690.00   0.57596324   0.03927376
8692.00   0.57838653   0.03930612
8694.00   0.53477056   0.03856371
8696.00   0.51214132   0.03853199
8698.00   0.49224459   0.03922250
8700.00   0.44858909   0.04066107
8702.00   0.50550579   0.04149597
8704.00   0.71467382   0.04290852
8706.00   0.79137108   0.04202832
8708.00   0.75187808   0.03915651
8710.00   0.70989037   0.03716599
8712.00   0.69298664   0.03665807
8714.00   0.65795240   0.03694109
8716.00   0.63448840   0.03748632
8718.00   0.60337797   0.03890541
8720.00   0.63078773   0.03952145
8722.00   0.73151107   0.03973271
8724.00   0.79018666   0.03944971
8726.00   0.77185991   0.03846420
8728.00   0.73194326   0.03773602
8730.00   0.74370202   0.03871785
8732.00   0.79254434   0.04123926
8734.00   0.76945654   0.04108635
8736.00   0.66172172   0.03823830
8738.00   0.60795809   0.03690594
8740.00   0.62548754   0.03723636
8742.00   0.67367026   0.03790059
8744.00   0.70534158   0.03786480
8746.00   0.75112677   0.03739746
8748.00   0.77075943   0.03785434
8750.00   0.75183007   0.03806749
8752.00   0.75663295   0.04024371
8754.00   0.80248830   0.04442455
8756.00   0.83903077   0.04961842
8758.00   0.88082197   0.05419593
8760.00   0.92603645   0.05954572
8762.00   0.84812039   0.06610604
8764.00   0.55377148   0.07717814
8766.00   0.52940065   0.07873653
8768.00   0.72092673   0.07242622
8770.00   0.86697355   0.06715941
8772.00   0.92001787   0.06495489
8774.00   0.91114888   0.06347377
8776.00   0.87650096   0.06219045
8778.00   0.78105909   0.06226912
8780.00   0.71916363   0.06014105
8782.00   0.66153482   0.05454468
8784.00   0.65913299   0.05068623
8786.00   0.67296091   0.05158816
8788.00   0.69270071   0.05394131
8790.00   0.72361085   0.05299107
8792.00   0.76698573   0.05024182
8794.00   0.76787053   0.04842021
8796.00   0.74509668   0.04690054
8798.00   0.71253558   0.04470844
8800.00   0.64076054   0.04197316
8802.00   0.58022028   0.03963622
8804.00   0.57987690   0.03820706
8806.00   0.62077607   0.03757944
8808.00   0.65543799   0.03728661
8810.00   0.71405807   0.03768618
8812.00   0.74509239   0.03806643
8814.00   0.76298043   0.03687039
8816.00   0.77490839   0.03797728
8818.00   0.76299313   0.04536484
8820.00   0.73808780   0.05551343
8822.00   0.68707311   0.06310055
8824.00   0.57754844   0.07174315
8826.00   0.51799336   0.07675590
8828.00   0.48199038   0.07953407
8830.00   0.54345900   0.07994652
8832.00   0.74770188   0.07672425
8834.00   1.03161991   0.06994562
8836.00   1.10604984   0.06504160
8838.00   1.03124142   0.05989628
8840.00   0.99726015   0.05539425
8842.00   0.96522447   0.05166816
8844.00   0.92052057   0.04883057
8846.00   0.85627604   0.04698405
8848.00   0.77002648   0.04607478
8850.00   0.70489582   0.04488213
8852.00   0.62976873   0.04384307
8854.00   0.61218800   0.04269277
8856.00   0.66623820   0.04035735
8858.00   0.72419581   0.04033230
8860.00   0.74709105   0.04366812
8862.00   0.74694052   0.04774780
8864.00   0.73707986   0.05035856
8866.00   0.67666596   0.05322830
8868.00   0.67647156   0.05320568
8870.00   0.74680471   0.04976481
8872.00   0.78847113   0.04696268
8874.00   0.75269827   0.04343115
8876.00   0.73165938   0.04187425
8878.00   0.74566978   0.04644623
8880.00   0.74006549   0.05514210
8882.00   0.76868537   0.06148403
8884.00   0.84554473   0.07024138
8886.00   0.88281345   0.07250576
8888.00   0.88016200   0.06836139
8890.00   0.87260291   0.06242714
8892.00   0.85742003   0.05700603
8894.00   0.82194600   0.05089678
8896.00   0.81843692   0.04862877
8898.00   0.84213585   0.05008599
8900.00   0.84594396   0.05141230
8902.00   0.83048007   0.05458695
8904.00   0.82865718   0.05613062
8906.00   0.81267044   0.05425054
8908.00   0.79486111   0.05066427
8910.00   0.83863336   0.05061700
8912.00   0.95043996   0.05192848
8914.00   0.94057530   0.05718731
8916.00   0.80990496   0.06822887
8918.00   0.71383381   0.07431299
8920.00   0.63590069   0.07589696
8922.00   0.57262518   0.07402695
8924.00   0.60352251   0.06876146
8926.00   0.75672692   0.05811531
8928.00   0.78995010   0.05127510
8930.00   0.73297063   0.04586095
8932.00   0.69696650   0.04263536
8934.00   0.69034795   0.04293913
8936.00   0.67219397   0.04515503
8938.00   0.65689136   0.04800453
8940.00   0.65824807   0.05220084
8942.00   0.65622209   0.05335390
8944.00   0.63905764   0.05199622
8946.00   0.65969257   0.05178702
8948.00   0.75329538   0.05155786
8950.00   0.81388780   0.05317501
8952.00   0.78689215   0.05838403
8954.00   0.73310328   0.06490077
8956.00   0.70358840   0.06790830
8958.00   0.65266439   0.07013114
8960.00   0.68678078   0.06977188
8962.00   0.84176853   0.06611487
8964.00   0.94729459   0.06137812
8966.00   0.98263159   0.05456972
8968.00   0.96938077   0.04521368
8970.00   0.92193174   0.04066946
8972.00   0.80722964   0.04067975
8974.00   0.78217462   0.04043436
8976.00   0.84867719   0.04102718
8978.00   0.89104289   0.04286971
8980.00   0.86858413   0.04622664
8982.00   0.80679724   0.05018279
8984.00   0.77585734   0.05226847
8986.00   0.76958582   0.05268827
8988.00   0.73931399   0.05343171
8990.00   0.66394444   0.05372644
8992.00   0.64504799   0.05463835
8994.00   0.70261468   0.05575272
8996.00   0.77494735   0.05704717
8998.00   0.82502185   0.05888377
9000.00   0.86148104   0.06149880
9002.00   0.87392104   0.06225286
9004.00   0.86503044   0.06228384
9006.00   0.87049839   0.06039005
9008.00   0.86573425   0.05510456
9010.00   0.83893895   0.05060123
9012.00   0.81020948   0.04969444
9014.00   0.79179490   0.05044077
9016.00   0.81937516   0.04998503
9018.00   0.90459982   0.04967419
9020.00   0.93633854   0.04802172
9022.00   0.92665058   0.04389446
9024.00   0.89264792   0.04138983
9026.00   0.87611437   0.04074565
9028.00   0.88371414   0.04100656
9030.00   0.85244375   0.04189365
9032.00   0.78966963   0.04374875
9034.00   0.79479811   0.04513145
9036.00   0.89535722   0.04681971
9038.00   0.91432855   0.04768764
9040.00   0.84934625   0.04748345
9042.00   0.73899865   0.04691438
9044.00   0.67292285   0.04718175
9046.00   0.69581917   0.04832092
9048.00   0.67508885   0.04996572
9050.00   0.62261453   0.05365665
9052.00   0.56780337   0.05419245
9054.00   0.56725681   0.05144344
9056.00   0.62487580   0.04789231
9058.00   0.70792183   0.04556275
9060.00   0.81855205   0.04347004
9062.00   0.83999726   0.04230341
9064.00   0.79268968   0.04199059
9066.00   0.74719676   0.04242122
9068.00   0.66299698   0.04418432
9070.00   0.61939958   0.04599136
9072.00   0.67032030   0.04607228
9074.00   0.78271985   0.04405857
9076.00   0.83776522   0.04296767
9078.00   0.86437812   0.04164216
9080.00   0.87206009   0.04161194
9082.00   0.85759056   0.04310944
9084.00   0.86794138   0.04483361
9086.00   0.86552092   0.04525880
9088.00   0.82570314   0.04461864
9090.00   0.78202707   0.04462998
9092.00   0.71487381   0.04385644
9094.00   0.68500406   0.04556737
9096.00   0.68004948   0.05075635
9098.00   0.70212011   0.05396585
9100.00   0.73327766   0.05341227
9102.00   0.72848360   0.05058583
9104.00   0.71179132   0.04859804
9106.00   0.70331600   0.04591886
9108.00   0.68778855   0.04412209
9110.00   0.66827022   0.04270687
9112.00   0.64743948   0.04227314
9114.00   0.59973198   0.04281744
9116.00   0.54637403   0.04343198
9118.00   0.56917623   0.04331573
9120.00   0.66835794   0.04290868
9122.00   0.70503792   0.04291937
9124.00   0.71570122   0.04324095
9126.00   0.72510290   0.04324861
9128.00   0.73029128   0.04301022
9130.00   0.71990821   0.04272481
9132.00   0.71422392   0.04243360
9134.00   0.71314543   0.04221984
9136.00   0.68873510   0.04231993
9138.00   0.63160053   0.04266576
9140.00   0.63463956   0.04273594
9142.00   0.70125562   0.04246052
9144.00   0.74985355   0.04260348
9146.00   0.79681870   0.04327672
9148.00   0.84294236   0.04408749
9150.00   0.81813696   0.04461355
9152.00   0.72843936   0.04426710
9154.00   0.68821749   0.04586087
9156.00   0.67471881   0.04998179
9158.00   0.64782552   0.05262971
9160.00   0.63974208   0.05296140
9162.00   0.63460529   0.05148529
9164.00   0.58466764   0.04885623
9166.00   0.51468527   0.04361037
9168.00   0.48867619   0.04078902
9170.00   0.47943084   0.03914768
9172.00   0.49911524   0.03912863
9174.00   0.58401412   0.04073427
9176.00   0.64013487   0.04220942
9178.00   0.62284960   0.04331036
9180.00   0.56168732   0.04406636
9182.00   0.54262191   0.04407444
9184.00   0.53585683   0.04332636
9186.00   0.55771236   0.04328837
9188.00   0.61317709   0.04355156
9190.00   0.66244364   0.04368582
9192.00   0.69510901   0.04370762
9194.00   0.72000304   0.04385889
9196.00   0.76624900   0.04469303
9198.00   0.84056428   0.04629791
9200.00   0.81991044   0.04671687
9202.00   0.70419033   0.04585650
9204.00   0.59632401   0.04567622
9206.00   0.46968083   0.04615781
9208.00   0.39321138   0.04660634
9210.00   0.42036813   0.04753538
9212.00   0.53665261   0.04884949
9214.00   0.58577970   0.04930516
9216.00   0.62498796   0.04853080
9218.00   0.62144053   0.04932534
9220.00   0.55960688   0.05136029
9222.00   0.52437116   0.05270241
9224.00   0.59712085   0.05262761
9226.00   0.75993159   0.05161461
9228.00   0.77625921   0.05141024
9230.00   0.69178458   0.05194073
9232.00   0.61379643   0.05109798
9234.00   0.50549433   0.04876370
9236.00   0.41488329   0.04708611
9238.00   0.42318866   0.04528098
9240.00   0.52180164   0.04228793
9242.00   0.52029163   0.04121277
9244.00   0.45046993   0.04178631
9246.00   0.44063862   0.04220738
9248.00   0.49800751   0.04272794
9250.00   0.51571648   0.04345234
9252.00   0.48292796   0.04424723
9254.00   0.44950151   0.04496176
9256.00   0.46431282   0.04529813
9258.00   0.51312849   0.04533104
9260.00   0.52807333   0.04511302
9262.00   0.53728935   0.04404367
9264.00   0.51522206   0.04390086
9266.00   0.44065084   0.04513911
9268.00   0.37738915   0.04662065
9270.00   0.38436972   0.04773893
9272.00   0.42844586   0.05005962
9274.00   0.47478768   0.04967698
9276.00   0.56095672   0.04578883
9278.00   0.62481570   0.04349736
9280.00   0.61758119   0.04396394
9282.00   0.58725712   0.04549686
9284.00   0.65329319   0.04697236
9286.00   0.77254853   0.04870282
9288.00   0.75172342   0.04917967
9290.00   0.60066240   0.04854663
9292.00   0.53911254   0.04857022
9294.00   0.51536354   0.04701333
9296.00   0.53560752   0.04820018
9298.00   0.63876025   0.05350209
9300.00   0.77098393   0.06110692
9302.00   0.82083175   0.07667424
9304.00   0.88430583   0.09774620
9306.00   0.90012667   0.11336162
9308.00   0.83443376   0.12287430
9310.00   0.66282293   0.13531248
9312.00   0.46263808   0.16206576
9314.00   0.31326351   0.19195195
9316.00   0.33414311   0.19508575
9318.00   0.48215377   0.17991474
9320.00   0.47207495   0.16757540
9322.00   0.31016851   0.14825388
9324.00   0.28288792   0.12864968
9326.00   0.33591995   0.11897654
9328.00   0.42803828   0.11575245
9330.00   0.57969729   0.10732668
9332.00   0.73695236   0.09613289
9334.00   0.72366685   0.09363617
9336.00   0.45203008   0.10176836
9338.00   0.48598836   0.10477103
9340.00   0.75121683   0.10347829
9342.00   0.99163297   0.10095938
9344.00   1.08895159   0.09727819
9346.00   1.01391748   0.09062829
9348.00   0.89780754   0.08991515
9350.00   0.69096375   0.09659680
9352.00   0.59667628   0.09478422
9354.00   0.51400228   0.08143347
9356.00   0.39506578   0.06992603
9358.00   0.29111916   0.06804333
9360.00   0.20681055   0.07189359
9362.00   0.30878240   0.07190637
9364.00   0.64956805   0.06437257
9366.00   0.76190320   0.07657309
9368.00   0.64570113   0.09270632
9370.00   0.54867986   0.12168804
9372.00   0.60384339   0.16932656
9374.00   0.85571632   0.21558832
9376.00   0.87029105   0.22711227
9378.00   0.50879057   0.21639505
9380.00   0.39029315   0.20060219
9382.00   0.47519501   0.16223191
9384.00   0.58378728   0.12981854
9386.00   0.60080858   0.10996554
9388.00   0.64403608   0.09664365
9390.00   0.63607216   0.08240385
9392.00   0.55005728   0.07484989
9394.00   0.52743401   0.07049978
9396.00   0.55894730   0.07480852
9398.00   0.52036903   0.07722735
9400.00   0.40542367   0.07845229
9402.00   0.31368047   0.07819923
9404.00   0.39219533   0.07789792
9406.00   0.66221467   0.08006125
9408.00   0.69491978   0.08337309
9410.00   0.58878596   0.08786012
9412.00   0.46638186   0.08866348
9414.00   0.19875410   0.08746880
9416.00   0.09193624   0.08817491
9418.00   0.31736036   0.09057996
9420.00   0.65538019   0.09435685
9422.00   0.81229883   0.09439526
9424.00   0.90037122   0.09145850
9426.00   0.92223740   0.08805670
9428.00   0.81894100   0.07808383
9430.00   0.76959702   0.07745949
9432.00   0.82972878   0.09099684
9434.00   0.96921462   0.10884418
9436.00   0.81143613   0.12314272
9438.00   0.34504387   0.13716028
9440.00   0.13961165   0.14420231
9442.00   0.08974997   0.14972502
9444.00   0.03071749   0.14902614
9446.00   0.03297918   0.13321743
9448.00   0.14995674   0.11066875
9450.00   0.29173506   0.09994458
9452.00   0.40776183   0.09486428
9454.00   0.39350577   0.09793962
9456.00   0.20594357   0.11351222
9458.00   0.21384462   0.12189952
9460.00   0.31288580   0.12803228
9462.00   0.48240665   0.12983806
9464.00   0.71973082   0.12071077
9466.00   0.84781757   0.10166450
9468.00   0.86709434   0.09818568
9470.00   0.80108073   0.10376519
9472.00   0.89041284   0.11428191
9474.00   1.10675430   0.13554255
9476.00   1.15742737   0.14860997
9478.00   0.98948717   0.14992131
9480.00   0.62940958   0.14378318
9482.00   0.33797176   0.13478570
9484.00   0.02312661   0.11847007
9486.00   -0.10461836   0.10494300
9488.00   -0.05436207   0.08951260
9490.00   -0.02284500   0.07677499
9492.00   -0.00622299   0.06939901
9494.00   0.03611013   0.06863355
9496.00   0.09373239   0.08017945
9498.00   0.19265934   0.10452876
9500.00   0.23657974   0.11580163
9502.00   0.22735236   0.12636549
9504.00   0.22468516   0.12650717
9506.00   0.26620785   0.11391288
9508.00   0.32108290   0.09697939
9510.00   0.38578995   0.09025165
9512.00   0.44618357   0.09071319
9514.00   0.45597479   0.09424646
9516.00   0.36978705   0.10521651
9518.00   0.41676398   0.11029128
9520.00   0.60372201   0.11195376
9522.00   0.87202364   0.11147439
9524.00   1.03334343   0.10729675
9526.00   1.01699328   0.09816095
9528.00   0.89393657   0.09107403
9530.00   0.57931967   0.08341593
9532.00   0.40265002   0.07876365
9534.00   0.32304731   0.07786618
9536.00   0.30437079   0.07677881
9538.00   0.22894838   0.07257275
9540.00   0.12367715   0.06669797
9542.00   0.18549577   0.06736850
9544.00   0.41158606   0.07242138
9546.00   0.47179005   0.07861627
9548.00   0.41687329   0.08880978
9550.00   0.36208412   0.09523024
9552.00   0.23836708   0.09732758
9554.00   0.11999564   0.09761449
9556.00   0.13196471   0.09770224
9558.00   0.23031389   0.09633158
9560.00   0.29070858   0.10057757
9562.00   0.34824669   0.10964523
9564.00   0.43343237   0.11712494
9566.00   0.54253448   0.12670567
9568.00   0.54837134   0.13171957
9570.00   0.55911619   0.12700043
9572.00   0.71313089   0.11464655
9574.00   0.74712268   0.10551009
9576.00   0.64867522   0.09377360
9578.00   0.62673160   0.08556493
9580.00   0.78456567   0.08383763
9582.00   0.89682063   0.08240092
9584.00   0.85189581   0.07739773
9586.00   0.75933814   0.07199469
9588.00   0.61165088   0.06997429
9590.00   0.33169319   0.07060185
9592.00   0.22909158   0.07009943
9594.00   0.29200869   0.06881789
9596.00   0.34068782   0.06932246
9598.00   0.47110399   0.07179042
9600.00   0.63736427   0.07502740
9602.00   0.58385894   0.07984095
9604.00   0.44188367   0.08804346
9606.00   0.35835055   0.09132218
9608.00   0.25015754   0.09094015
9610.00   0.10139435   0.09003593
9612.00   0.10417724   0.08775127
9614.00   0.15900407   0.08509420
9616.00   0.10043334   0.08743806
9618.00   0.05928602   0.09264050
9620.00   0.10346776   0.09184157
9622.00   0.26307191   0.08565496
9624.00   0.28214728   0.08256538
9626.00   0.24397279   0.07992589
9628.00   0.23464435   0.07683789
9630.00   0.24175068   0.07430468
9632.00   0.23069685   0.07213678
9634.00   0.29245915   0.07163008
9636.00   0.45094694   0.07331204
9638.00   0.51771955   0.07384855
9640.00   0.49145791   0.07290547
9642.00   0.48409116   0.07271350
9644.00   0.47062244   0.07471609
9646.00   0.37029173   0.07786156
9648.00   0.30675422   0.07882504
9650.00   0.25186992   0.07837308
9652.00   0.28878203   0.07850882
9654.00   0.44872586   0.07850156
9656.00   0.55466789   0.07888381
9658.00   0.53663896   0.08067059
9660.00   0.37321791   0.08382895
9662.00   0.23244532   0.08607430
9664.00   0.11483193   0.08760529
9666.00   0.11669568   0.09094012
9668.00   0.18796064   0.09548538
9670.00   0.30857591   0.10070888
9672.00   0.64657554   0.10762912
9674.00   0.95609224   0.11152374
9676.00   0.85664004   0.11214756
9678.00   0.43651092   0.11388570
9680.00   0.29731778   0.11275906
9682.00   0.28869160   0.10779070
9684.00   0.22504680   0.10340495
9686.00   0.19988912   0.09497013
9688.00   0.17555463   0.09793475
9690.00   0.04622320   0.12085524
9692.00   -0.01848966   0.14241674
9694.00   0.05850565   0.14376781
9696.00   0.26408884   0.13125247
9698.00   0.23846093   0.12593133
9700.00   0.00519450   0.12008818
9702.00   0.03866421   0.11528082
9704.00   0.32628280   0.10989070
9706.00   0.63546357   0.10318902
9708.00   0.77015799   0.10165342
9710.00   0.82961541   0.10354701
9712.00   0.78529710   0.10609980
9714.00   0.59043238   0.11026344
9716.00   0.43313581   0.11576206
9718.00   0.19615973   0.12269057
9720.00   -0.09162745   0.13222449
9722.00   -0.15638831   0.13764768
9724.00   -0.06308467   0.13781032
9726.00   0.01235944   0.13565746
9728.00   0.17043586   0.13000806
9730.00   0.27122065   0.12430382
9732.00   0.26207770   0.11565420
9734.00   0.20091513   0.11048080
9736.00   0.23581121   0.11030494
9738.00   0.39577785   0.11400974
9740.00   0.41780811   0.11238342
9742.00   0.30145680   0.10696581
9744.00   0.29952039   0.10198302
9746.00   0.47223967   0.09754093
9748.00   0.59399068   0.09385059
9750.00   0.56122971   0.09085614
9752.00   0.44490980   0.08910672
9754.00   0.35293913   0.08716932
9756.00   0.18766869   0.08492056
9758.00   0.17372645   0.08350288
9760.00   0.36056285   0.08402968
9762.00   0.51232177   0.08422971
9764.00   0.55017720   0.08271018
9766.00   0.53043103   0.08073143
9768.00   0.44440164   0.07999626
9770.00   0.23448218   0.07988381
9772.00   0.20113217   0.08061258
9774.00   0.35502093   0.08263516
9776.00   0.44339517   0.08402219
9778.00   0.37763862   0.08273779
9780.00   0.37245078   0.08413213
9782.00   0.66793272   0.09532594
9784.00   1.23039687   0.11198836
9786.00   1.37540591   0.12595296
9788.00   1.23433411   0.14227991
9790.00   1.06132981   0.15327617
9792.00   0.77836630   0.16152652
9794.00   0.47373553   0.16611270
9796.00   0.25998683   0.16391762
9798.00   0.07525840   0.15423505
9800.00   0.06285556   0.14667774
9802.00   0.22796353   0.13688963
9804.00   0.41927800   0.12948811
9806.00   0.72969908   0.11637909
9808.00   0.89980403   0.11878730
9810.00   0.80680186   0.14529989
9812.00   0.58310728   0.16843331
9814.00   0.43609142   0.16812346
9816.00   0.25727555   0.15283456
9818.00   0.16129159   0.13993823
9820.00   0.18363776   0.11172744
9822.00   0.14250342   0.09651783
9824.00   0.03753376   0.10616307
9826.00   -0.04004501   0.11791447
9828.00   -0.03903880   0.11852691
9830.00   0.04398444   0.11620320
9832.00   0.15900329   0.11242756
9834.00   0.39885785   0.09953531
9836.00   0.46538115   0.09628754
9838.00   0.37194528   0.10611497
9840.00   0.26317763   0.11538441
9842.00   0.25941882   0.12036480
9844.00   0.38039365   0.12340287
9846.00   0.39988939   0.12515559
9848.00   0.34795615   0.12491947
9850.00   0.29170686   0.12662791
9852.00   0.30806161   0.12636206
9854.00   0.33127811   0.12344673
9856.00   0.32168313   0.11886658
9858.00   0.30068863   0.11015590
9860.00   0.26448330   0.10855178
9862.00   0.16599613   0.11079094
9864.00   0.19583901   0.11845347
9866.00   0.37671295   0.13011156
9868.00   0.57193613   0.14259736
9870.00   0.63619618   0.15761094
9872.00   0.48622816   0.17318786
9874.00   0.44422276   0.17948332
9876.00   0.47693713   0.18153484
9878.00   0.43148188   0.17709072
9880.00   0.21294510   0.16156290
9882.00   0.16840721   0.14591796
9884.00   0.28277910   0.13248041
9886.00   0.37470350   0.12304388
9888.00   0.39876528   0.12554535
9890.00   0.42392741   0.14069671
9892.00   0.34689765   0.14717543
9894.00   0.05957436   0.15202230
9896.00   -0.06264638   0.15209502
9898.00   0.10147428   0.14535198
9900.00   0.35971645   0.13952790
9902.00   0.31720508   0.14096576
9904.00   0.01083741   0.14533207
9906.00   -0.13394177   0.15710677
9908.00   -0.27570596   0.17792116
9910.00   -0.31659642   0.19148391
9912.00   -0.18809068   0.20456438
9914.00   -0.07299742   0.21417654
9916.00   -0.12629076   0.21515070
9918.00   -0.14210667   0.20710686
9920.00   -0.00065515   0.19307558
9922.00   0.30851702   0.16116756
9924.00   0.34889644   0.15685725
9926.00   0.07772766   0.17366146
9928.00   0.10606636   0.19200301
9930.00   0.58593658   0.21963332
9932.00   1.23860002   0.24107025
9934.00   1.72473800   0.24349695
9936.00   2.20962755   0.23042397
9938.00   2.05315872   0.24556153
9940.00   1.02699244   0.29325631
9942.00   0.69384391   0.30444913
9944.00   0.77897763   0.27508044
9946.00   0.72597034   0.24509718
9948.00   0.63610667   0.24665801
9950.00   0.58141834   0.26236386
9952.00   0.57970129   0.26047696
9954.00   0.65999202   0.24551244
9956.00   0.67909181   0.24093219
9958.00   0.59578425   0.24481336
9960.00   0.48294078   0.24564417
9962.00   0.40760768   0.23980012
9964.00   0.41804430   0.22987650
9966.00   0.50560438   0.22326617
9968.00   0.75852105   0.21942834
9970.00   0.81398784   0.21344759
9972.00   0.70535403   0.20169785
9974.00   0.60977797   0.18778351
9976.00   0.64323688   0.17906758
9978.00   0.69104880   0.17248864
9980.00   0.59851390   0.16658261
9982.00   0.35578138   0.16256021
9984.00   0.26709478   0.15881767
9986.00   0.30786021   0.15522391
9988.00   0.37836090   0.15365729
9990.00   0.37938358   0.15303807
9992.00   0.33851117   0.15437996
9994.00   0.39754856   0.15766155
9996.00   0.57254897   0.16243394
9998.00   0.50639851   0.16698858
10000.00   0.10403261   0.17108233
10002.00   -0.09147283   0.17806310
10004.00   0.05275849   0.18263502
10006.00   0.34041322   0.19075909
10008.00   0.37066619   0.21891145
10010.00   0.35482506   0.26041727
10012.00   0.37064696   0.28715393
10014.00   0.34116542   0.32079188
10016.00   0.23124966   0.32807473
10018.00   0.47731055   0.29832058
10020.00   0.82278146   0.25546179
10022.00   0.70086968   0.23908731
10024.00   0.47381803   0.24206748
10026.00   0.37080182   0.23467181
10028.00   0.26178772   0.22453455
10030.00   0.11691715   0.21376132
10032.00   0.10553670   0.20537380
10034.00   0.11899992   0.20073260
10036.00   0.12065890   0.19405046
10038.00   0.25304028   0.18499908
10040.00   0.52611639   0.18366746
10042.00   1.03297687   0.18941193
10044.00   1.18545818   0.19233693
10046.00   1.04678339   0.19528797
10048.00   0.89149040   0.19716620
10050.00   0.77596544   0.19367584
10052.00   0.57569280   0.18722357
10054.00   0.32393752   0.18939147
10056.00   -0.01185891   0.19988405
10058.00   -0.06409070   0.20514497
10060.00   0.14493105   0.20737849
10062.00   0.37816798   0.20709839
10064.00   0.49866509   0.20749259
10066.00   0.60336345   0.20903308
10068.00   0.90185133   0.21185642
10070.00   1.21583758   0.21727925
10072.00   1.30535874   0.22389072
10074.00   1.20944804   0.23091898
10076.00   1.14840540   0.23904687
10078.00   1.01746351   0.25319581
10080.00   1.02887699   0.26897851
10082.00   0.98495027   0.27887424
10084.00   0.85130033   0.28246487
10086.00   0.46552228   0.28257703
10088.00   -0.43330303   0.28117219
10090.00   -0.77010623   0.27574676
10092.00   -0.36270473   0.25475681
10094.00   0.09118565   0.23180976
10096.00   0.18646077   0.22110231
10098.00   0.13244864   0.21853397
10100.00   -0.16211973   0.23660359
10102.00   -0.87640029   0.27906909
10104.00   -0.90831825   0.28590015
10106.00   -0.17699586   0.26299576
10108.00   0.17019638   0.24332375
10110.00   0.15464592   0.22541751
10112.00   0.11855826   0.21035348
10114.00   0.16018866   0.20897469
10116.00   0.22993594   0.21532252
10118.00   0.38387789   0.23680710
10120.00   0.65947390   0.28368783
10122.00   0.84338474   0.30754668
10124.00   0.95977587   0.30850830
10126.00   1.14867240   0.30078660
10128.00   1.31522816   0.29304577
10130.00   1.28378421   0.27941298
10132.00   1.21429187   0.27810585
10134.00   0.96687910   0.29145451
10136.00   0.98757987   0.29203262
10138.00   1.28013849   0.28406291
10140.00   1.32389077   0.27931678
10142.00   0.98301490   0.27671428
10144.00   0.74142934   0.27302503
10146.00   0.63329233   0.27540781
10148.00   0.37665385   0.27175425
10150.00   0.40182459   0.29062645
10152.00   1.27677500   0.34859801
10154.00   2.07351869   0.39644195
10156.00   1.79685836   0.38947422
10158.00   0.96859322   0.33108019
10160.00   0.85851081   0.30370539
10162.00   1.06953073   0.28343756
10164.00   1.06759092   0.28334862
10166.00   1.03582064   0.30770284
10168.00   1.13427954   0.33229254
10170.00   1.00463003   0.34752311
10172.00   0.40685213   0.35372126
10174.00   0.14500046   0.34959003
10176.00   0.30826009   0.33189896
10178.00   0.12261516   0.32532714
10180.00   -0.57607472   0.32463863
10182.00   -0.90444687   0.32693783
10184.00   -0.77626766   0.33305375
10186.00   -0.47551695   0.34062682
10188.00   0.09610292   0.34234388
10190.00   1.06286176   0.33575476
10192.00   1.11557317   0.32840258
10194.00   0.03224095   0.31482751
10196.00   -0.05300846   0.30894585
10198.00   0.98107556   0.30325384
10200.00   1.96809709   0.30096933
10202.00   2.04652321   0.30875690
10204.00   1.51557332   0.32378891
10206.00   1.32660311   0.33786546
10208.00   1.23463267   0.35817035
10210.00   1.10917509   0.36566021
10212.00   0.87184432   0.36280220
10214.00   0.58884089   0.35605034
10216.00   0.49571157   0.34250095
10218.00   0.50704420   0.32507498
10220.00   0.19938219   0.32292431
10222.00   -0.39456211   0.33156295
10224.00   -0.66210273   0.34220632
10226.00   -0.79233554   0.36384058
10228.00   -0.70578249   0.37412537
10230.00   -0.16911490   0.37218515
10232.00   0.38038316   0.36036133
10234.00   0.34576678   0.33923357
10236.00   -0.05113680   0.30232042
10238.00   -0.00725470   0.28419609
10240.00   0.45804499   0.28478566
10242.00   0.57634316   0.28078223
10244.00   0.23556792   0.26987785
10246.00   0.03319436   0.25927586
10248.00   0.45667994   0.25992314
10250.00   1.27752736   0.27276101
10252.00   1.45393065   0.27658133
10254.00   1.22114867   0.27745946
10256.00   0.97285065   0.27535030
10258.00   0.52258240   0.27058455
10260.00   0.21329924   0.26721388
10262.00   0.32054941   0.26759604
10264.00   0.71860023   0.27471793
10266.00   0.65112665   0.28782576
10268.00   0.20570389   0.30906966
10270.00   -0.00030655   0.31728127
10272.00   -0.09486707   0.31476543
10274.00   0.02538942   0.31776304
10276.00   0.42497022   0.32244237
10278.00   0.98661864   0.33225068
10280.00   1.18849599   0.37822106
10282.00   1.15582347   0.45625774
10284.00   1.02676016   0.50314919
10286.00   0.48093497   0.54308442
10288.00   0.31049132   0.55741515
10290.00   1.16434562   0.54480875
10292.00   2.71341480   0.53001766
10294.00   2.71773818   0.53337731
10296.00   1.10379164   0.53370482
10298.00   0.45203471   0.51347118
10300.00   0.23801480   0.46691140
10302.00   0.29910970   0.43774028
10304.00   0.31954056   0.40569871
10306.00   0.25217655   0.38422831
10308.00   0.35191955   0.38692821
10310.00   0.76600361   0.40884416
10312.00   0.86461982   0.40335654
10314.00   0.72670373   0.37865310
10316.00   0.51717301   0.35795904
10318.00   0.27814214   0.33491287
10320.00   0.47591770   0.31675233
10322.00   0.97588810   0.31489231
10324.00   1.45103939   0.32482373
10326.00   1.48028435   0.32850753
10328.00   1.16712481   0.33013300
10330.00   0.84560567   0.34182312
10332.00   0.29408424   0.37074540
10334.00   -0.00192663   0.38216054
10336.00   -0.03067227   0.36705397
10338.00   0.07336869   0.34307783
10340.00   0.19998482   0.34714147
10342.00   0.60474195   0.37258703
10344.00   0.61769395   0.39284628
10346.00   0.05918610   0.42180732
10348.00   -0.26176848   0.43009614
10350.00   -0.00961338   0.42010428
10352.00   0.41855216   0.40604252
10354.00   0.91323486   0.39930708
10356.00   2.03461796   0.39876723
10358.00   2.52617180   0.40123506
10360.00   2.50731963   0.40318904
10362.00   2.34833124   0.41147001
10364.00   2.81062111   0.43421148
10366.00   2.93455255   0.47056713
10368.00   1.95060641   0.50928295
10370.00   0.76480243   0.55073467
10372.00   -0.03395665   0.57458225
10374.00   -1.17864893   0.60118638
10376.00   -1.39267045   0.58834132
10378.00   0.14438434   0.51746580
10380.00   1.47956365   0.44414063
10382.00   1.44757751   0.40482497
10384.00   0.80066940   0.38664666
10386.00   0.63879466   0.39680983
10388.00   0.45405415   0.45512550
10390.00   0.17921340   0.47107554
10392.00   -0.27270750   0.44939072
10394.00   0.00599717   0.42397239
10396.00   0.94489618   0.41668721
10398.00   1.69559515   0.41764843
10400.00   1.41011822   0.41894334
10402.00   0.27047296   0.42864763
10404.00   -0.09091531   0.42598110
10406.00   -0.09898183   0.39900645
10408.00   0.20772322   0.39392057
10410.00   0.86442734   0.42830911
10412.00   1.19717473   0.46779847
10414.00   0.84140016   0.48500077
10416.00   -0.15659744   0.49373752
10418.00   -0.21788424   0.51053603
10420.00   0.70340818   0.54287287
10422.00   0.89382616   0.55114234
10424.00   0.17260758   0.52793660
10426.00   -0.35622510   0.48852157
10428.00   -0.44989079   0.45453820
10430.00   -0.58984479   0.41127015
10432.00   -0.28903820   0.38691305
10434.00   0.67866349   0.38539694
10436.00   0.97586841   0.37911514
10438.00   0.55623783   0.36092086
10440.00   0.33385148   0.34602950
10442.00   0.38737597   0.34505303
10444.00   0.38368161   0.35591879
10446.00   0.47097839   0.37441334
10448.00   0.85305315   0.40483740
10450.00   1.15192834   0.40898874
10452.00   1.33662772   0.39099094
10454.00   1.10645482   0.37976288
10456.00   0.92144202   0.36515677
10458.00   1.11669937   0.35004222
10460.00   1.73716122   0.35854777
10462.00   3.15201151   0.38910816
10464.00   3.39561427   0.40137725
10466.00   2.61069727   0.40518927
10468.00   1.72467357   0.40517842
10470.00   0.84526521   0.40275333
10472.00   0.13008732   0.39447579
10474.00   0.26428372   0.38398859
10476.00   1.47857606   0.37768680
10478.00   1.70002258   0.37159608
10480.00   1.15193677   0.36408836
10482.00   0.98025112   0.35770820
10484.00   1.61316806   0.36304616
10486.00   2.36317313   0.36632143
10488.00   2.18046844   0.35644722
10490.00   1.20225267   0.34108693
10492.00   1.24531634   0.33854256
10494.00   2.04895231   0.34585313
10496.00   2.44243759   0.35189293
10498.00   2.67791939   0.36024802
10500.00   2.67595136   0.35893952
10502.00   1.95843488   0.35646492
10504.00   0.79221293   0.36581578
10506.00   0.56478764   0.36475738
10508.00   1.00771825   0.34914075
10510.00   0.93114191   0.34525790
10512.00   0.26599605   0.35661465
10514.00   0.23034119   0.36399895
10516.00   0.84884909   0.36979718
10518.00   1.21543989   0.38141157
10520.00   1.28972426   0.38220722
10522.00   1.50112289   0.36965263
10524.00   1.71445429   0.36320061
10526.00   1.91277051   0.36116307
10528.00   1.92492962   0.35820038
10530.00   1.90602046   0.34751208
10532.00   1.66389078   0.33773950
10534.00   1.17409897   0.33993882
10536.00   0.64913102   0.34667368
10538.00   0.75625588   0.34591333
10540.00   1.77033299   0.33784237
10542.00   1.75497031   0.34073960
10544.00   0.72320838   0.35289966
10546.00   -0.09733199   0.35764769
10548.00   -0.15920587   0.35227198
10550.00   0.02365988   0.34563867
10552.00   0.29945025   0.34306311
10554.00   1.02186781   0.34188689
10556.00   1.34323561   0.33861148
10558.00   1.13261947   0.33182603
10560.00   0.87332276   0.32961506
10562.00   0.85101825   0.34193181
10564.00   1.03730823   0.36633395
10566.00   0.93931805   0.36883420
10568.00   0.46768788   0.35178418
10570.00   0.27623343   0.34359552
10572.00   0.39625611   0.34193759
10574.00   0.53406413   0.34210491
10576.00   0.52679492   0.34099977
10578.00   0.50022833   0.34348748
10580.00   0.65938349   0.35033659
10582.00   0.95283324   0.35978895
10584.00   0.73196876   0.37067525
10586.00   -0.34391173   0.39243790
10588.00   -0.50145518   0.39640534
10590.00   0.27315500   0.37807956
10592.00   1.11492065   0.35970813
10594.00   1.41257322   0.35850137
10596.00   1.38553971   0.36909160
10598.00   1.32550195   0.36948527
10600.00   1.05219342   0.36387946
10602.00   0.79518095   0.36026171
10604.00   0.52255866   0.36201169
10606.00   0.61790106   0.36380614
10608.00   0.76504779   0.35874934
10610.00   0.69058079   0.34830028
10612.00   0.90657894   0.34621336
10614.00   1.50352430   0.35025906
10616.00   1.78570843   0.35224606
10618.00   1.74776095   0.35400670
10620.00   1.63174212   0.35500678
10622.00   1.40831214   0.35327611
10624.00   0.99117634   0.34780312
10626.00   0.71205380   0.34357741
10628.00   0.47396366   0.34025911
10630.00   0.34756219   0.33860577
10632.00   0.26451124   0.33843589
10634.00   0.33721381   0.33719437
10636.00   0.62379660   0.33582017
10638.00   1.03001517   0.33453262
10640.00   1.37451762   0.33356502
10642.00   1.90587777   0.33359015
10644.00   1.92816031   0.33367342
10646.00   1.42784923   0.33502630
10648.00   0.99825689   0.33399152
10650.00   0.65111106   0.33107615
10652.00   0.33604357   0.32734997
10654.00   0.29905349   0.32433840
10656.00   0.53655293   0.32213887
10658.00   0.71663638   0.31990572
10660.00   1.01500252   0.31738945
10662.00   1.23056114   0.31597102
10664.00   1.40689349   0.31705175
10666.00   1.34551951   0.31655638
10668.00   0.95843822   0.31235264
10670.00   0.40206151   0.30738707
10672.00   0.33469383   0.30588300
10674.00   0.60047790   0.30589166
10676.00   0.87239216   0.30807455
10678.00   1.39975345   0.31599332
10680.00   1.63231957   0.31897602
10682.00   1.42741209   0.31408651
10684.00   1.12603679   0.30864436
10686.00   0.97189581   0.30954255
10688.00   0.65054406   0.31241730
10690.00   0.75237783   0.31773495
10692.00   1.44455937   0.33130256
10694.00   1.91212809   0.33613502
10696.00   2.07911325   0.33033457
10698.00   2.28826380   0.32495315
10700.00   2.10718656   0.31961879
10702.00   1.26014769   0.30639714
10704.00   1.08272058   0.30367196
10706.00   1.38352275   0.31066987
10708.00   1.59009925   0.31569446
10710.00   1.80687183   0.31794645
10712.00   1.93259525   0.32186450
10714.00   1.83239138   0.32519587
10716.00   1.75598061   0.32379823
10718.00   1.58723837   0.32103102
10720.00   1.21470261   0.31537743
10722.00   0.96880642   0.30835113
10724.00   0.91627716   0.29702752
10726.00   0.89719941   0.29498745
10728.00   0.95451979   0.30011538
10730.00   1.25043887   0.30823485
10732.00   1.55437869   0.30232117
10734.00   1.95500791   0.27717098
10736.00   2.09545410   0.26988916
10738.00   2.06039327   0.28292023
10740.00   1.98253256   0.29764819
10742.00   1.78481430   0.30707460
10744.00   1.46400903   0.31178623
10746.00   1.40348797   0.30391296
10748.00   1.71164274   0.28126909
10750.00   1.56668961   0.27525491
10752.00   0.90586200   0.28703325
10754.00   0.42353828   0.28706794
10756.00   0.25606021   0.27718670
10758.00   0.29885459   0.26269904
10760.00   0.41613713   0.24777747
10762.00   0.62160960   0.23397165
10764.00   0.77828480   0.22738548
10766.00   0.90612992   0.22977357
10768.00   1.10031304   0.22756838
10770.00   1.42420033   0.22205292
10772.00   1.77764744   0.21891001
10774.00   1.89138567   0.22704007
10776.00   1.75578502   0.24576346
10778.00   1.77063756   0.24858587
10780.00   1.85875318   0.24125262
10782.00   1.80662807   0.23584997
10784.00   1.41954451   0.23053447
10786.00   1.44719382   0.22252561
10788.00   2.22546849   0.21793470
10790.00   3.20122945   0.21362102
10792.00   3.14384305   0.20400863
10794.00   2.29427743   0.18950098
10796.00   1.94494587   0.18385426
10798.00   1.85889113   0.18529896
10800.00   1.71178442   0.18785106
10802.00   1.52720189   0.19118036
10804.00   1.45756555   0.18882142
10806.00   1.38049239   0.18669946
10808.00   1.25357586   0.19016078
10810.00   1.16767278   0.18738744
10812.00   1.08415148   0.17348234
10814.00   1.08878782   0.16775239
10816.00   1.19903645   0.17498271
10818.00   1.38912559   0.17926573
10820.00   1.71759158   0.17867410
10822.00   2.20192230   0.17783670
10824.00   2.10750526   0.17716307
10826.00   1.28719050   0.17525457
10828.00   1.11626148   0.17556571
10830.00   1.62828457   0.17198560
10832.00   2.02726537   0.17543909
10834.00   1.88017237   0.20127614
10836.00   1.41328925   0.24310564
10838.00   1.29128742   0.24411539
10840.00   1.35938030   0.21085317
10842.00   1.45849055   0.18378312
10844.00   1.70039088   0.15969500
10846.00   1.64724264   0.14244433
10848.00   1.28872272   0.13444126
10850.00   0.97031441   0.14028590
10852.00   0.87243438   0.15238304
10854.00   0.69349529   0.17752684
10856.00   1.02598608   0.18203965
10858.00   2.42915308   0.16572939
10860.00   3.01271987   0.15408517
10862.00   2.23141599   0.16148310
10864.00   1.38248624   0.17294779
10866.00   1.15951020   0.16489132
10868.00   0.80457859   0.14072869
10870.00   0.85166178   0.13532352
10872.00   1.60071275   0.14930021
10874.00   1.95631880   0.15012975
10876.00   1.71519727   0.14135507
10878.00   1.71519727   0.14135507
