# File created by shivutils (I.Shivvers)
# wl(A)   flm    er(optional)
3444.00   18.60396767   0.18824284
3446.00   18.44525337   0.18884751
3448.00   18.32818604   0.18892446
3450.00   18.26380539   0.18987833
3452.00   18.60006142   0.19233233
3454.00   18.41014481   0.19251658
3456.00   18.44909668   0.19396318
3458.00   18.39040565   0.19441691
3460.00   18.30429840   0.19530205
3462.00   18.39281273   0.19714625
3464.00   18.60023880   0.19990991
3466.00   18.54351616   0.20101157
3468.00   18.77380371   0.20355633
3470.00   19.24744987   0.20663504
3472.00   19.45311356   0.20852785
3474.00   19.14707565   0.20875125
3476.00   19.54601479   0.21132980
3478.00   19.70368576   0.21354425
3480.00   20.44636345   0.21790305
3482.00   20.48879623   0.21940775
3484.00   20.74487686   0.22046113
3486.00   20.95124626   0.22257887
3488.00   21.08156967   0.22282705
3490.00   21.96977806   0.22682318
3492.00   22.23750496   0.22858714
3494.00   21.71495438   0.22690690
3496.00   22.76443481   0.23173547
3498.00   22.75074387   0.23275676
3500.00   23.10217476   0.23446491
3502.00   23.47458458   0.23656291
3504.00   23.69664192   0.23803000
3506.00   23.57056618   0.23776145
3508.00   23.72965622   0.23870075
3510.00   23.44262886   0.23942119
3512.00   23.80038834   0.23963672
3514.00   23.78429222   0.23996161
3516.00   22.90141296   0.23603590
3518.00   23.79651833   0.24003737
3520.00   23.85246468   0.24009997
3522.00   23.66267204   0.23899919
3524.00   23.88474083   0.24014108
3526.00   23.95233345   0.23969521
3528.00   24.05598640   0.23978342
3530.00   24.10910225   0.23889238
3532.00   24.10993576   0.23928352
3534.00   24.45392990   0.24010189
3536.00   24.32597733   0.23896135
3538.00   24.58665085   0.23925519
3540.00   24.30782700   0.23742051
3542.00   24.66493416   0.23874038
3544.00   24.43029404   0.23684323
3546.00   24.66016769   0.23778535
3548.00   24.90290451   0.23759969
3550.00   25.20517159   0.23861288
3552.00   25.32496262   0.23802282
3554.00   25.64767265   0.23857501
3556.00   25.78296852   0.23779921
3558.00   25.47828102   0.23587574
3560.00   25.11661148   0.23357660
3562.00   25.28019333   0.23317213
3564.00   25.39650154   0.23295182
3566.00   25.32728577   0.23096953
3568.00   25.45718765   0.23035097
3570.00   24.94390106   0.22758521
3572.00   24.84993935   0.22654456
3574.00   24.76740265   0.22469406
3576.00   24.63878250   0.22307928
3578.00   24.51869583   0.22163863
3580.00   24.17185211   0.21898867
3582.00   24.00193024   0.21756302
3584.00   23.87240982   0.21524121
3586.00   23.46573830   0.21308979
3588.00   23.59266663   0.21292725
3590.00   23.44593048   0.21103545
3592.00   23.20741463   0.20959499
3594.00   22.97320557   0.20659696
3596.00   22.82363129   0.20517001
3598.00   22.51453018   0.20280074
3600.00   22.69743729   0.20255317
3602.00   22.03757477   0.19837056
3604.00   22.45302200   0.19967304
3606.00   22.30164528   0.19811609
3608.00   22.18991089   0.19657387
3610.00   22.02525711   0.19518316
3612.00   22.71521187   0.19700974
3614.00   22.97673988   0.19796591
3616.00   23.25230217   0.19766086
3618.00   23.61791039   0.19748944
3620.00   23.76387596   0.19706506
3622.00   23.90612030   0.19669662
3624.00   24.47120476   0.19744188
3626.00   24.25028419   0.19602129
3628.00   24.33114624   0.19582014
3630.00   24.18820381   0.19442634
3632.00   23.69314003   0.19159020
3634.00   23.64638329   0.19058266
3636.00   22.97323227   0.18689059
3638.00   22.69370079   0.18544243
3640.00   22.17918587   0.18264212
3642.00   21.80927467   0.18067762
3644.00   21.20556450   0.17763650
3646.00   20.61539650   0.17513043
3648.00   20.37627411   0.17620236
3650.00   20.24137878   0.17588516
3652.00   19.74831390   0.17145865
3654.00   19.75516701   0.16989660
3656.00   19.18116760   0.16546296
3658.00   18.34796143   0.16068095
3660.00   17.84340668   0.15817907
3662.00   17.50244331   0.15676314
3664.00   16.93483162   0.15469135
3666.00   16.50714874   0.15097521
3668.00   16.27954483   0.14826910
3670.00   15.52093029   0.14403197
3672.00   15.36490345   0.14278486
3674.00   15.17345142   0.14132920
3676.00   14.71303844   0.13879429
3678.00   14.59009552   0.13715371
3680.00   14.21831608   0.13493074
3682.00   13.81950665   0.13284829
3684.00   13.79702282   0.13212049
3686.00   13.49695969   0.13041447
3688.00   13.18642426   0.12831753
3690.00   12.87733555   0.12661809
3692.00   12.66033840   0.12527265
3694.00   12.59227657   0.12445736
3696.00   12.41752148   0.12297919
3698.00   12.02492809   0.12098279
3700.00   11.87076092   0.12020089
3702.00   12.02499771   0.12035343
3704.00   11.99063396   0.11993237
3706.00   12.10165024   0.11991515
3708.00   11.90170765   0.11853396
3710.00   11.81762600   0.11769181
3712.00   11.90539455   0.11769541
3714.00   11.88028908   0.11755385
3716.00   11.77506924   0.11647121
3718.00   11.97360802   0.11688717
3720.00   12.06726456   0.11685456
3722.00   11.76911736   0.11504257
3724.00   11.90028667   0.11526898
3726.00   12.21377182   0.11653392
3728.00   12.39175606   0.11712531
3730.00   12.17007446   0.11622599
3732.00   12.52205563   0.11712991
3734.00   12.75603676   0.11756503
3736.00   12.85676670   0.11791241
3738.00   12.93133926   0.11785813
3740.00   12.78900719   0.11739825
3742.00   13.08894634   0.11836065
3744.00   12.93675137   0.11708564
3746.00   13.21037292   0.11775967
3748.00   13.08633709   0.11661595
3750.00   12.97920704   0.11565972
3752.00   13.19809151   0.11822168
3754.00   13.06526947   0.11843914
3756.00   13.10848904   0.11549800
3758.00   13.10528564   0.11513104
3760.00   12.96477604   0.11398548
3762.00   13.07537079   0.11413685
3764.00   13.02672577   0.11404938
3766.00   12.95694447   0.11340741
3768.00   13.25427628   0.11442964
3770.00   13.16862392   0.11369675
3772.00   13.30709743   0.11415645
3774.00   13.27504635   0.11351959
3776.00   13.52049637   0.11400701
3778.00   13.40272903   0.11357547
3780.00   13.54518700   0.11367106
3782.00   13.49058819   0.11327387
3784.00   13.64189243   0.11374845
3786.00   13.78503895   0.11422577
3788.00   13.78785992   0.11400604
3790.00   13.82950783   0.11412619
3792.00   13.73955154   0.11362226
3794.00   13.97633457   0.11388378
3796.00   14.13072872   0.11432154
3798.00   14.32574940   0.11466525
3800.00   14.36909771   0.11490050
3802.00   14.66435623   0.11555108
3804.00   14.81407356   0.11560651
3806.00   15.17857552   0.11662108
3808.00   15.28545284   0.11659761
3810.00   15.58971882   0.11732044
3812.00   15.69807053   0.11770473
3814.00   16.41109276   0.11995503
3816.00   16.47814369   0.11977990
3818.00   17.04104614   0.12151593
3820.00   16.96344948   0.12146672
3822.00   17.57724571   0.12314153
3824.00   17.96748161   0.12397125
3826.00   18.27330399   0.12471981
3828.00   18.83717155   0.12653765
3830.00   19.05828094   0.12687850
3832.00   19.51913261   0.12792468
3834.00   19.94082069   0.12868935
3836.00   20.39947701   0.12988302
3838.00   20.87731934   0.13092619
3840.00   21.32104683   0.13216345
3842.00   21.90160370   0.13354777
3844.00   22.44433594   0.13471968
3846.00   23.19545937   0.13655291
3848.00   23.77075958   0.13795365
3850.00   24.25629997   0.13886741
3852.00   24.52039719   0.13933147
3854.00   25.27506638   0.14120357
3856.00   26.34132957   0.14372873
3858.00   26.85201263   0.14472196
3860.00   27.00927734   0.14516929
3862.00   27.01409149   0.14497851
3864.00   27.81425476   0.14681131
3866.00   27.96436691   0.14682485
3868.00   28.51248169   0.14758208
3870.00   28.74653816   0.14799260
3872.00   28.84051895   0.14822282
3874.00   29.08606911   0.14857525
3876.00   29.23585510   0.14863326
3878.00   29.60955620   0.14919460
3880.00   29.32428169   0.14823423
3882.00   29.77250099   0.14902352
3884.00   30.13216591   0.14954355
3886.00   29.75522041   0.14857472
3888.00   29.90900230   0.14857414
3890.00   30.24901962   0.14922990
3892.00   30.36106873   0.14923815
3894.00   30.89376640   0.15016779
3896.00   31.12485504   0.15051956
3898.00   31.56653214   0.15117317
3900.00   31.65074730   0.15126227
3902.00   31.66316414   0.15122320
3904.00   31.85278511   0.15160587
3906.00   32.21497345   0.15259497
3908.00   32.68832779   0.15373363
3910.00   32.52252960   0.15332992
3912.00   33.02518845   0.15405215
3914.00   32.94157410   0.15338849
3916.00   33.10468674   0.15298915
3918.00   33.29912186   0.15303937
3920.00   33.69535828   0.15356490
3922.00   33.76763535   0.15349752
3924.00   33.40860748   0.15247595
3926.00   33.73029709   0.15302241
3928.00   33.73487091   0.15262319
3930.00   32.90429306   0.15071268
3932.00   31.29070091   0.14699139
3934.00   31.56495476   0.14720643
3936.00   32.24782181   0.14831807
3938.00   32.22100449   0.14809594
3940.00   31.70846748   0.14664452
3942.00   31.50650787   0.14600065
3944.00   31.21796417   0.14507516
3946.00   30.84128189   0.14371260
3948.00   30.66337204   0.14287099
3950.00   30.23267746   0.14147271
3952.00   29.58179855   0.13983175
3954.00   29.23587418   0.13895668
3956.00   29.09116936   0.13844867
3958.00   28.69685364   0.13751610
3960.00   28.70400429   0.13756849
3962.00   28.31000710   0.13657482
3964.00   28.00284767   0.13535820
3966.00   27.43552589   0.13390529
3968.00   26.70305252   0.13178837
3970.00   27.17299271   0.13287003
3972.00   27.02555275   0.13219932
3974.00   26.96109009   0.13193043
3976.00   27.01106453   0.13167728
3978.00   26.75979424   0.13078929
3980.00   26.33549690   0.12926105
3982.00   26.29792976   0.12880965
3984.00   26.17519379   0.12845218
3986.00   26.19078064   0.12808125
3988.00   26.32543945   0.12832472
3990.00   26.47251511   0.12864798
3992.00   26.64760017   0.12901367
3994.00   26.49040985   0.12866127
3996.00   26.67171097   0.12905365
3998.00   26.44685745   0.12839769
4000.00   26.07794571   0.12714025
4002.00   26.29453468   0.12742341
4004.00   26.72879791   0.12824164
4006.00   26.62302399   0.12796256
4008.00   26.72571182   0.12786576
4010.00   26.85057831   0.12812565
4012.00   27.07030106   0.12838617
4014.00   27.21438789   0.12921546
4016.00   27.64423943   0.12913212
4018.00   28.09956551   0.13041010
4020.00   28.20951653   0.13073801
4022.00   28.52169609   0.13149799
4024.00   28.88375473   0.13180840
4026.00   29.01463318   0.13154697
4028.00   29.42975044   0.13214347
4030.00   29.74104881   0.13234560
4032.00   29.79957581   0.13225600
4034.00   30.38062859   0.13314454
4036.00   30.58340645   0.13335672
4038.00   30.83111763   0.13354024
4040.00   31.01756096   0.13376032
4042.00   31.41770363   0.13460334
4044.00   31.58927727   0.13756567
4046.00   31.65990448   0.13927087
4048.00   31.53082085   0.13698979
4050.00   32.10182571   0.13563141
4052.00   32.28519440   0.13493587
4054.00   32.60129929   0.13530953
4056.00   32.44369888   0.13472980
4058.00   32.86248016   0.13506114
4060.00   33.08209991   0.13499673
4062.00   33.19057083   0.13496983
4064.00   33.50754166   0.13535011
4066.00   33.79809570   0.13574116
4068.00   34.29965973   0.13633785
4070.00   34.06351852   0.13568445
4072.00   34.21460724   0.13578518
4074.00   34.61454010   0.13629852
4076.00   34.42289352   0.13620676
4078.00   34.50924683   0.13615507
4080.00   34.67506790   0.13593748
4082.00   34.56286240   0.13526219
4084.00   34.87590408   0.13568068
4086.00   34.71701050   0.13505687
4088.00   34.99100876   0.13508935
4090.00   34.88001251   0.13444115
4092.00   34.61688614   0.13366096
4094.00   34.83066177   0.13375477
4096.00   34.93032837   0.13377066
4098.00   35.02726364   0.13387524
4100.00   34.95543671   0.13349266
4102.00   34.90530777   0.13307801
4104.00   34.80833817   0.13264091
4106.00   34.62477875   0.13215828
4108.00   34.84533310   0.13218246
4110.00   34.90178680   0.13197529
4112.00   34.82957840   0.13147345
4114.00   34.32086182   0.13038635
4116.00   34.19800949   0.12979481
4118.00   33.91798782   0.12901646
4120.00   33.44455338   0.12793796
4122.00   33.28246307   0.12746200
4124.00   33.02928162   0.12677923
4126.00   32.80573273   0.12610517
4128.00   32.53122711   0.12555417
4130.00   32.43568039   0.12530258
4132.00   32.19812012   0.12471465
4134.00   32.25114059   0.12446488
4136.00   32.27473831   0.12417977
4138.00   32.27948380   0.12407806
4140.00   32.22288132   0.12392568
4142.00   32.34727859   0.12378650
4144.00   32.29912949   0.12334356
4146.00   32.09844208   0.12273816
4148.00   31.87526894   0.12216576
4150.00   32.02092743   0.12235231
4152.00   31.35877800   0.12104206
4154.00   31.37262917   0.12087766
4156.00   31.12987137   0.12021144
4158.00   31.13773155   0.11990830
4160.00   30.91236115   0.11943600
4162.00   30.64166069   0.11873567
4164.00   30.64263916   0.11884980
4166.00   30.67402077   0.11871161
4168.00   30.75356102   0.11845384
4170.00   30.89165688   0.11840928
4172.00   30.84622383   0.11811257
4174.00   30.61004257   0.11745904
4176.00   30.71800041   0.11752067
4178.00   30.76214027   0.11756068
4180.00   30.41935349   0.11680820
4182.00   30.42967796   0.11651444
4184.00   30.31937790   0.11618209
4186.00   30.06875420   0.11545005
4188.00   29.66604424   0.11452597
4190.00   29.56736374   0.11415856
4192.00   29.25549126   0.11338242
4194.00   28.91150665   0.11258117
4196.00   28.48714828   0.11153726
4198.00   28.18461800   0.11087994
4200.00   27.91462326   0.11014791
4202.00   27.72018623   0.10972217
4204.00   27.45030022   0.10903623
4206.00   27.06908607   0.10815568
4208.00   26.63232422   0.10729814
4210.00   26.40738678   0.10665849
4212.00   26.18231583   0.10595635
4214.00   26.00730515   0.10551389
4216.00   25.67876434   0.10466948
4218.00   25.48742294   0.10414588
4220.00   25.25875282   0.10353733
4222.00   25.16831970   0.10318172
4224.00   24.68830109   0.10216225
4226.00   24.61310959   0.10198397
4228.00   24.52276611   0.10155118
4230.00   24.20496178   0.10082398
4232.00   23.75693130   0.09993170
4234.00   23.58843613   0.09944317
4236.00   23.41956329   0.09884858
4238.00   23.12455559   0.09817401
4240.00   22.84269524   0.09735584
4242.00   22.66316032   0.09661867
4244.00   22.13533783   0.09575882
4246.00   21.95235634   0.09557395
4248.00   21.48890114   0.09435147
4250.00   21.26064491   0.09353739
4252.00   21.05658531   0.09278627
4254.00   20.66011238   0.09187432
4256.00   20.25131798   0.09099379
4258.00   19.93745804   0.09008859
4260.00   19.59216309   0.08920692
4262.00   19.23244095   0.08833086
4264.00   18.84812355   0.08738875
4266.00   18.52625084   0.08651780
4268.00   18.36039352   0.08613499
4270.00   18.09916496   0.08540947
4272.00   17.92158127   0.08487651
4274.00   17.79641914   0.08458872
4276.00   17.51822281   0.08380431
4278.00   17.25060654   0.08317320
4280.00   17.17049408   0.08300781
4282.00   17.16837311   0.08287767
4284.00   17.35707664   0.08311097
4286.00   17.15030479   0.08254832
4288.00   17.12669754   0.08222825
4290.00   17.17152405   0.08214656
4292.00   17.03621674   0.08191145
4294.00   17.26786613   0.08227053
4296.00   17.44544220   0.08257838
4298.00   17.44790649   0.08247750
4300.00   17.51897621   0.08253506
4302.00   17.57743073   0.08260480
4304.00   17.80394173   0.08304040
4306.00   18.00890350   0.08344067
4308.00   17.99943924   0.08329339
4310.00   17.96829987   0.08328725
4312.00   18.14334297   0.08371573
4314.00   18.40292740   0.08426383
4316.00   18.66558075   0.08458950
4318.00   18.88139343   0.08489683
4320.00   19.12708092   0.08536224
4322.00   19.40642738   0.08561072
4324.00   19.69185638   0.08971038
4326.00   19.76243019   0.08629208
4328.00   20.09133911   0.08668873
4330.00   20.04582405   0.08660351
4332.00   20.24948502   0.08704077
4334.00   20.45113754   0.08755487
4336.00   20.33892822   0.08741718
4338.00   20.41821861   0.08752973
4340.00   20.39328766   0.08738527
4342.00   20.32256508   0.08709080
4344.00   20.61002541   0.08767228
4346.00   20.52129555   0.08763017
4348.00   20.32672501   0.08739184
4350.00   20.28222847   0.08714618
4352.00   20.40316010   0.08727759
4354.00   20.40590286   0.08814568
4356.00   20.51449776   0.09271776
4358.00   20.75845146   0.09540903
4360.00   20.51210403   0.09247142
4362.00   20.57857513   0.08918057
4364.00   21.05054092   0.08844364
4366.00   21.12735176   0.08844605
4368.00   21.32989883   0.08863413
4370.00   21.41024590   0.08864466
4372.00   21.42657661   0.08884492
4374.00   21.78115082   0.08949511
4376.00   21.75541687   0.08936244
4378.00   21.91904640   0.08946642
4380.00   22.09049606   0.08967864
4382.00   22.15492439   0.08968610
4384.00   22.02555656   0.08941334
4386.00   21.91076279   0.08897862
4388.00   21.87578773   0.08891845
4390.00   21.86007309   0.08879014
4392.00   21.63022423   0.08834033
4394.00   21.47468185   0.08783247
4396.00   21.23140907   0.08727720
4398.00   20.95140266   0.08673716
4400.00   21.19487762   0.08706266
4402.00   20.80750084   0.08620530
4404.00   20.67334366   0.08566310
4406.00   20.41837120   0.08504281
4408.00   20.25636292   0.08483311
4410.00   20.17833138   0.08461138
4412.00   19.96922684   0.08414518
4414.00   20.03053856   0.08425029
4416.00   19.99691010   0.08401151
4418.00   19.74270630   0.08347248
4420.00   19.89756966   0.08355538
4422.00   19.81105995   0.08329224
4424.00   19.70342827   0.08309073
4426.00   19.79867744   0.08323482
4428.00   19.94676781   0.08342363
4430.00   19.86280632   0.08331763
4432.00   19.95736694   0.08342776
4434.00   20.25473785   0.08395925
4436.00   20.24680901   0.08400646
4438.00   20.50416565   0.08456718
4440.00   20.56010056   0.08466401
4442.00   20.61784172   0.08478401
4444.00   21.03412056   0.08549348
4446.00   21.01156425   0.08545598
4448.00   21.28651047   0.08588897
4450.00   21.58530807   0.08638091
4452.00   21.65064240   0.08650669
4454.00   22.08769035   0.08726063
4456.00   22.52018356   0.08811867
4458.00   22.79442024   0.08860853
4460.00   22.99531937   0.08888801
4462.00   23.42462540   0.08969323
4464.00   23.86232758   0.09038854
4466.00   24.15373230   0.09091686
4468.00   24.41921425   0.09140004
4470.00   24.61997986   0.09161884
4472.00   24.77962112   0.09183870
4474.00   25.11593246   0.09233159
4476.00   25.39592934   0.09260754
4478.00   25.17306709   0.09226612
4480.00   25.46019936   0.09272682
4482.00   25.40574074   0.09255943
4484.00   25.65476418   0.09307726
4486.00   25.76939201   0.09321149
4488.00   25.93019867   0.09338965
4490.00   26.12335205   0.09378710
4492.00   26.33387756   0.09418462
4494.00   26.40471840   0.09430567
4496.00   26.67109299   0.09472261
4498.00   26.77739143   0.09487420
4500.00   26.77445221   0.09482102
4502.00   26.95427132   0.09504946
4504.00   27.11229324   0.09526711
4506.00   27.16798782   0.09527849
4508.00   27.31030083   0.09551267
4510.00   27.65497208   0.09599797
4512.00   27.78920937   0.09619333
4514.00   27.73960686   0.09606403
4516.00   27.81603813   0.09610306
4518.00   27.90459824   0.09634515
4520.00   27.82525063   0.09683739
4522.00   27.53808594   0.09587221
4524.00   27.71702957   0.09610110
4526.00   27.34566879   0.09548452
4528.00   27.30655289   0.09540176
4530.00   27.27028465   0.09525900
4532.00   26.96134186   0.09473766
4534.00   27.04458618   0.09476689
4536.00   26.80639076   0.09427079
4538.00   26.82757759   0.09420629
4540.00   26.57997894   0.09420313
4542.00   26.55712128   0.09393890
4544.00   26.39703369   0.09417600
4546.00   26.36934090   0.09329838
4548.00   26.55674744   0.09346004
4550.00   26.60888100   0.09340407
4552.00   26.40373421   0.09308808
4554.00   26.42628479   0.09314550
4556.00   26.58319283   0.09330963
4558.00   26.45039368   0.09318537
4560.00   26.34095573   0.09292788
4562.00   26.45747566   0.09308551
4564.00   26.56182480   0.09315089
4566.00   26.75923538   0.09348947
4568.00   26.77302933   0.09341016
4570.00   26.52955437   0.09303804
4572.00   26.56717491   0.09309208
4574.00   26.51494408   0.09301247
4576.00   26.27961540   0.09262104
4578.00   26.31917953   0.09263846
4580.00   26.26118088   0.09249839
4582.00   26.10110474   0.09225033
4584.00   26.22177315   0.09239167
4586.00   26.18074799   0.09228985
4588.00   26.16191673   0.09236404
4590.00   26.20768547   0.09243980
4592.00   26.19513321   0.09237885
4594.00   25.92582893   0.09201749
4596.00   25.97351074   0.09202547
4598.00   25.98230171   0.09200480
4600.00   25.85569572   0.09175171
4602.00   25.78768730   0.09166798
4604.00   25.58488846   0.09131500
4606.00   25.32672310   0.09095809
4608.00   25.09767342   0.09049223
4610.00   24.96028900   0.09027940
4612.00   24.82451439   0.08997713
4614.00   24.52048111   0.08941028
4616.00   24.16202545   0.08868692
4618.00   23.99414825   0.08833846
4620.00   23.67972374   0.08783001
4622.00   23.34233856   0.08714712
4624.00   22.99489594   0.08648083
4626.00   22.77839088   0.08601441
4628.00   22.43921661   0.08546863
4630.00   22.13661575   0.08490442
4632.00   21.84033966   0.08434159
4634.00   21.80743217   0.08415480
4636.00   21.58651543   0.08375285
4638.00   21.45323181   0.08343860
4640.00   21.19431686   0.08292114
4642.00   21.01909065   0.08250278
4644.00   20.83561325   0.08218721
4646.00   20.78411293   0.08194733
4648.00   20.62581062   0.08171583
4650.00   20.72071648   0.08177811
4652.00   20.57559013   0.08146238
4654.00   20.47492027   0.08132731
4656.00   20.34614563   0.08099995
4658.00   20.35466003   0.08092880
4660.00   20.29955673   0.08080979
4662.00   20.18733597   0.08066864
4664.00   20.22612381   0.08061787
4666.00   20.17915535   0.08062815
4668.00   20.17999458   0.08063128
4670.00   20.28115463   0.08075432
4672.00   20.09225655   0.08045752
4674.00   20.33714485   0.08091532
4676.00   20.19526672   0.08059315
4678.00   20.29766273   0.08071174
4680.00   20.20670128   0.08040526
4682.00   20.14470100   0.08025088
4684.00   20.01214218   0.07994069
4686.00   19.99286461   0.07987317
4688.00   20.16941643   0.08005522
4690.00   20.10780144   0.07999565
4692.00   20.14086914   0.08002212
4694.00   20.19428444   0.08012699
4696.00   20.13354301   0.07997873
4698.00   19.98073959   0.07974322
4700.00   20.07656097   0.07977799
4702.00   19.91265869   0.07953089
4704.00   19.93134880   0.07962199
4706.00   19.89222527   0.07953352
4708.00   19.91366196   0.07957873
4710.00   19.83429909   0.07945832
4712.00   19.73693085   0.07917351
4714.00   19.65835953   0.07898844
4716.00   19.56756020   0.07874189
4718.00   19.34558105   0.07833440
4720.00   19.17276955   0.07799900
4722.00   19.11164665   0.07777325
4724.00   18.86994362   0.07729749
4726.00   18.80387306   0.07723970
4728.00   18.53998947   0.07686012
4730.00   18.50829506   0.07688583
4732.00   18.44701004   0.07666828
4734.00   18.36555481   0.07653936
4736.00   18.21168518   0.07632977
4738.00   17.97039223   0.07603578
4740.00   18.02720642   0.07623660
4742.00   18.02720261   0.07629856
4744.00   17.88261414   0.07589632
4746.00   17.79520416   0.07542285
4748.00   17.82340240   0.07529154
4750.00   17.98015785   0.07541772
4752.00   17.83449745   0.07515254
4754.00   17.89819908   0.07518451
4756.00   17.98481941   0.07534831
4758.00   17.95351982   0.07518323
4760.00   17.94624901   0.07514863
4762.00   18.10073280   0.07537843
4764.00   18.16510773   0.07555830
4766.00   18.06631851   0.07528126
4768.00   18.13259888   0.07541624
4770.00   18.22111893   0.07554785
4772.00   18.20762634   0.07553129
4774.00   18.35858154   0.07565087
4776.00   18.38060951   0.07571433
4778.00   18.43649292   0.07577351
4780.00   18.25372696   0.07544586
4782.00   18.32392120   0.07551398
4784.00   18.11583710   0.07491325
4786.00   17.96171570   0.07455164
4788.00   17.80346107   0.07419199
4790.00   17.58433723   0.07373615
4792.00   17.36036301   0.07334697
4794.00   17.24577713   0.07306091
4796.00   16.93101311   0.07234358
4798.00   16.83380890   0.07206761
4800.00   16.52056694   0.07139592
4802.00   16.24696350   0.07080273
4804.00   15.94048214   0.07009771
4806.00   15.45790482   0.06902916
4808.00   15.40715408   0.06889509
4810.00   15.09799862   0.06831160
4812.00   14.82091808   0.06754518
4814.00   14.45270824   0.06693716
4816.00   14.39270973   0.06673124
4818.00   14.23787785   0.06632613
4820.00   14.00558472   0.06577649
4822.00   13.60488319   0.06488927
4824.00   13.49974155   0.06465004
4826.00   13.25781536   0.06411115
4828.00   13.13570118   0.06376784
4830.00   12.91738319   0.06323431
4832.00   12.72622204   0.06290365
4834.00   12.67405891   0.06269895
4836.00   12.59015465   0.06238372
4838.00   12.48016357   0.06226571
4840.00   12.46196938   0.06221832
4842.00   12.40986347   0.06198203
4844.00   12.12669945   0.06133306
4846.00   12.23842621   0.06146400
4848.00   11.97896481   0.06092455
4850.00   12.06427002   0.06113190
4852.00   12.19526863   0.06131236
4854.00   12.06122112   0.06096262
4856.00   12.12977791   0.06113965
4858.00   11.93904686   0.06068811
4860.00   12.15857887   0.06113214
4862.00   12.14379120   0.06112777
4864.00   12.16591454   0.06116970
4866.00   12.33341980   0.06138410
4868.00   12.38983345   0.06156221
4870.00   12.39734173   0.06152823
4872.00   12.51784420   0.06173142
4874.00   12.81697369   0.06233230
4876.00   12.89243126   0.06247291
4878.00   13.08663940   0.06280465
4880.00   13.16507912   0.06294061
4882.00   13.13506699   0.06286172
4884.00   13.14401245   0.06280989
4886.00   13.39099789   0.06319072
4888.00   13.55030537   0.06356655
4890.00   13.62184143   0.06376594
4892.00   13.58114147   0.06363289
4894.00   13.63108349   0.06372631
4896.00   13.72961521   0.06382804
4898.00   13.69924736   0.06381612
4900.00   13.74516106   0.06387506
4902.00   13.80123138   0.06397608
4904.00   13.94973087   0.06422081
4906.00   13.88183117   0.06406502
4908.00   13.93010044   0.06410025
4910.00   14.01122570   0.06427960
4912.00   13.98702049   0.06416216
4914.00   13.73281288   0.06375097
4916.00   13.90389442   0.06403483
4918.00   14.07389069   0.06428370
4920.00   14.09745407   0.06437853
4922.00   14.00216103   0.06416216
4924.00   14.04835224   0.06421523
4926.00   13.93097496   0.06386845
4928.00   13.99519539   0.06397437
4930.00   13.95750809   0.06387686
4932.00   13.95555592   0.06380288
4934.00   13.96801662   0.06386217
4936.00   14.01011753   0.06387960
4938.00   14.05647659   0.06396352
4940.00   14.00376320   0.06383941
4942.00   14.16348362   0.06407090
4944.00   13.98525906   0.06374044
4946.00   14.02188110   0.06379095
4948.00   14.02603149   0.06380045
4950.00   13.92494774   0.06368154
4952.00   13.92447376   0.06376341
4954.00   14.00545788   0.06386031
4956.00   13.98667622   0.06369332
4958.00   14.01534367   0.06369662
4960.00   14.07618999   0.06381822
4962.00   13.99748898   0.06373488
4964.00   14.01900291   0.06384443
4966.00   14.09391785   0.06400029
4968.00   14.07737827   0.06403100
4970.00   14.14232254   0.06421715
4972.00   14.26033306   0.06425469
4974.00   14.03582001   0.06700558
4976.00   14.12685966   0.06477800
4978.00   14.23897457   0.06484404
4980.00   14.33102512   0.06507175
4982.00   14.17876244   0.06493167
4984.00   14.30179310   0.06516296
4986.00   14.28615284   0.06506901
4988.00   14.39220810   0.06510044
4990.00   14.35945129   0.06495834
4992.00   14.45681572   0.06497617
4994.00   14.47152138   0.06489515
4996.00   14.50698662   0.06483509
4998.00   14.49243450   0.06474245
5000.00   14.33336735   0.06436130
5002.00   14.42574596   0.06453074
5004.00   14.44619465   0.06453173
5006.00   14.47266960   0.06455737
5008.00   14.60773849   0.06481040
5010.00   14.62297535   0.06498225
5012.00   14.56117439   0.06474523
5014.00   14.66464520   0.06506345
5016.00   14.81507015   0.06540763
5018.00   15.04131985   0.06588618
5020.00   14.87619877   0.06560154
5022.00   14.92485332   0.06566466
5024.00   14.95883560   0.06572898
5026.00   15.19385052   0.06658024
5028.00   15.19831944   0.06683595
5030.00   15.31661320   0.06648594
5032.00   15.41660976   0.06669332
5034.00   15.51053715   0.06683833
5036.00   15.53979588   0.06681699
5038.00   15.67846489   0.06716168
5040.00   15.71091747   0.06726208
5042.00   15.96021271   0.06772304
5044.00   16.00693703   0.06788106
5046.00   16.01064491   0.06796845
5048.00   16.16076851   0.06826646
5050.00   16.21754837   0.06846132
5052.00   16.32316399   0.06861926
5054.00   16.52244568   0.06903636
5056.00   16.44215393   0.06895574
5058.00   16.58889008   0.06920341
5060.00   16.62513542   0.06926763
5062.00   16.68260956   0.06947737
5064.00   16.79045105   0.06981640
5066.00   16.71870804   0.06971285
5068.00   16.85596275   0.07018047
5070.00   16.82152367   0.07009039
5072.00   16.96611595   0.07037388
5074.00   17.11070442   0.07062881
5076.00   17.07090759   0.07052618
5078.00   17.17513275   0.07095840
5080.00   17.29905701   0.07144657
5082.00   17.51457214   0.07219911
5084.00   17.50091743   0.07246722
5086.00   17.58138847   0.07269785
5088.00   17.43609238   0.07232894
5090.00   17.72733307   0.07248408
5092.00   17.74025917   0.07238394
5094.00   17.66734123   0.07215775
5096.00   17.90292168   0.07264572
5098.00   17.83337212   0.07263616
5100.00   17.98573303   0.07293929
5102.00   18.00931740   0.07297070
5104.00   17.92351341   0.07272145
5106.00   17.80612564   0.07259604
5108.00   17.82270432   0.07260355
5110.00   17.96793175   0.07291450
5112.00   17.80856133   0.07266577
5114.00   17.62314415   0.07236204
5116.00   17.71745682   0.07263323
5118.00   17.65060234   0.07262132
5120.00   17.53709412   0.07243074
5122.00   17.53266335   0.07238282
5124.00   17.45076180   0.07230167
5126.00   17.27680779   0.07200107
5128.00   17.32374382   0.07214713
5130.00   17.00255203   0.07158785
5132.00   17.18072128   0.07197755
5134.00   17.42136765   0.07256153
5136.00   17.12329292   0.07210680
5138.00   17.05958366   0.07204063
5140.00   17.03768730   0.07210174
5142.00   17.07731056   0.07217932
5144.00   16.82724762   0.07177355
5146.00   16.98282814   0.07220532
5148.00   16.92590904   0.07220083
5150.00   16.95578575   0.07235704
5152.00   17.08977890   0.07274570
5154.00   16.85002518   0.07242242
5156.00   17.00921822   0.07284068
5158.00   17.06953239   0.07294329
5160.00   17.08312225   0.07299058
5162.00   17.17221069   0.07314140
5164.00   17.20809746   0.07329101
5166.00   17.29993629   0.07347580
5168.00   17.45736122   0.07384764
5170.00   17.49456024   0.07396178
5172.00   17.48039818   0.07408117
5174.00   17.40900993   0.07413477
5176.00   17.55543709   0.07452495
5178.00   17.59669495   0.07468677
5180.00   17.78772736   0.07514161
5182.00   17.93063927   0.07552136
5184.00   17.85746384   0.07543737
5186.00   17.85700607   0.07543901
5188.00   17.73926735   0.07527033
5190.00   17.90565681   0.07562631
5192.00   17.78078651   0.07544462
5194.00   17.73499489   0.07550924
5196.00   17.78539085   0.07582133
5198.00   17.65165901   0.07579038
5200.00   17.56937790   0.07575046
5202.00   17.31724167   0.07534204
5204.00   17.18985939   0.07517094
5206.00   16.90636253   0.07464860
5208.00   16.83956528   0.07468484
5210.00   16.40979958   0.07395545
5212.00   16.21485138   0.07365832
5214.00   16.07559395   0.07350159
5216.00   15.65527916   0.07281954
5218.00   15.53779125   0.07264750
5220.00   15.26230526   0.07225489
5222.00   14.90250015   0.07149489
5224.00   14.80611897   0.07145352
5226.00   14.63746834   0.07107107
5228.00   14.25054932   0.07036977
5230.00   14.02657223   0.06997322
5232.00   13.90901184   0.06981102
5234.00   13.60434055   0.06926227
5236.00   13.54555988   0.06930656
5238.00   13.25785637   0.06879789
5240.00   13.13095951   0.06871209
5242.00   13.01726627   0.06852318
5244.00   12.87347317   0.06829452
5246.00   12.65862560   0.06787570
5248.00   12.54216385   0.06760501
5250.00   12.52831173   0.06770328
5252.00   12.22312260   0.06714707
5254.00   12.25813484   0.06737340
5256.00   12.00912189   0.06703892
5258.00   11.95569229   0.06709737
5260.00   11.98974609   0.06731049
5262.00   11.79576206   0.06699894
5264.00   11.94898510   0.06739122
5266.00   11.68024349   0.06694100
5268.00   11.81979561   0.06731454
5270.00   11.73578548   0.06725033
5272.00   11.68075562   0.06732189
5274.00   11.71663189   0.06755069
5276.00   11.79479313   0.06785385
5278.00   11.69714546   0.06784098
5280.00   11.72177505   0.06790692
5282.00   11.52718067   0.06754866
5284.00   11.69535637   0.06818973
5286.00   11.75796223   0.06838019
5288.00   11.76260376   0.06841357
5290.00   11.77202415   0.06854159
5292.00   11.96275902   0.06924514
5294.00   11.94865131   0.06940050
5296.00   11.87327480   0.06935788
5298.00   11.89609051   0.06961635
5300.00   11.90988159   0.06986978
5302.00   11.96558762   0.07028972
5304.00   11.88198948   0.07033616
5306.00   11.91372299   0.07047604
5308.00   12.05826950   0.07116011
5310.00   12.09563351   0.07148259
5312.00   12.22087002   0.07193545
5314.00   12.28280163   0.07230994
5316.00   12.31985188   0.07257781
5318.00   12.50051498   0.07299490
5320.00   12.39821148   0.07302672
5322.00   12.40729713   0.07328814
5324.00   12.63381767   0.07392050
5326.00   12.60912228   0.07411474
5328.00   12.57860374   0.07418575
5330.00   12.68495655   0.07468366
5332.00   12.80823612   0.07515962
5334.00   12.70205212   0.07518121
5336.00   12.86193848   0.07558417
5338.00   12.85950279   0.07586817
5340.00   12.96875191   0.07635296
5342.00   13.01771832   0.07928506
5344.00   12.93533516   0.07738698
5346.00   13.07980156   0.07701675
5348.00   13.05539131   0.07711021
5350.00   12.99802399   0.07703456
5352.00   13.19059944   0.07779464
5354.00   13.20206356   0.07815426
5356.00   13.26382923   0.07850721
5358.00   13.18752193   0.07854182
5360.00   13.27886105   0.07881813
5362.00   13.24668312   0.07881882
5364.00   13.42438316   0.07952195
5366.00   13.28129959   0.07937167
5368.00   13.17477226   0.07930742
5370.00   13.12972641   0.07940017
5372.00   13.12415314   0.07974725
5374.00   13.24956322   0.08033151
5376.00   13.06931877   0.08011849
5378.00   13.05516529   0.08033323
5380.00   12.97961330   0.04838374
5382.00   13.04236603   0.04878287
5384.00   12.97618103   0.04836607
5386.00   12.65636349   0.04297222
5388.00   12.74833584   0.04326046
5390.00   12.88024521   0.04802008
5392.00   12.56347179   0.04636958
5394.00   12.44334602   0.04425634
5396.00   12.52316952   0.04410550
5398.00   12.37228680   0.04368563
5400.00   12.00146389   0.04211463
5402.00   12.06485939   0.03940987
5404.00   12.14540672   0.03818116
5406.00   11.89356709   0.03805953
5408.00   11.66129684   0.03844318
5410.00   11.43036652   0.04276450
5412.00   11.12103271   0.04871141
5414.00   11.08664131   0.04712085
5416.00   11.15468311   0.03648293
5418.00   10.99599075   0.04276422
5420.00   10.84598541   0.04773103
5422.00   10.78010559   0.04364349
5424.00   10.77617168   0.03559477
5426.00   10.75843143   0.03397975
5428.00   10.64475632   0.03534163
5430.00   10.49786949   0.03416222
5432.00   10.33399582   0.03552848
5434.00   10.29198837   0.03696422
5436.00   10.32832336   0.03750541
5438.00   10.33615685   0.03619162
5440.00   10.25502300   0.03351385
5442.00   10.09883404   0.03378509
5444.00   9.94430351   0.03635362
5446.00   10.04624653   0.03560385
5448.00   10.09514999   0.03313604
5450.00   10.17155361   0.03358679
5452.00   10.26511478   0.03461988
5454.00   10.30545044   0.03382277
5456.00   10.60406494   0.04149874
5458.00   10.53210831   0.04385478
5460.00   10.41895866   0.03849917
5462.00   10.43461895   0.03486051
5464.00   10.45672226   0.03655673
5466.00   10.42327690   0.03924188
5468.00   10.48686504   0.03844773
5470.00   10.75660324   0.03280421
5472.00   10.82693481   0.03212634
5474.00   11.00662613   0.03592373
5476.00   11.13523102   0.03443957
5478.00   11.28238010   0.03438324
5480.00   11.43310928   0.04330577
5482.00   11.44405174   0.05150779
5484.00   11.63314247   0.03999693
5486.00   11.78698349   0.03665178
5488.00   12.05192089   0.03435474
5490.00   12.32941055   0.03389097
5492.00   12.49073982   0.03444666
5494.00   12.63541603   0.03693102
5496.00   12.92286873   0.04203497
5498.00   12.81341648   0.03743713
5500.00   13.03781128   0.03759018
5502.00   13.17877865   0.03628849
5504.00   13.28368092   0.03819608
5506.00   13.35920334   0.03801111
5508.00   13.38422394   0.03457341
5510.00   13.48582458   0.04039849
5512.00   13.97146702   0.04790839
5514.00   13.94869900   0.03987822
5516.00   13.94538498   0.03554804
5518.00   13.98460102   0.03890708
5520.00   14.12550449   0.04257724
5522.00   14.30220127   0.04080519
5524.00   14.20970535   0.03427351
5526.00   14.44024658   0.04188750
5528.00   14.65662384   0.04579960
5530.00   14.52560520   0.03948588
5532.00   14.48002911   0.03380173
5534.00   14.59171677   0.03459384
5536.00   14.56259155   0.03590315
5538.00   14.44930840   0.03838381
5540.00   14.56718922   0.04002991
5542.00   14.66653442   0.03780372
5544.00   14.55748081   0.03596456
5546.00   14.44748974   0.03530325
5548.00   14.38010693   0.03475194
5550.00   14.23488712   0.03395207
5552.00   14.16775227   0.03391754
5554.00   14.31243610   0.03647447
5556.00   14.24598408   0.03575813
5558.00   14.37349892   0.03883991
5560.00   14.37372494   0.04050447
5562.00   14.13600540   0.03829841
5564.00   14.00199986   0.03658907
5566.00   13.96102142   0.03698334
5568.00   13.92564964   0.03703970
5570.00   13.96227360   0.03450609
5572.00   13.98631477   0.03237361
5574.00   14.07372570   0.03624379
5576.00   14.20359898   0.04043427
5578.00   14.17126846   0.03768413
5580.00   13.88324738   0.03932236
5582.00   14.09557152   0.04017171
5584.00   14.08357048   0.03994963
5586.00   14.17268562   0.03682658
5588.00   14.37964630   0.03512722
5590.00   14.48356438   0.03730583
5592.00   14.40414619   0.03829257
5594.00   14.24982166   0.03534992
5596.00   14.27362347   0.03263891
5598.00   14.44182587   0.03866424
5600.00   14.52592468   0.03744700
5602.00   14.63658428   0.03819201
5604.00   14.85053444   0.04451706
5606.00   14.91130924   0.03997889
5608.00   14.75403976   0.03906337
5610.00   14.59554768   0.03447592
5612.00   14.71323586   0.03505075
5614.00   14.84188366   0.03949208
5616.00   14.71697521   0.04113721
5618.00   14.53067780   0.03734522
5620.00   14.72021961   0.03228154
5622.00   14.66192055   0.03281116
5624.00   14.66133404   0.03438587
5626.00   14.86475945   0.04219028
5628.00   14.82734108   0.03980970
5630.00   14.59926987   0.03199949
5632.00   14.54351902   0.03311983
5634.00   14.61154175   0.03111151
5636.00   14.74101925   0.03216753
5638.00   14.89198112   0.03942835
5640.00   14.65024948   0.04020612
5642.00   14.60696030   0.03449774
5644.00   14.77686310   0.02972854
5646.00   14.77497196   0.03368606
5648.00   14.93241978   0.03953414
5650.00   14.66552353   0.03385957
5652.00   14.60358047   0.03080597
5654.00   14.64075661   0.03204490
5656.00   14.59626198   0.03318638
5658.00   14.61230278   0.03250289
5660.00   14.81712151   0.03252234
5662.00   14.72356415   0.03491408
5664.00   14.43256092   0.03199582
5666.00   14.40157127   0.02999725
5668.00   14.40332603   0.03274252
5670.00   14.46639061   0.03709937
5672.00   14.55170822   0.03829841
5674.00   14.50708866   0.03548688
5676.00   14.47422791   0.03461105
5678.00   14.20422649   0.02966877
5680.00   14.41454983   0.03215910
5682.00   14.49529457   0.04014793
5684.00   14.22883129   0.04207182
5686.00   13.95252991   0.03699722
5688.00   13.97852802   0.03464690
5690.00   13.92148399   0.03462244
5692.00   13.94947529   0.03088217
5694.00   13.85223484   0.02983337
5696.00   13.65738106   0.02933789
5698.00   13.50667000   0.02895106
5700.00   13.50324249   0.02920727
5702.00   13.56424427   0.02942735
5704.00   13.34839916   0.03097343
5706.00   13.27934170   0.03293190
5708.00   13.29095459   0.03239049
5710.00   13.20768356   0.03308609
5712.00   13.00702190   0.03442958
5714.00   12.77235699   0.03438060
5716.00   12.58028126   0.03462341
5718.00   12.61872101   0.03838300
5720.00   12.68644333   0.03382818
5722.00   12.67411613   0.02870421
5724.00   12.56775284   0.02758423
5726.00   12.43369579   0.02817491
5728.00   12.35060787   0.02715718
5730.00   12.33730984   0.02665301
5732.00   12.30783653   0.02729393
5734.00   12.33269405   0.03031403
5736.00   12.41192245   0.03186676
5738.00   12.38768101   0.03196333
5740.00   12.24905968   0.03047627
5742.00   12.11661243   0.02755767
5744.00   12.01516056   0.02615983
5746.00   11.77390575   0.02958219
5748.00   11.81331348   0.02932176
5750.00   11.87642956   0.02710108
5752.00   11.85942364   0.02887912
5754.00   11.80488682   0.03081206
5756.00   11.71833038   0.02917967
5758.00   11.47648907   0.03448642
5760.00   11.41953182   0.03473574
5762.00   11.71395779   0.03153425
5764.00   11.76676846   0.02762037
5766.00   11.53287601   0.02817597
5768.00   11.40415573   0.03200001
5770.00   11.61565304   0.03380288
5772.00   11.78739262   0.03355401
5774.00   11.68891716   0.03554610
5776.00   11.60505390   0.03192005
5778.00   11.48724556   0.03077244
5780.00   11.50162601   0.02963227
5782.00   11.68539238   0.02988609
5784.00   11.80211163   0.03537824
5786.00   11.67271900   0.02945911
5788.00   11.38044453   0.02925944
5790.00   11.78888416   0.03305975
5792.00   11.95853806   0.03299506
5794.00   11.75722980   0.03381056
5796.00   11.57405567   0.03834916
5798.00   11.61094856   0.04013779
5800.00   12.03965092   0.03529967
5802.00   11.93212032   0.03900516
5804.00   11.91956425   0.03889604
5806.00   12.04039478   0.03359368
5808.00   12.11031342   0.03144620
5810.00   12.10525894   0.03575721
5812.00   12.20352840   0.03601389
5814.00   12.26034927   0.02868161
5816.00   12.37682915   0.02789378
5818.00   12.25360489   0.02745590
5820.00   12.24626637   0.03134181
5822.00   12.30457878   0.03320026
5824.00   12.12915134   0.03574997
5826.00   11.80311012   0.04961367
5828.00   11.93399143   0.05070788
5830.00   12.45889282   0.03621740
5832.00   12.48763847   0.03141660
5834.00   12.32101536   0.03346680
5836.00   12.34812927   0.03158523
5838.00   12.52579212   0.02855046
5840.00   12.59593773   0.03311719
5842.00   12.71286201   0.03440798
5844.00   12.57721329   0.03195307
5846.00   12.63166809   0.02948950
5848.00   12.67548847   0.02809091
5850.00   12.70766068   0.02897742
5852.00   12.80703831   0.03071492
5854.00   12.59831047   0.02816423
5856.00   12.39563560   0.03279632
5858.00   12.25668240   0.03564604
5860.00   12.40347195   0.03358582
5862.00   12.66948891   0.03394117
5864.00   12.77194309   0.03589726
5866.00   12.71635628   0.03285992
5868.00   12.87558651   0.03025065
5870.00   12.77408314   0.03242055
5872.00   12.82430077   0.02793038
5874.00   12.96492481   0.02712014
5876.00   12.96303368   0.03276445
5878.00   12.87632370   0.03709675
5880.00   12.95394421   0.03542339
5882.00   13.05090904   0.03160301
5884.00   12.99151039   0.02901536
5886.00   12.70389366   0.02864651
5888.00   12.44777870   0.03236728
5890.00   12.49932003   0.03464840
5892.00   12.83821106   0.03634246
5894.00   13.05023956   0.04057847
5896.00   12.57513332   0.03476964
5898.00   12.84568787   0.02947020
5900.00   13.06602001   0.02729173
5902.00   13.22663307   0.02738324
5904.00   13.40952969   0.02736510
5906.00   13.49821854   0.02789036
5908.00   13.30929184   0.03161442
5910.00   13.08454895   0.03670608
5912.00   13.40551662   0.03027468
5914.00   13.32774353   0.03012536
5916.00   13.18523598   0.03080305
5918.00   13.14731121   0.02900134
5920.00   13.17561150   0.02727281
5922.00   13.31280422   0.02715983
5924.00   13.32534695   0.02609075
5926.00   13.48367023   0.02817876
5928.00   13.53298950   0.02968265
5930.00   13.47170258   0.02868398
5932.00   13.38668823   0.03033534
5934.00   13.37635708   0.03454400
5936.00   13.48620319   0.03191446
5938.00   13.54411602   0.02747231
5940.00   13.35181904   0.02641547
5942.00   13.23335171   0.02694517
5944.00   13.27322197   0.02645459
5946.00   13.27999687   0.02649772
5948.00   13.19137478   0.02883244
5950.00   13.29376793   0.02997064
5952.00   13.16013050   0.02580133
5954.00   13.17202282   0.02644270
5956.00   13.26246452   0.02998739
5958.00   13.26798439   0.03089947
5960.00   13.13519287   0.02892849
5962.00   12.98110008   0.02753019
5964.00   12.94871140   0.02764693
5966.00   12.78500462   0.02834453
5968.00   12.83147907   0.02873919
5970.00   12.72182941   0.02780475
5972.00   12.65223503   0.02965904
5974.00   12.62047863   0.03089505
5976.00   12.37709141   0.02700562
5978.00   12.15521622   0.02889108
5980.00   12.24574089   0.03055432
5982.00   12.18429089   0.02896806
5984.00   11.98999882   0.02565141
5986.00   11.77233791   0.02482444
5988.00   11.51477909   0.02762851
5990.00   11.20291233   0.02944802
5992.00   11.15570831   0.02515320
5994.00   10.96775532   0.02379037
5996.00   10.86878872   0.02539833
5998.00   10.78532505   0.02793436
6000.00   10.70812225   0.02935364
6002.00   10.55447865   0.03075640
6004.00   10.18049717   0.03280592
6006.00   9.71571445   0.02721739
6008.00   9.60461235   0.02449186
6010.00   9.42116547   0.02435028
6012.00   9.34575653   0.02728910
6014.00   9.26979637   0.03109005
6016.00   8.97669029   0.03186433
6018.00   8.56557178   0.02707836
6020.00   8.49135876   0.02308459
6022.00   8.43727779   0.02487664
6024.00   8.34963036   0.02870900
6026.00   8.09359932   0.02930195
6028.00   7.71841908   0.02573277
6030.00   7.44608784   0.02147020
6032.00   7.39991045   0.02227882
6034.00   7.14940453   0.02346809
6036.00   7.00846148   0.02554714
6038.00   6.81289959   0.02257516
6040.00   6.60576773   0.01980576
6042.00   6.51705313   0.02072003
6044.00   6.53340578   0.02223913
6046.00   6.42395735   0.02245734
6048.00   6.09712362   0.02463312
6050.00   5.82342434   0.02321085
6052.00   5.82423973   0.02179237
6054.00   5.77059221   0.02219778
6056.00   5.60416985   0.02193936
6058.00   5.53698206   0.01973207
6060.00   5.51952410   0.02047510
6062.00   5.37060022   0.01809664
6064.00   5.32739782   0.01801430
6066.00   5.23544216   0.01877010
6068.00   5.08937550   0.01797969
6070.00   4.97243071   0.01703277
6072.00   4.91379786   0.01819219
6074.00   4.82667828   0.01804506
6076.00   4.75357819   0.01780136
6078.00   4.71326923   0.01738670
6080.00   4.68553495   0.01788589
6082.00   4.68479109   0.01832017
6084.00   4.68137503   0.01774256
6086.00   4.61486292   0.01689487
6088.00   4.50310993   0.01780358
6090.00   4.42547560   0.01717223
6092.00   4.36403084   0.01704536
6094.00   4.38153076   0.01736128
6096.00   4.43321800   0.01731158
6098.00   4.40427065   0.01700364
6100.00   4.27249718   0.01716173
6102.00   4.24812555   0.01679664
6104.00   4.25418329   0.01557751
6106.00   4.25766706   0.01595926
6108.00   4.24543381   0.01699926
6110.00   4.22650099   0.01697392
6112.00   4.19653749   0.01643197
6114.00   4.16131020   0.01807907
6116.00   4.23893166   0.02200697
6118.00   4.37936115   0.02002984
6120.00   4.40270281   0.01756225
6122.00   4.43577528   0.01757264
6124.00   4.43398237   0.01735275
6126.00   4.41812372   0.01659756
6128.00   4.58056879   0.01970023
6130.00   4.64569044   0.01974308
6132.00   4.58600664   0.01718983
6134.00   4.60878181   0.01750526
6136.00   4.60158777   0.01837269
6138.00   4.59113598   0.02032468
6140.00   4.69159651   0.02254818
6142.00   4.86886168   0.02076888
6144.00   4.98404217   0.02188477
6146.00   5.08287477   0.02327319
6148.00   5.03430128   0.01967123
6150.00   5.02359295   0.01687744
6152.00   5.13991785   0.01744104
6154.00   5.30138826   0.01763954
6156.00   5.42354107   0.01831176
6158.00   5.43127537   0.01970241
6160.00   5.46169519   0.02140583
6162.00   5.57775354   0.01908150
6164.00   5.72298861   0.01748094
6166.00   5.84956026   0.01807050
6168.00   5.93830919   0.01804569
6170.00   5.96310329   0.02028479
6172.00   6.12752771   0.02261111
6174.00   6.35847473   0.02078325
6176.00   6.52644825   0.01802076
6178.00   6.66283941   0.01841622
6180.00   6.83067703   0.02204389
6182.00   7.00965500   0.02451296
6184.00   7.11475611   0.02171120
6186.00   7.21276426   0.02195914
6188.00   7.35970497   0.02162769
6190.00   7.45847416   0.02126504
6192.00   7.53341103   0.02154538
6194.00   7.64193964   0.02125313
6196.00   7.81649637   0.02012881
6198.00   8.11144352   0.02384073
6200.00   8.33694363   0.02924747
6202.00   8.30805397   0.02653824
6204.00   8.41250038   0.02209513
6206.00   8.59952545   0.02059996
6208.00   8.70463657   0.02195428
6210.00   8.80624866   0.02330854
6212.00   9.02765656   0.02214479
6214.00   9.13744259   0.02328874
6216.00   9.25493145   0.02326939
6218.00   9.28469563   0.02231099
6220.00   9.36064625   0.02262263
6222.00   9.48996162   0.02329558
6224.00   9.45357800   0.02137928
6226.00   9.50381756   0.02317893
6228.00   9.62539101   0.02478518
6230.00   9.81278038   0.02436866
6232.00   9.89061546   0.02262124
6234.00   9.94025135   0.02303425
6236.00   10.04743862   0.02548211
6238.00   10.06737518   0.02536238
6240.00   10.06257439   0.02515125
6242.00   10.14036179   0.02542965
6244.00   10.26675987   0.02467539
6246.00   10.41015720   0.02316114
6248.00   10.57824135   0.02321495
6250.00   10.76145935   0.02448681
6252.00   10.87332726   0.02305680
6254.00   10.78090477   0.02498924
6256.00   10.94163132   0.02252309
6258.00   11.15374184   0.02261703
6260.00   11.20210075   0.02463863
6262.00   11.25941563   0.02473104
6264.00   11.50783825   0.02319166
6266.00   11.62335873   0.02572409
6268.00   11.45501328   0.02704872
6270.00   11.48722458   0.02650720
6272.00   11.69512463   0.02461904
6274.00   11.76371861   0.02465996
6276.00   11.73459339   0.02593844
6278.00   11.84101200   0.02755069
6280.00   11.88589859   0.03352056
6282.00   11.89396763   0.02792156
6284.00   11.68685913   0.03192615
6286.00   11.82677555   0.03127299
6288.00   11.99626446   0.02907441
6290.00   11.95077610   0.02767630
6292.00   11.95531845   0.02411333
6294.00   12.18805408   0.02784937
6296.00   12.38958168   0.02758053
6298.00   12.25936508   0.03253603
6300.00   12.10575867   0.03355920
6302.00   12.18784428   0.02929153
6304.00   12.38065052   0.02573898
6306.00   12.37725639   0.02832142
6308.00   12.27106571   0.02611353
6310.00   12.40657711   0.02701814
6312.00   12.33108807   0.02481879
6314.00   12.08752155   0.02490909
6316.00   12.13822937   0.02504216
6318.00   12.46757984   0.02524910
6320.00   12.45900249   0.03043247
6322.00   12.10512447   0.03361612
6324.00   12.55058098   0.02792097
6326.00   12.74986172   0.02746225
6328.00   12.45209885   0.02817671
6330.00   12.14585209   0.03122903
6332.00   12.18671799   0.03333098
6334.00   12.29260540   0.02595604
6336.00   12.31603718   0.02992665
6338.00   12.48256779   0.03002580
6340.00   12.28805447   0.02819704
6342.00   12.19436455   0.02736459
6344.00   12.33852673   0.02604096
6346.00   12.43150234   0.02344554
6348.00   12.29341698   0.02475584
6350.00   12.12156296   0.02700339
6352.00   12.42350578   0.02947157
6354.00   12.61599922   0.02731757
6356.00   12.46976376   0.02584113
6358.00   12.31320763   0.02660603
6360.00   12.43674469   0.02791573
6362.00   12.52765942   0.03096704
6364.00   12.34062862   0.02495546
6366.00   12.29671288   0.02390995
6368.00   12.25217915   0.02583847
6370.00   12.24929237   0.02860726
6372.00   12.31359673   0.02795107
6374.00   12.31567192   0.02436119
6376.00   12.08507729   0.02958242
6378.00   12.03176975   0.03168249
6380.00   12.19798088   0.02749672
6382.00   12.31711769   0.02446426
6384.00   12.23304367   0.02531805
6386.00   12.10516548   0.02583045
6388.00   12.13138580   0.02375607
6390.00   12.13309193   0.02528432
6392.00   12.24758625   0.02516957
6394.00   12.28116608   0.02643850
6396.00   12.14176559   0.02686262
6398.00   12.14260769   0.02858907
6400.00   12.22695255   0.02931342
6402.00   12.08007240   0.02517943
6404.00   12.10465813   0.02388900
6406.00   12.14009285   0.02416567
6408.00   11.92194080   0.02296954
6410.00   11.83227730   0.02234507
6412.00   11.89195919   0.02215596
6414.00   11.92006397   0.02286048
6416.00   11.84499550   0.02599750
6418.00   11.71035385   0.02942232
6420.00   11.82727146   0.02647956
6422.00   11.88165855   0.02573009
6424.00   11.85234165   0.02624740
6426.00   11.82075977   0.02586426
6428.00   11.81955433   0.02458062
6430.00   11.75255775   0.02462358
6432.00   11.42659855   0.02831134
6434.00   11.56807232   0.02615983
6436.00   11.58655643   0.02380709
6438.00   11.45399284   0.02609586
6440.00   11.36295128   0.02851482
6442.00   11.38251019   0.02658902
6444.00   11.38524532   0.02240694
6446.00   11.47295952   0.02211412
6448.00   11.35814095   0.02654656
6450.00   11.19536972   0.02972949
6452.00   11.14259815   0.02819226
6454.00   11.17011833   0.02410832
6456.00   11.21261597   0.02347000
6458.00   11.31366539   0.02708342
6460.00   11.25780582   0.02557255
6462.00   11.12454700   0.02780264
6464.00   11.08513451   0.02651164
6466.00   11.06917381   0.02311986
6468.00   11.08464432   0.02262571
6470.00   11.13634872   0.02541593
6472.00   11.04763985   0.02558544
6474.00   10.95065784   0.02511191
6476.00   10.77952671   0.02423194
6478.00   10.70118237   0.02190441
6480.00   10.77846622   0.02258734
6482.00   10.86404228   0.02583275
6484.00   10.80099583   0.02635846
6486.00   10.69286442   0.02204232
6488.00   10.67984009   0.02255563
6490.00   10.71455002   0.02450115
6492.00   10.69349670   0.02513648
6494.00   10.64108562   0.02390586
6496.00   10.61731625   0.02244592
6498.00   10.63459015   0.02307656
6500.00   10.66101074   0.02521879
6502.00   10.63776970   0.02316224
6504.00   10.53897285   0.02119092
6506.00   10.44911289   0.02048952
6508.00   10.48779202   0.02146371
6510.00   10.54457188   0.02275009
6512.00   10.40845776   0.02369167
6514.00   10.24673080   0.02730308
6516.00   10.23695660   0.02748390
6518.00   10.19883347   0.02311676
6520.00   10.24081230   0.02219361
6522.00   10.25658226   0.02233073
6524.00   10.18869591   0.02137779
6526.00   10.16667271   0.02401166
6528.00   10.17453861   0.02446190
6530.00   10.11647701   0.02315354
6532.00   10.07438564   0.02364143
6534.00   10.04185486   0.02232750
6536.00   10.06489277   0.02257936
6538.00   10.14621639   0.02699384
6540.00   10.16609478   0.02991637
6542.00   9.97040749   0.02485731
6544.00   9.96401978   0.02278727
6546.00   9.95622349   0.02166402
6548.00   9.93963814   0.02277224
6550.00   9.86488819   0.02371104
6552.00   9.73735046   0.02320803
6554.00   9.70178127   0.02389361
6556.00   9.81635189   0.02163094
6558.00   9.81825256   0.02347055
6560.00   9.74396420   0.02267709
6562.00   9.69436932   0.02139212
6564.00   9.69289494   0.02086979
6566.00   9.68847084   0.02044640
6568.00   9.64723492   0.02096572
6570.00   9.58346367   0.02079912
6572.00   9.48947048   0.02286269
6574.00   9.49615574   0.02116206
6576.00   9.55225658   0.01966841
6578.00   9.64790916   0.02209359
6580.00   9.78683186   0.02625238
6582.00   9.82202625   0.02881636
6584.00   9.52555943   0.02158967
6586.00   9.38667107   0.02257722
6588.00   9.38929558   0.02243065
6590.00   9.54202461   0.02210625
6592.00   9.62459278   0.02221767
6594.00   9.47983456   0.02115468
6596.00   9.46374130   0.02304322
6598.00   9.29180241   0.02170542
6600.00   9.22312546   0.02202107
6602.00   9.23238468   0.02315824
6604.00   9.23273849   0.02312034
6606.00   9.26959133   0.02255380
6608.00   9.37357426   0.02290852
6610.00   9.24535942   0.02108702
6612.00   9.11897755   0.01997832
6614.00   9.10021305   0.02071930
6616.00   9.23884678   0.02380446
6618.00   9.28015614   0.02351369
6620.00   9.14860916   0.02090632
6622.00   9.07428360   0.02261537
6624.00   9.08420372   0.01972043
6626.00   9.08055687   0.01921895
6628.00   9.02142811   0.01901395
6630.00   9.05395699   0.01975120
6632.00   9.11632347   0.02135409
6634.00   9.09652328   0.02282707
6636.00   9.02722073   0.02329060
6638.00   8.99944401   0.02259899
6640.00   8.93182278   0.02103661
6642.00   8.81279182   0.02077754
6644.00   8.80209732   0.01997999
6646.00   8.86183548   0.01874626
6648.00   8.88721466   0.01938674
6650.00   8.88114452   0.02205711
6652.00   8.76189613   0.02130706
6654.00   8.71173573   0.02382420
6656.00   8.76526833   0.02181493
6658.00   8.79024124   0.01976129
6660.00   8.76478386   0.01935132
6662.00   8.74512291   0.01953468
6664.00   8.72670460   0.02178466
6666.00   8.71525383   0.01994567
6668.00   8.72954369   0.01851804
6670.00   8.66240406   0.01855771
6672.00   8.64779091   0.01878351
6674.00   8.67597008   0.01851962
6676.00   8.66545582   0.01870195
6678.00   8.68483925   0.02010761
6680.00   8.58744049   0.01918805
6682.00   8.50447941   0.01919438
6684.00   8.46791267   0.01994654
6686.00   8.46083164   0.02092456
6688.00   8.48811626   0.02118552
6690.00   8.51974010   0.02029253
6692.00   8.43097591   0.01942013
6694.00   8.33459854   0.02058507
6696.00   8.42823219   0.02327380
6698.00   8.39387226   0.02218564
6700.00   8.30084896   0.01961016
6702.00   8.26451302   0.01859686
6704.00   8.26241207   0.01866016
6706.00   8.28571320   0.01880206
6708.00   8.26113415   0.01958154
6710.00   8.17229652   0.01892763
6712.00   8.10237789   0.01810618
6714.00   8.08803749   0.01743460
6716.00   8.09865379   0.01818585
6718.00   8.06415558   0.02151913
6720.00   7.92819023   0.02496028
6722.00   7.90236044   0.02175816
6724.00   7.96084642   0.01959625
6726.00   8.00050354   0.01940934
6728.00   8.00706196   0.01883226
6730.00   8.01911449   0.01766616
6732.00   8.04077625   0.01816743
6734.00   8.01039314   0.01784893
6736.00   7.95066118   0.01762845
6738.00   7.94560719   0.01925946
6740.00   7.92354536   0.01991316
6742.00   7.88495874   0.01937919
6744.00   7.86794138   0.01917900
6746.00   7.86599016   0.01973722
6748.00   7.85092306   0.01877209
6750.00   7.85779524   0.02042365
6752.00   7.88510609   0.01976399
6754.00   7.92977619   0.02090602
6756.00   7.94398117   0.02306774
6758.00   7.92040968   0.02240811
6760.00   7.91753864   0.01818195
6762.00   7.86038113   0.01861417
6764.00   7.82039690   0.02035782
6766.00   7.85706663   0.01914593
6768.00   7.91259098   0.01922181
6770.00   7.90204096   0.02119414
6772.00   7.82531691   0.02156297
6774.00   7.77970171   0.01970662
6776.00   7.76795197   0.02382011
6778.00   7.75485992   0.02178304
6780.00   7.80480337   0.01846225
6782.00   7.81223202   0.01810375
6784.00   7.76786852   0.02016868
6786.00   7.75064898   0.02089616
6788.00   7.74991655   0.01902828
6790.00   7.70024395   0.02072496
6792.00   7.63228655   0.02095581
6794.00   7.61997700   0.02103313
6796.00   7.63464594   0.02171066
6798.00   7.66567945   0.02298040
6800.00   7.74377203   0.02328659
6802.00   7.84623480   0.01973304
6804.00   7.75429440   0.02031664
6806.00   7.75780058   0.01883612
6808.00   7.69530487   0.01968519
6810.00   7.68914270   0.02030336
6812.00   7.73300600   0.01895561
6814.00   7.66494656   0.01825520
6816.00   7.60493279   0.02017119
6818.00   7.65470982   0.01999823
6820.00   7.51315928   0.02425178
6822.00   7.59983444   0.02271568
6824.00   7.62918568   0.01981451
6826.00   7.53125095   0.01974581
6828.00   7.65959692   0.01793849
6830.00   7.66252041   0.01835425
6832.00   7.63515520   0.01866675
6834.00   7.58612919   0.01775293
6836.00   7.53631163   0.01908188
6838.00   7.51528549   0.01947348
6840.00   7.54194450   0.01744931
6842.00   7.59986877   0.01709040
6844.00   7.62690353   0.01756937
6846.00   7.44739485   0.01973689
6848.00   7.37961531   0.02066148
6850.00   7.41962099   0.01991110
6852.00   7.48351479   0.01836401
6854.00   7.47592974   0.01811996
6856.00   7.36863565   0.01983640
6858.00   7.39508724   0.01751120
6860.00   7.25591040   0.02309556
6862.00   7.25887156   0.02335133
6864.00   7.28880692   0.02218545
6866.00   7.24824858   0.02173605
6868.00   7.19307947   0.02099266
6870.00   7.21892023   0.02009930
6872.00   7.25693703   0.02018330
6874.00   7.24560738   0.01897052
6876.00   7.24076509   0.02015790
6878.00   7.15791130   0.02193802
6880.00   7.06394243   0.02241615
6882.00   7.05779457   0.02186463
6884.00   7.06507158   0.02187066
6886.00   7.20460320   0.02285462
6888.00   7.08305264   0.02018869
6890.00   7.03900719   0.01789293
6892.00   7.14586163   0.01824793
6894.00   7.19479418   0.02013736
6896.00   7.08028746   0.02094038
6898.00   7.08619928   0.01891110
6900.00   7.08496666   0.01639380
6902.00   7.14580107   0.02133904
6904.00   7.09800529   0.02351075
6906.00   6.97441673   0.02096611
6908.00   6.92723846   0.01700077
6910.00   6.98614979   0.01664293
6912.00   6.93912172   0.01677359
6914.00   6.99632454   0.01742633
6916.00   7.00245428   0.01743292
6918.00   7.02910137   0.01684546
6920.00   7.01653957   0.01748847
6922.00   6.87540245   0.01977863
6924.00   6.68317127   0.02154816
6926.00   6.74910688   0.02042588
6928.00   6.99024677   0.02120062
6930.00   7.06526661   0.02136348
6932.00   6.97956657   0.01864904
6934.00   6.89276743   0.01671853
6936.00   6.88982487   0.01782955
6938.00   6.92035818   0.01812510
6940.00   6.97480917   0.01841556
6942.00   6.92832708   0.01955820
6944.00   6.89610577   0.01800011
6946.00   6.83784389   0.01681680
6948.00   6.83978319   0.01661137
6950.00   6.88654184   0.01635426
6952.00   6.82968426   0.01663009
6954.00   6.87745953   0.01803062
6956.00   6.93239546   0.01945210
6958.00   6.92242956   0.01911343
6960.00   6.86430025   0.01747031
6962.00   6.84131479   0.01627163
6964.00   6.88351679   0.01645455
6966.00   6.91367531   0.01666955
6968.00   6.87654781   0.01613319
6970.00   6.85896873   0.01654932
6972.00   6.88510799   0.01791825
6974.00   6.90159130   0.01841912
6976.00   6.86653233   0.01848760
6978.00   6.78647137   0.01910629
6980.00   6.71534204   0.01910393
6982.00   6.79959202   0.01632536
6984.00   6.69005871   0.01635913
6986.00   6.72369337   0.01777021
6988.00   6.82470369   0.01905181
6990.00   6.83135271   0.01845769
6992.00   6.72938919   0.01627134
6994.00   6.64843702   0.01669750
6996.00   6.66333628   0.01616851
6998.00   6.67392206   0.01626158
7000.00   6.71825695   0.01633850
7002.00   6.73920584   0.01672342
7004.00   6.69236231   0.01674387
7006.00   6.63847303   0.01590281
7008.00   6.71028614   0.01619201
7010.00   6.81703234   0.01702902
7012.00   6.72748470   0.01656633
7014.00   6.62058735   0.01703264
7016.00   6.60436583   0.01732771
7018.00   6.61890602   0.01657275
7020.00   6.58113289   0.01595689
7022.00   6.59485340   0.01698702
7024.00   6.66373777   0.01893956
7026.00   6.63536978   0.01762897
7028.00   6.66306067   0.01808524
7030.00   6.62301064   0.01883542
7032.00   6.56780005   0.01923808
7034.00   6.70792627   0.02095252
7036.00   6.74971056   0.01983558
7038.00   6.66046143   0.01709190
7040.00   6.62622118   0.01818535
7042.00   6.60222483   0.01846386
7044.00   6.62296772   0.01801090
7046.00   6.66136789   0.01756090
7048.00   6.64299345   0.01694925
7050.00   6.78854322   0.02294576
7052.00   6.59688425   0.02128186
7054.00   6.60926342   0.01995620
7056.00   6.63087988   0.01832155
7058.00   6.63178110   0.01787356
7060.00   6.66892385   0.01876443
7062.00   6.65862989   0.01744680
7064.00   6.58003569   0.01604069
7066.00   6.51824856   0.01828735
7068.00   6.56660938   0.01798368
7070.00   6.58470297   0.01638951
7072.00   6.61893272   0.01699202
7074.00   6.68499565   0.01875533
7076.00   6.59565115   0.01692543
7078.00   6.56672668   0.01574276
7080.00   6.59644175   0.01580930
7082.00   6.54721069   0.01608996
7084.00   6.57278252   0.01772140
7086.00   6.63598347   0.01849953
7088.00   6.61413717   0.01698753
7090.00   6.59781313   0.01643032
7092.00   6.62906599   0.01630295
7094.00   6.63101816   0.01588310
7096.00   6.62495184   0.01584794
7098.00   6.62881565   0.01607851
7100.00   6.59148741   0.01684029
7102.00   6.50540352   0.01821632
7104.00   6.51295996   0.01902700
7106.00   6.58289194   0.01697659
7108.00   6.64565182   0.01760833
7110.00   6.67163515   0.01809880
7112.00   6.65026522   0.01722245
7114.00   6.61569500   0.01620909
7116.00   6.60377169   0.01648342
7118.00   6.59106541   0.01645630
7120.00   6.62266159   0.01657612
7122.00   6.58049536   0.01548292
7124.00   6.60226154   0.01849356
7126.00   6.62919807   0.02173840
7128.00   6.62942123   0.02148061
7130.00   6.65593672   0.01817493
7132.00   6.64180136   0.01713901
7134.00   6.60925055   0.01747252
7136.00   6.62541056   0.01887596
7138.00   6.58478451   0.01795509
7140.00   6.58929539   0.01667327
7142.00   6.62505817   0.01697018
7144.00   6.52784443   0.01701399
7146.00   6.45038414   0.01643771
7148.00   6.45887852   0.01747110
7150.00   6.50722837   0.01658999
7152.00   6.48282814   0.01693488
7154.00   6.42340183   0.01857480
7156.00   6.42039824   0.01878779
7158.00   6.47532320   0.01635601
7160.00   6.50179338   0.01577540
7162.00   6.49265337   0.01569391
7164.00   6.44029951   0.01613914
7166.00   6.40620756   0.01655255
7168.00   6.50327778   0.01748030
7170.00   6.65358925   0.01904777
7172.00   6.61020374   0.01991551
7174.00   6.55290985   0.01811531
7176.00   6.46216297   0.02090302
7178.00   6.42323399   0.01996595
7180.00   6.42069626   0.01730972
7182.00   6.42089462   0.01640862
7184.00   6.39870977   0.01806667
7186.00   6.36144161   0.01999562
7188.00   6.47221422   0.01926813
7190.00   6.50580597   0.01770503
7192.00   6.46079922   0.01792015
7194.00   6.38588047   0.01836667
7196.00   6.40522051   0.01772246
7198.00   6.51997995   0.01676861
7200.00   6.50783920   0.01707347
7202.00   6.45341206   0.01695736
7204.00   6.41232252   0.01762515
7206.00   6.44441891   0.01859432
7208.00   6.41325521   0.01862691
7210.00   6.33592796   0.01790435
7212.00   6.32914066   0.01741832
7214.00   6.32414627   0.01697212
7216.00   6.38805580   0.01767001
7218.00   6.41142750   0.01643353
7220.00   6.41326904   0.01596428
7222.00   6.42184925   0.01729137
7224.00   6.40702391   0.01777022
7226.00   6.35041904   0.01581315
7228.00   6.35025549   0.01614995
7230.00   6.20982504   0.01762364
7232.00   6.13876581   0.01768576
7234.00   6.19772673   0.01829286
7236.00   6.31331682   0.01945817
7238.00   6.35688877   0.01949043
7240.00   6.26970625   0.01766760
7242.00   6.13923454   0.01712915
7244.00   6.04451752   0.01933689
7246.00   6.11005831   0.01919135
7248.00   6.16443062   0.01747204
7250.00   6.14343691   0.01623268
7252.00   6.12024689   0.01737059
7254.00   6.13982916   0.01979536
7256.00   6.03465891   0.01925574
7258.00   6.05417538   0.01692125
7260.00   6.07949448   0.01659883
7262.00   6.08109951   0.01654481
7264.00   6.07676935   0.01618771
7266.00   6.08527851   0.01686991
7268.00   6.10558987   0.01851990
7270.00   6.15787554   0.01666300
7272.00   6.08796358   0.01634561
7274.00   6.01516485   0.01691096
7276.00   5.96032476   0.01708540
7278.00   5.91957712   0.01678084
7280.00   5.88391447   0.01713524
7282.00   5.85448360   0.01844755
7284.00   5.90102434   0.01656594
7286.00   5.91206408   0.01579645
7288.00   5.89414597   0.01655656
7290.00   5.91029215   0.01680307
7292.00   5.95264292   0.01713783
7294.00   5.95401525   0.01780927
7296.00   5.88749123   0.01606285
7298.00   5.83823633   0.01545524
7300.00   5.79673338   0.01770493
7302.00   5.77084970   0.01983402
7304.00   5.76854420   0.01873986
7306.00   5.76697206   0.01591162
7308.00   5.76645947   0.01545921
7310.00   5.82201099   0.01631457
7312.00   5.79716158   0.01617517
7314.00   5.74208164   0.01658532
7316.00   5.69297600   0.01667552
7318.00   5.66845083   0.01620837
7320.00   5.65305185   0.01542814
7322.00   5.61494064   0.01527852
7324.00   5.55077267   0.01691834
7326.00   5.57737494   0.01614502
7328.00   5.60469532   0.01526466
7330.00   5.62211943   0.01536399
7332.00   5.62314367   0.01552530
7334.00   5.58119106   0.01525650
7336.00   5.50997114   0.01516662
7338.00   5.53232622   0.01521861
7340.00   5.51013279   0.01513527
7342.00   5.49245739   0.01565887
7344.00   5.48728609   0.01712343
7346.00   5.54371071   0.01808675
7348.00   5.58233976   0.01735585
7350.00   5.49547815   0.01542729
7352.00   5.51036119   0.01534021
7354.00   5.45333624   0.01740372
7356.00   5.38232803   0.01682193
7358.00   5.37980652   0.01524922
7360.00   5.38840151   0.01487656
7362.00   5.37787628   0.01575330
7364.00   5.41229963   0.01605620
7366.00   5.42337751   0.01519600
7368.00   5.29398918   0.01667442
7370.00   5.16768503   0.02155233
7372.00   5.16235733   0.02126352
7374.00   5.21015882   0.01676116
7376.00   5.22595739   0.01376149
7378.00   5.24059057   0.01474982
7380.00   5.20357132   0.01676359
7382.00   5.12046289   0.01657212
7384.00   5.07407904   0.01497243
7386.00   5.03813601   0.01414946
7388.00   5.01108503   0.01434701
7390.00   4.97795200   0.01441195
7392.00   4.88127518   0.01439669
7394.00   4.81761646   0.01426314
7396.00   4.85786772   0.01411335
7398.00   4.86065054   0.01497398
7400.00   4.80677700   0.01682206
7402.00   4.73325634   0.01735999
7404.00   4.68155575   0.01566684
7406.00   4.67075920   0.01477652
7408.00   4.66302109   0.01505951
7410.00   4.61456394   0.01419786
7412.00   4.56422997   0.01413007
7414.00   4.50845242   0.01515360
7416.00   4.44430876   0.01579121
7418.00   4.40767670   0.01492135
7420.00   4.44646835   0.01340291
7422.00   4.40804625   0.01468697
7424.00   4.36567354   0.01545442
7426.00   4.39529324   0.01435257
7428.00   4.43068552   0.01410057
7430.00   4.44440031   0.01539755
7432.00   4.45146608   0.01591776
7434.00   4.36894655   0.01552326
7436.00   4.29526186   0.01653870
7438.00   4.29164219   0.01701269
7440.00   4.33384705   0.01645722
7442.00   4.38024759   0.01478365
7444.00   4.39601231   0.01347760
7446.00   4.38633585   0.01415656
7448.00   4.41318560   0.01425410
7450.00   4.36572266   0.01494227
7452.00   4.36049414   0.01538731
7454.00   4.39201307   0.01482488
7456.00   4.39527321   0.01519253
7458.00   4.38420486   0.01595588
7460.00   4.42672968   0.01457254
7462.00   4.42480755   0.01486105
7464.00   4.36526823   0.01683752
7466.00   4.34007311   0.01629682
7468.00   4.37835836   0.01430908
7470.00   4.40374756   0.01381728
7472.00   4.37179661   0.01534275
7474.00   4.34292936   0.01582517
7476.00   4.34674501   0.01377660
7478.00   4.34457874   0.01372840
7480.00   4.37689352   0.01384789
7482.00   4.37774658   0.01360521
7484.00   4.32720709   0.01397191
7486.00   4.27895164   0.01537695
7488.00   4.29580307   0.01626713
7490.00   4.36449242   0.01387062
7492.00   4.36097431   0.01364348
7494.00   4.33242607   0.01368594
7496.00   4.34987783   0.01367519
7498.00   4.39063835   0.01384482
7500.00   4.38115454   0.01437502
7502.00   4.32814407   0.01509368
7504.00   4.42808008   0.01495178
7506.00   4.42175436   0.01444007
7508.00   4.39073181   0.01451070
7510.00   4.39535809   0.01419216
7512.00   4.40273476   0.01366991
7514.00   4.36780024   0.01372819
7516.00   4.34314680   0.01365820
7518.00   4.37819386   0.01487509
7520.00   4.41257906   0.01682498
7522.00   4.38180351   0.01593111
7524.00   4.34276199   0.01433295
7526.00   4.33640337   0.01405134
7528.00   4.35309029   0.01425613
7530.00   4.39849043   0.01419043
7532.00   4.43589163   0.01374310
7534.00   4.38126564   0.01439299
7536.00   4.36448383   0.01579660
7538.00   4.38518906   0.01532613
7540.00   4.40390158   0.01366271
7542.00   4.41435146   0.01389466
7544.00   4.41722822   0.01388088
7546.00   4.49009371   0.01418008
7548.00   4.52183294   0.01509065
7550.00   4.54824781   0.01525713
7552.00   4.55193901   0.01462909
7554.00   4.54487467   0.01407350
7556.00   4.56815910   0.01416926
7558.00   4.56017017   0.01413265
7560.00   4.57916355   0.01423956
7562.00   4.61474037   0.01434036
7564.00   4.64464760   0.01447649
7566.00   4.69337368   0.01526338
7568.00   4.71984196   0.01596388
7570.00   4.65525436   0.01522144
7572.00   4.66699743   0.01483883
7574.00   4.62806273   0.01544455
7576.00   4.66828442   0.01465175
7578.00   4.69454718   0.01475092
7580.00   4.70055914   0.01617776
7582.00   4.71750307   0.01677997
7584.00   4.71527767   0.01542463
7586.00   4.68351173   0.01688273
7588.00   4.67842960   0.01490984
7590.00   4.73630333   0.01573297
7592.00   4.80670643   0.01955679
7594.00   4.76860189   0.02325644
7596.00   4.68947029   0.02579896
7598.00   4.79735994   0.02908931
7600.00   4.65851736   0.03719117
7602.00   4.72166443   0.03699476
7604.00   4.87345648   0.03422059
7606.00   4.79051399   0.03236284
7608.00   4.66393089   0.03027268
7610.00   4.78824472   0.02656939
7612.00   4.90404129   0.02550379
7614.00   4.85310888   0.02261072
7616.00   4.92074680   0.01975494
7618.00   4.98540926   0.01774389
7620.00   4.94996023   0.02019440
7622.00   4.95088291   0.02677431
7624.00   5.04337406   0.03030716
7626.00   4.91104603   0.02140725
7628.00   4.98448753   0.02167867
7630.00   5.03353691   0.02156001
7632.00   4.94151640   0.02083722
7634.00   4.87598944   0.02034707
7636.00   4.90756512   0.02090446
7638.00   4.96456480   0.02231715
7640.00   5.08222008   0.02312030
7642.00   5.00669289   0.01941321
7644.00   4.98313618   0.01873192
7646.00   5.06006289   0.01925183
7648.00   5.13903570   0.01953212
7650.00   5.09365129   0.02029914
7652.00   4.94312763   0.02118300
7654.00   4.92561388   0.01754252
7656.00   5.02368736   0.01697876
7658.00   5.09452534   0.01706740
7660.00   5.11277962   0.01687591
7662.00   5.07049274   0.01654282
7664.00   5.00333118   0.01634755
7666.00   4.98005724   0.01616534
7668.00   5.02410507   0.01594632
7670.00   5.00459003   0.01634412
7672.00   5.00803280   0.01698092
7674.00   4.99660778   0.01680942
7676.00   5.01188612   0.01622687
7678.00   5.07849121   0.01626682
7680.00   5.12910843   0.01682644
7682.00   5.11967611   0.01590514
7684.00   5.15806770   0.01645398
7686.00   5.10549116   0.01605646
7688.00   5.09484291   0.01746260
7690.00   5.16880512   0.01871527
7692.00   5.24021149   0.01747982
7694.00   5.21433067   0.01539133
7696.00   5.07075357   0.01571628
7698.00   4.99872208   0.01677230
7700.00   5.04739428   0.01674725
7702.00   5.13912439   0.01685824
7704.00   5.17837048   0.01690362
7706.00   5.17248535   0.01623910
7708.00   5.21397305   0.01592043
7710.00   5.20178413   0.01585491
7712.00   5.17982244   0.01703982
7714.00   5.24269533   0.01892657
7716.00   5.24259520   0.01920273
7718.00   5.18147087   0.01750536
7720.00   5.16318464   0.01555055
7722.00   5.15287638   0.01544150
7724.00   5.22093868   0.01636337
7726.00   5.17237139   0.01797435
7728.00   5.20167255   0.01696005
7730.00   5.22841883   0.01638796
7732.00   5.22244740   0.01655224
7734.00   5.22991848   0.01545112
7736.00   5.17694283   0.01630884
7738.00   5.15487814   0.01816714
7740.00   5.22110033   0.01765400
7742.00   5.22539949   0.01796538
7744.00   5.24120569   0.01727710
7746.00   5.27994871   0.01569470
7748.00   5.26379347   0.01609074
7750.00   5.27538776   0.01659589
7752.00   5.25586176   0.01700408
7754.00   5.26458883   0.01642427
7756.00   5.28940535   0.01590535
7758.00   5.27598858   0.01646505
7760.00   5.26346540   0.01876244
7762.00   5.33459616   0.02076637
7764.00   5.39472580   0.01603566
7766.00   5.36897373   0.01587717
7768.00   5.35483503   0.01594905
7770.00   5.29733849   0.01584349
7772.00   5.25881815   0.01599197
7774.00   5.26700735   0.01643524
7776.00   5.26508617   0.01662153
7778.00   5.33912659   0.01602705
7780.00   5.29231787   0.01600072
7782.00   5.21475792   0.01587607
7784.00   5.21655464   0.01581457
7786.00   5.25234509   0.01586630
7788.00   5.28217888   0.01591254
7790.00   5.35248947   0.01611235
7792.00   5.32679272   0.01742275
7794.00   5.27489042   0.01894695
7796.00   5.32946920   0.01730234
7798.00   5.37698984   0.01592856
7800.00   5.37104130   0.01636505
7802.00   5.33776903   0.01747577
7804.00   5.28021812   0.01863715
7806.00   5.23544168   0.01692519
7808.00   5.27517223   0.01663545
7810.00   5.23858833   0.01717789
7812.00   5.22132492   0.01675720
7814.00   5.22474384   0.01594315
7816.00   5.23719072   0.01614839
7818.00   5.35669613   0.01650750
7820.00   5.24171495   0.01641029
7822.00   5.22662163   0.01759181
7824.00   5.31934452   0.01853988
7826.00   5.30930519   0.01816605
7828.00   5.20868111   0.01828472
7830.00   5.19062424   0.01931465
7832.00   5.23716021   0.01678345
7834.00   5.20793247   0.01665071
7836.00   5.18427134   0.01724910
7838.00   5.19490623   0.01849865
7840.00   5.21042538   0.01772806
7842.00   5.20896816   0.01601147
7844.00   5.20733404   0.01656515
7846.00   5.22589970   0.01668367
7848.00   5.15710592   0.01671627
7850.00   5.15220881   0.01733286
7852.00   5.20374441   0.01798707
7854.00   5.18297052   0.01809916
7856.00   5.08800936   0.01730939
7858.00   5.04211903   0.01623636
7860.00   5.03788996   0.01714947
7862.00   5.03382254   0.01750356
7864.00   5.01642656   0.01642864
7866.00   4.97303438   0.01720657
7868.00   4.90351391   0.01839229
7870.00   4.89781475   0.01795577
7872.00   5.01088190   0.01696400
7874.00   4.99285173   0.01864422
7876.00   4.93295860   0.01764618
7878.00   4.90438652   0.01776965
7880.00   4.88003063   0.01847905
7882.00   4.86663437   0.01788335
7884.00   4.87694550   0.01653563
7886.00   4.88925791   0.01701745
7888.00   4.87733841   0.01645754
7890.00   4.80784512   0.01619010
7892.00   4.78189182   0.01777464
7894.00   4.78034019   0.01842064
7896.00   4.75636578   0.01795079
7898.00   4.71938944   0.01792875
7900.00   4.73253155   0.01851948
7902.00   4.78989363   0.01645445
7904.00   4.78439379   0.01604328
7906.00   4.78051472   0.01651990
7908.00   4.76653528   0.01691167
7910.00   4.75584078   0.01689599
7912.00   4.75803137   0.01695141
7914.00   4.74039793   0.01754882
7916.00   4.72235918   0.01727780
7918.00   4.77322865   0.01684931
7920.00   4.75693464   0.01728253
7922.00   4.69448042   0.01743490
7924.00   4.67220783   0.01694122
7926.00   4.71399593   0.01650545
7928.00   4.74399376   0.01659201
7930.00   4.77486992   0.01745903
7932.00   4.75448561   0.01737245
7934.00   4.69372368   0.01714876
7936.00   4.61290216   0.01682983
7938.00   4.59633303   0.01680673
7940.00   4.66427469   0.01751911
7942.00   4.65207815   0.01825040
7944.00   4.59466648   0.01721142
7946.00   4.59521151   0.01624947
7948.00   4.62905169   0.01805661
7950.00   4.62655210   0.01891683
7952.00   4.56001854   0.01734420
7954.00   4.48654890   0.01620747
7956.00   4.50089550   0.01830392
7958.00   4.50291014   0.01762776
7960.00   4.49312639   0.01665316
7962.00   4.49122572   0.01680606
7964.00   4.47388983   0.01723477
7966.00   4.42946911   0.01724509
7968.00   4.37780333   0.01718716
7970.00   4.32394648   0.01672454
7972.00   4.24810743   0.01600860
7974.00   4.30930662   0.01834556
7976.00   4.33415318   0.01850225
7978.00   4.28873873   0.01675107
7980.00   4.23120928   0.01667796
7982.00   4.18132925   0.01926699
7984.00   4.11708021   0.02008619
7986.00   4.24013710   0.01890159
7988.00   4.28145313   0.01758930
7990.00   4.16166830   0.01776804
7992.00   4.09949112   0.01799619
7994.00   4.18733311   0.01786503
7996.00   4.21572113   0.01891423
7998.00   4.19431067   0.01737434
8000.00   4.16766262   0.01784668
8002.00   4.19052935   0.01765847
8004.00   4.11969709   0.01723543
8006.00   4.11570501   0.01815246
8008.00   4.22089529   0.01912544
8010.00   4.13099003   0.01706562
8012.00   4.17236328   0.01710068
8014.00   4.14013910   0.01692402
8016.00   4.08059025   0.01702449
8018.00   4.05098772   0.01775082
8020.00   4.00516987   0.01771839
8022.00   3.92878151   0.01669220
8024.00   3.93997359   0.01725312
8026.00   3.94729590   0.01689138
8028.00   3.98103499   0.01688766
8030.00   4.00328207   0.01743242
8032.00   3.98585010   0.01726133
8034.00   3.94017100   0.01652886
8036.00   3.91419601   0.01632418
8038.00   3.93742752   0.01659878
