# File created by shivutils (I.Shivvers)
# wl(A)   flm    er(optional)
3614.00   1.52398133   0.05271053
3616.00   1.49076653   0.05157249
3618.00   1.45385790   0.05166414
3620.00   1.49052191   0.05071673
3622.00   1.47157550   0.05063450
3624.00   1.43063653   0.05074017
3626.00   1.40275621   0.04951479
3628.00   1.39350629   0.05053737
3630.00   1.33873463   0.04952522
3632.00   1.30942583   0.04937416
3634.00   1.43960416   0.05002145
3636.00   1.45106661   0.04989150
3638.00   1.43767250   0.04956068
3640.00   1.37403703   0.04896803
3642.00   1.41774142   0.04960740
3644.00   1.34975207   0.04872597
3646.00   1.40930951   0.05114587
3648.00   1.42455709   0.05549616
3650.00   1.35218263   0.05572599
3652.00   1.44586170   0.05385438
3654.00   1.39990520   0.05162316
3656.00   1.42100048   0.04943341
3658.00   1.41218519   0.04795093
3660.00   1.36235523   0.04953347
3662.00   1.37050056   0.04964102
3664.00   1.25983381   0.04769129
3666.00   1.41427970   0.04676596
3668.00   1.35750008   0.04553122
3670.00   1.47069645   0.04676030
3672.00   1.44264674   0.04595190
3674.00   1.39268053   0.04474979
3676.00   1.40899944   0.04502380
3678.00   1.42583060   0.04497284
3680.00   1.56557953   0.04622059
3682.00   1.47435760   0.04514226
3684.00   1.41838372   0.04459626
3686.00   1.38663781   0.04418078
3688.00   1.42431200   0.04480902
3690.00   1.42600822   0.04421222
3692.00   1.40715969   0.04380923
3694.00   1.47538447   0.04432643
3696.00   1.43488503   0.04410170
3698.00   1.42905712   0.04393587
3700.00   1.41729045   0.04351868
3702.00   1.36972845   0.04267290
3704.00   1.33858693   0.04276667
3706.00   1.37542510   0.04216666
3708.00   1.40278006   0.04218467
3710.00   1.23841000   0.04091562
3712.00   1.27276790   0.04111887
3714.00   1.16454434   0.03922798
3716.00   1.17472827   0.03916759
3718.00   1.06119168   0.03807824
3720.00   1.10760164   0.03820447
3722.00   1.08891439   0.03773063
3724.00   1.12240195   0.03763507
3726.00   1.02927673   0.03634971
3728.00   1.00958765   0.03627835
3730.00   1.00785279   0.03662352
3732.00   0.97735834   0.03615307
3734.00   0.91842270   0.03558842
3736.00   0.91581476   0.03533526
3738.00   0.93078673   0.03533752
3740.00   0.93339211   0.03561518
3742.00   0.88617402   0.03444263
3744.00   0.92583877   0.03431346
3746.00   0.83754927   0.03352035
3748.00   0.87819833   0.03393448
3750.00   0.92174745   0.03406711
3752.00   0.86346745   0.03364513
3754.00   0.88060576   0.03326167
3756.00   0.92017955   0.03387328
3758.00   1.00787473   0.03502716
3760.00   0.98093837   0.03481781
3762.00   1.01323283   0.03507749
3764.00   0.93259078   0.03363912
3766.00   1.00545835   0.03367068
3768.00   1.01905906   0.03411937
3770.00   1.05803907   0.03443350
3772.00   1.10966921   0.03507973
3774.00   1.06619978   0.03451193
3776.00   1.11856902   0.03506652
3778.00   1.16191828   0.03487061
3780.00   1.13749695   0.03473690
3782.00   1.15214169   0.03468084
3784.00   1.01242602   0.03323846
3786.00   1.04443824   0.03353836
3788.00   0.97546607   0.03282260
3790.00   1.00215340   0.03281031
3792.00   0.91797960   0.03203182
3794.00   0.92868227   0.03179618
3796.00   0.90337521   0.03106952
3798.00   0.81934977   0.03063674
3800.00   0.84842545   0.03067494
3802.00   0.88839400   0.03080373
3804.00   0.85208881   0.03029594
3806.00   0.83389169   0.02995483
3808.00   0.88131189   0.03029061
3810.00   0.82937795   0.02986976
3812.00   0.80655867   0.02998772
3814.00   0.84268707   0.02990137
3816.00   0.85548437   0.03012994
3818.00   0.84692109   0.02986829
3820.00   0.84729034   0.02965465
3822.00   0.79130739   0.02891152
3824.00   0.77666944   0.02880048
3826.00   0.80152178   0.02934519
3828.00   0.74515527   0.02922190
3830.00   0.81922448   0.02935050
3832.00   0.79397678   0.02879909
3834.00   0.84153682   0.02934065
3836.00   0.80589908   0.02901091
3838.00   0.81574422   0.02892351
3840.00   0.88934588   0.02935937
3842.00   0.85998160   0.02911335
3844.00   0.81020659   0.02876395
3846.00   0.87814116   0.02908078
3848.00   0.87586248   0.02867794
3850.00   0.89535344   0.02919283
3852.00   0.90060872   0.02899821
3854.00   0.90270513   0.02889433
3856.00   0.93196267   0.02942767
3858.00   0.98698699   0.02927289
3860.00   1.02435029   0.02987828
3862.00   1.00744319   0.02983326
3864.00   1.13938117   0.03092697
3866.00   1.09856975   0.03028207
3868.00   1.13385332   0.03063105
3870.00   1.16688216   0.03082485
3872.00   1.23813903   0.03174600
3874.00   1.22496819   0.03150165
3876.00   1.24468493   0.03200108
3878.00   1.24505186   0.03150544
3880.00   1.26376331   0.03180019
3882.00   1.29619622   0.03157774
3884.00   1.33652163   0.03199645
3886.00   1.34039521   0.03232697
3888.00   1.41234744   0.03272791
3890.00   1.47341144   0.03328475
3892.00   1.43480945   0.03293213
3894.00   1.46531773   0.03310459
3896.00   1.50090015   0.03353314
3898.00   1.46148741   0.03300961
3900.00   1.58176351   0.03382036
3902.00   1.54657519   0.03379777
3904.00   1.55231655   0.03442023
3906.00   1.54426479   0.03520009
3908.00   1.58919632   0.03552106
3910.00   1.61310089   0.03519832
3912.00   1.66741765   0.03550115
3914.00   1.65156615   0.03469606
3916.00   1.68769681   0.03454953
3918.00   1.66197979   0.03450867
3920.00   1.68451774   0.03442065
3922.00   1.71289659   0.03415541
3924.00   1.71516669   0.03422722
3926.00   1.80856144   0.03467062
3928.00   1.72906899   0.03415377
3930.00   1.79639268   0.03457804
3932.00   1.76121628   0.03427615
3934.00   1.82257569   0.03475896
3936.00   1.84278488   0.03456760
3938.00   1.74698162   0.03414934
3940.00   1.85919178   0.03475030
3942.00   1.90532863   0.03525673
3944.00   1.91830003   0.03538056
3946.00   1.95725155   0.03535606
3948.00   1.89101160   0.03494706
3950.00   1.92596698   0.03504972
3952.00   1.93499613   0.03518007
3954.00   1.95885444   0.03517032
3956.00   2.03677988   0.03559427
3958.00   1.96829474   0.03536942
3960.00   2.01886749   0.03544133
3962.00   2.03698802   0.03545290
3964.00   2.00385714   0.03489462
3966.00   1.84052718   0.03322428
3968.00   1.70949578   0.03211126
3970.00   1.87757647   0.03337212
3972.00   2.03078604   0.03467599
3974.00   2.03507400   0.03466570
3976.00   2.00702071   0.03437098
3978.00   1.93439198   0.03400414
3980.00   2.00513339   0.03444423
3982.00   1.87661123   0.03360054
3984.00   1.89049685   0.03341810
3986.00   1.81269038   0.03290585
3988.00   1.77370787   0.03250164
3990.00   1.69447827   0.03187816
3992.00   1.73513389   0.03183325
3994.00   1.71157908   0.03177410
3996.00   1.68023455   0.03169887
3998.00   1.61300206   0.03083785
4000.00   1.50311220   0.02954434
4002.00   1.43018544   0.02851651
4004.00   1.35475624   0.02805324
4006.00   1.41765726   0.02874608
4008.00   1.44060981   0.02911745
4010.00   1.46207452   0.02938380
4012.00   1.46239054   0.02923695
4014.00   1.48377120   0.02891494
4016.00   1.44415808   0.02915025
4018.00   1.38501608   0.02931099
4020.00   1.38985503   0.02956179
4022.00   1.41496015   0.02973109
4024.00   1.39496231   0.02908644
4026.00   1.35455728   0.02870640
4028.00   1.43405998   0.02887262
4030.00   1.38208568   0.02825847
4032.00   1.42001116   0.02828739
4034.00   1.42925429   0.02836806
4036.00   1.42551255   0.02835034
4038.00   1.43001294   0.02831806
4040.00   1.43850195   0.02835579
4042.00   1.45457613   0.03049782
4044.00   1.44554436   0.03545250
4046.00   1.52477705   0.03684831
4048.00   1.41107440   0.03239352
4050.00   1.46303356   0.02939587
4052.00   1.50311673   0.02912171
4054.00   1.52972972   0.02905761
4056.00   1.52735960   0.02889204
4058.00   1.51596296   0.02884617
4060.00   1.55300689   0.02885821
4062.00   1.54872429   0.02870354
4064.00   1.57111955   0.02892270
4066.00   1.61241686   0.02908350
4068.00   1.58133399   0.02886347
4070.00   1.63016069   0.02896978
4072.00   1.68001294   0.02935820
4074.00   1.76379573   0.03035401
4076.00   1.77467299   0.03140009
4078.00   1.92108428   0.03183870
4080.00   1.83776319   0.03086988
4082.00   1.89429700   0.03090847
4084.00   1.80503833   0.03059294
4086.00   1.82692432   0.03036018
4088.00   1.82525384   0.02997385
4090.00   1.87233043   0.02994233
4092.00   1.90058005   0.03016394
4094.00   1.85781324   0.02999586
4096.00   1.90885043   0.02999769
4098.00   1.93555462   0.03013792
4100.00   1.92974389   0.02987407
4102.00   1.92031443   0.02974869
4104.00   1.91591346   0.02993600
4106.00   1.93241429   0.03005988
4108.00   1.84668243   0.02961067
4110.00   1.96118319   0.02988240
4112.00   1.97437060   0.02989738
4114.00   1.97812867   0.02977714
4116.00   1.95608926   0.02984834
4118.00   1.97110176   0.02977404
4120.00   1.94992900   0.02977746
4122.00   1.94510782   0.02976261
4124.00   1.98942924   0.02992629
4126.00   1.96061242   0.02964076
4128.00   1.98027515   0.02976676
4130.00   1.97270334   0.02986040
4132.00   1.93250322   0.02949403
4134.00   1.93824542   0.02932845
4136.00   1.93724465   0.02937318
4138.00   1.87937176   0.02902631
4140.00   1.87883902   0.02888935
4142.00   1.83516669   0.02851123
4144.00   1.81170666   0.02827621
4146.00   1.82343137   0.02805458
4148.00   1.81588566   0.02826990
4150.00   1.85206795   0.02858408
4152.00   1.87168574   0.02858588
4154.00   1.77161825   0.02804383
4156.00   1.83416200   0.02828166
4158.00   1.75292265   0.02781634
4160.00   1.82609868   0.02806628
4162.00   1.77407074   0.02791958
4164.00   1.79649293   0.02828938
4166.00   1.75638187   0.02801464
4168.00   1.81214583   0.02784045
4170.00   1.75039554   0.02741415
4172.00   1.73008835   0.02714823
4174.00   1.73638475   0.02713932
4176.00   1.78154182   0.02745390
4178.00   1.70648611   0.02690248
4180.00   1.68540573   0.02657694
4182.00   1.75097454   0.02677466
4184.00   1.65516126   0.02644107
4186.00   1.77976024   0.02678120
4188.00   1.74419832   0.02680242
4190.00   1.74650860   0.02671698
4192.00   1.77548182   0.02690938
4194.00   1.81865668   0.02698858
4196.00   1.83823061   0.02703354
4198.00   1.79289305   0.02673514
4200.00   1.78531814   0.02657736
4202.00   1.74897861   0.02649613
4204.00   1.66657388   0.02618623
4206.00   1.70777810   0.02635295
4208.00   1.70432162   0.02630041
4210.00   1.68821585   0.02601032
4212.00   1.64386249   0.02572660
4214.00   1.66902113   0.02571960
4216.00   1.68487775   0.02581649
4218.00   1.58106339   0.02520271
4220.00   1.60821795   0.02540086
4222.00   1.59907377   0.02523512
4224.00   1.54897761   0.02490475
4226.00   1.53941798   0.02489702
4228.00   1.51015151   0.02473319
4230.00   1.55179143   0.02485828
4232.00   1.49324656   0.02462485
4234.00   1.49600601   0.02454405
4236.00   1.54796839   0.02467021
4238.00   1.51870549   0.02452160
4240.00   1.46784019   0.02407744
4242.00   1.47974765   0.02431664
4244.00   1.49336171   0.02494890
4246.00   1.53510761   0.02524116
4248.00   1.43827057   0.02452699
4250.00   1.44836497   0.02411625
4252.00   1.46405542   0.02379024
4254.00   1.41794336   0.02369934
4256.00   1.41761720   0.02367378
4258.00   1.42515349   0.02368403
4260.00   1.42210984   0.02344242
4262.00   1.39947045   0.02326676
4264.00   1.37912798   0.02303241
4266.00   1.36295366   0.02304172
4268.00   1.34104586   0.02287860
4270.00   1.33151388   0.02290597
4272.00   1.37240875   0.02312295
4274.00   1.31083775   0.02271073
4276.00   1.35567451   0.02278314
4278.00   1.32612789   0.02283922
4280.00   1.34289742   0.02293597
4282.00   1.37571037   0.02297560
4284.00   1.30434978   0.02266138
4286.00   1.28632343   0.02251060
4288.00   1.28882492   0.02228039
4290.00   1.24824369   0.02214636
4292.00   1.28212631   0.02223477
4294.00   1.25418305   0.02217504
4296.00   1.24300003   0.02191119
4298.00   1.24384677   0.02190727
4300.00   1.22979271   0.02178038
4302.00   1.22225678   0.02183780
4304.00   1.18218648   0.02166352
4306.00   1.19021595   0.02167180
4308.00   1.20778656   0.02157976
4310.00   1.19193077   0.02163145
4312.00   1.15959680   0.02185568
4314.00   1.16980612   0.02207574
4316.00   1.10486829   0.02147464
4318.00   1.10642076   0.02148730
4320.00   1.09376609   0.02127898
4322.00   1.07183969   0.02100732
4324.00   1.05599797   0.02089211
4326.00   1.05488706   0.02067532
4328.00   1.03868294   0.02027904
4330.00   1.00254416   0.02024927
4332.00   0.96705091   0.01996605
4334.00   0.98202682   0.02001488
4336.00   1.00813770   0.02005881
4338.00   0.96305418   0.01991942
4340.00   0.98782766   0.02001619
4342.00   0.97349620   0.01994592
4344.00   1.01444173   0.02050647
4346.00   1.03358996   0.02071644
4348.00   1.01478267   0.02074092
4350.00   1.05504680   0.02090041
4352.00   1.05303478   0.02105909
4354.00   1.05365419   0.02514269
4356.00   1.08539116   0.03057076
4358.00   1.05375290   0.03159689
4360.00   1.09261537   0.02755231
4362.00   1.10268891   0.02355987
4364.00   1.15965271   0.02216277
4366.00   1.17301893   0.02179896
4368.00   1.15215778   0.02168092
4370.00   1.18028522   0.02197277
4372.00   1.26253140   0.02240290
4374.00   1.21758437   0.02225901
4376.00   1.24729931   0.02221059
4378.00   1.23028839   0.02189279
4380.00   1.22123981   0.02183363
4382.00   1.25677645   0.02201173
4384.00   1.26861262   0.02194513
4386.00   1.22733462   0.02167648
4388.00   1.26352549   0.02189738
4390.00   1.29203963   0.02200769
4392.00   1.29728293   0.02206572
4394.00   1.25061989   0.02191248
4396.00   1.31863022   0.02207845
4398.00   1.32493401   0.02249322
4400.00   1.28626513   0.02222177
4402.00   1.29662454   0.02226856
4404.00   1.33148789   0.02230319
4406.00   1.31731629   0.02232407
4408.00   1.38289368   0.02246183
4410.00   1.36309123   0.02260753
4412.00   1.36360490   0.02263832
4414.00   1.32132840   0.02250663
4416.00   1.32442319   0.02242025
4418.00   1.38493180   0.02242951
4420.00   1.33568406   0.02229786
4422.00   1.30098784   0.02207579
4424.00   1.29074109   0.02192358
4426.00   1.31189573   0.02193992
4428.00   1.24931908   0.02171323
4430.00   1.33303189   0.02199885
4432.00   1.30469441   0.02191579
4434.00   1.27352214   0.02179499
4436.00   1.23382199   0.02156331
4438.00   1.25092816   0.02176853
4440.00   1.26414585   0.02164928
4442.00   1.25920761   0.02170813
4444.00   1.25172019   0.02163501
4446.00   1.24722290   0.02152208
4448.00   1.25245261   0.02144214
4450.00   1.29166889   0.02167589
4452.00   1.24793363   0.02139403
4454.00   1.26136923   0.02153862
4456.00   1.25035930   0.02149370
4458.00   1.24947369   0.02147876
4460.00   1.25977921   0.02141028
4462.00   1.22825921   0.02140789
4464.00   1.24637926   0.02138416
4466.00   1.29049730   0.02160589
4468.00   1.29611003   0.02164388
4470.00   1.31737840   0.02181788
4472.00   1.31959784   0.02187615
4474.00   1.34764922   0.02193994
4476.00   1.36793351   0.02198779
4478.00   1.37923944   0.02201132
4480.00   1.39605737   0.02211650
4482.00   1.46421313   0.02233075
4484.00   1.46629333   0.02247033
4486.00   1.42732513   0.02245796
4488.00   1.45841372   0.02244008
4490.00   1.52579999   0.02274519
4492.00   1.51491773   0.02272635
4494.00   1.51885629   0.02278060
4496.00   1.54901099   0.02279011
4498.00   1.51992631   0.02275499
4500.00   1.57790244   0.02290362
4502.00   1.55195928   0.02283113
4504.00   1.56845832   0.02277313
4506.00   1.56555331   0.02294069
4508.00   1.56037569   0.02275990
4510.00   1.60087419   0.02291291
4512.00   1.55279851   0.02278499
4514.00   1.58576918   0.02286438
4516.00   1.58270073   0.02281353
4518.00   1.58135760   0.02269091
4520.00   1.60096812   0.02282548
4522.00   1.63188481   0.02291852
4524.00   1.64158452   0.02285996
4526.00   1.61178541   0.02289352
4528.00   1.59806812   0.02274544
4530.00   1.67685020   0.02301641
4532.00   1.71328199   0.02304628
4534.00   1.66005421   0.02293519
4536.00   1.67427611   0.02296036
4538.00   1.64906144   0.02282651
4540.00   1.66244829   0.02288270
4542.00   1.71106577   0.02305846
4544.00   1.69895065   0.02301920
4546.00   1.69479811   0.02289939
4548.00   1.65151763   0.02271544
4550.00   1.63885760   0.02259275
4552.00   1.65365505   0.02258284
4554.00   1.70679593   0.02287537
4556.00   1.68520224   0.02277719
4558.00   1.65424895   0.02257791
4560.00   1.65855849   0.02252653
4562.00   1.67423928   0.02271683
4564.00   1.72856987   0.02268770
4566.00   1.71520841   0.02257171
4568.00   1.66638482   0.02234287
4570.00   1.65284598   0.02225048
4572.00   1.66037738   0.02235866
4574.00   1.59503400   0.02219443
4576.00   1.58508885   0.02197112
4578.00   1.65087569   0.02203250
4580.00   1.62036860   0.02203712
4582.00   1.64092171   0.02197165
4584.00   1.60307634   0.02183529
4586.00   1.64683855   0.02197224
4588.00   1.64634132   0.02188792
4590.00   1.60482168   0.02177482
4592.00   1.59388757   0.02161413
4594.00   1.62296247   0.02189422
4596.00   1.56965232   0.02161078
4598.00   1.59479177   0.02168012
4600.00   1.58785260   0.02158581
4602.00   1.61033320   0.02158802
4604.00   1.57639909   0.02153757
4606.00   1.63069940   0.02165552
4608.00   1.60840797   0.02161479
4610.00   1.60525751   0.02166495
4612.00   1.60999978   0.02161852
4614.00   1.60817373   0.02146664
4616.00   1.63625896   0.02159997
4618.00   1.60558438   0.02145306
4620.00   1.63357210   0.02161195
4622.00   1.60350037   0.02138897
4624.00   1.63238692   0.02143411
4626.00   1.66612601   0.02164589
4628.00   1.64449108   0.02165348
4630.00   1.65256536   0.02167316
4632.00   1.62721610   0.02161433
4634.00   1.57350004   0.02132357
4636.00   1.64103949   0.02151554
4638.00   1.63785601   0.02144324
4640.00   1.66101384   0.02153243
4642.00   1.67901504   0.02151745
4644.00   1.67090988   0.02159829
4646.00   1.60519195   0.02148682
4648.00   1.65402949   0.02152253
4650.00   1.68269277   0.02160702
4652.00   1.66105926   0.02152285
4654.00   1.67828071   0.02166541
4656.00   1.61501431   0.02156608
4658.00   1.62826288   0.02149862
4660.00   1.62594521   0.02142275
4662.00   1.61423397   0.02155543
4664.00   1.53914356   0.02115613
4666.00   1.51974773   0.02107707
4668.00   1.50462234   0.02093133
4670.00   1.44936788   0.02067587
4672.00   1.49005926   0.02073231
4674.00   1.45817232   0.02060446
4676.00   1.43138981   0.02019654
4678.00   1.40789640   0.02018583
4680.00   1.40765095   0.02014140
4682.00   1.37605810   0.01987879
4684.00   1.34849620   0.01975742
4686.00   1.34643674   0.01974374
4688.00   1.35243869   0.01964039
4690.00   1.37611139   0.01969243
4692.00   1.39817715   0.01980010
4694.00   1.38055432   0.01971201
4696.00   1.36773109   0.01958052
4698.00   1.36619127   0.01962573
4700.00   1.38169742   0.01969100
4702.00   1.36931622   0.01979387
4704.00   1.38530910   0.01966430
4706.00   1.39087462   0.01974123
4708.00   1.37021279   0.01967034
4710.00   1.36787438   0.01964667
4712.00   1.37360895   0.01963217
4714.00   1.37876582   0.01960577
4716.00   1.39372885   0.01972916
4718.00   1.37092376   0.01960770
4720.00   1.39787900   0.01963720
4722.00   1.43785548   0.01987422
4724.00   1.39606607   0.01967125
4726.00   1.40118814   0.01992685
4728.00   1.43243170   0.02014692
4730.00   1.40424836   0.02010511
4732.00   1.44320822   0.02016030
4734.00   1.39524674   0.02015036
4736.00   1.43454671   0.02029636
4738.00   1.44693196   0.02045340
4740.00   1.42005897   0.02047222
4742.00   1.45186555   0.02050269
4744.00   1.40260231   0.02025080
4746.00   1.40834498   0.01998790
4748.00   1.39569938   0.01971680
4750.00   1.40474045   0.01986288
4752.00   1.46215868   0.01983092
4754.00   1.42097509   0.01969750
4756.00   1.39982474   0.01962221
4758.00   1.33872902   0.01928934
4760.00   1.32323599   0.01902891
4762.00   1.40029871   0.01926904
4764.00   1.33710647   0.01896528
4766.00   1.34119451   0.01898014
4768.00   1.31398845   0.01866497
4770.00   1.29064763   0.01855019
4772.00   1.29798234   0.01860578
4774.00   1.22550440   0.01839184
4776.00   1.25567424   0.01866053
4778.00   1.21883881   0.01881365
4780.00   1.24752235   0.01849698
4782.00   1.24373734   0.01838783
4784.00   1.19912398   0.01824246
4786.00   1.22470117   0.01827082
4788.00   1.19066346   0.01821553
4790.00   1.23560858   0.01839167
4792.00   1.21468461   0.01810219
4794.00   1.18231094   0.01818305
4796.00   1.20802236   0.01819418
4798.00   1.22648108   0.01824524
4800.00   1.22751784   0.01828278
4802.00   1.25798345   0.01827457
4804.00   1.24720907   0.01833808
4806.00   1.24865615   0.01831064
4808.00   1.25495076   0.01841071
4810.00   1.24845576   0.01829394
4812.00   1.27698505   0.01848571
4814.00   1.26873291   0.01846952
4816.00   1.26084495   0.01856625
4818.00   1.30764580   0.01871498
4820.00   1.32964408   0.01886769
4822.00   1.35389757   0.01901665
4824.00   1.34455001   0.01893779
4826.00   1.31547010   0.01882214
4828.00   1.35937822   0.01898179
4830.00   1.38887823   0.01919114
4832.00   1.33941257   0.01910496
4834.00   1.33516419   0.01895234
4836.00   1.38448083   0.01919039
4838.00   1.34750569   0.01918648
4840.00   1.32843721   0.01894811
4842.00   1.31302571   0.01878751
4844.00   1.32267487   0.01887906
4846.00   1.28674281   0.01876435
4848.00   1.27424347   0.01850741
4850.00   1.24338663   0.01841095
4852.00   1.19214582   0.01816034
4854.00   1.16918600   0.01782893
4856.00   1.16518056   0.01776393
4858.00   1.17788303   0.01779896
4860.00   1.12047112   0.01765274
4862.00   1.04724061   0.01729192
4864.00   1.07968438   0.01743023
4866.00   1.06004310   0.01720869
4868.00   1.05928111   0.01715011
4870.00   1.00470662   0.01690156
4872.00   0.96748835   0.01682590
4874.00   1.02884603   0.01687032
4876.00   0.95253325   0.01661879
4878.00   0.94479614   0.01654596
4880.00   0.89647269   0.01626758
4882.00   0.91495860   0.01629017
4884.00   0.89963543   0.01618371
4886.00   0.88086188   0.01595980
4888.00   0.86442250   0.01583897
4890.00   0.83234578   0.01568132
4892.00   0.83508819   0.01563423
4894.00   0.80087030   0.01550278
4896.00   0.83287960   0.01559717
4898.00   0.82607371   0.01556105
4900.00   0.80133539   0.01554546
4902.00   0.80371726   0.01551347
4904.00   0.80955988   0.01564094
4906.00   0.81468582   0.01557656
4908.00   0.80408847   0.01551965
4910.00   0.87529695   0.01589535
4912.00   0.84161097   0.01570483
4914.00   0.86162007   0.01573180
4916.00   0.87430263   0.01586576
4918.00   0.85424900   0.01569334
4920.00   0.83365589   0.01575891
4922.00   0.85085207   0.01586574
4924.00   0.89381307   0.01593951
4926.00   0.87811434   0.01583390
4928.00   0.90617633   0.01595321
4930.00   0.88087046   0.01594195
4932.00   0.90427083   0.01602989
4934.00   0.93499941   0.01608621
4936.00   0.90528274   0.01604897
4938.00   0.89677000   0.01613428
4940.00   0.89299095   0.01609908
4942.00   0.91677171   0.01622046
4944.00   0.92973298   0.01619229
4946.00   0.97043353   0.01628673
4948.00   0.95181876   0.01631052
4950.00   0.92921549   0.01624646
4952.00   0.95500207   0.01656777
4954.00   0.95478284   0.01630740
4956.00   0.96639526   0.01650793
4958.00   0.96280491   0.01651577
4960.00   1.01885593   0.01671431
4962.00   1.03184736   0.01692069
4964.00   1.01365781   0.01674841
4966.00   1.03363895   0.01697274
4968.00   1.02077425   0.01705980
4970.00   1.03710842   0.01718268
4972.00   1.08211827   0.01747062
4974.00   1.07042027   0.01750754
4976.00   1.04614282   0.01765468
4978.00   1.02012026   0.01785145
4980.00   1.04759884   0.01812818
4982.00   1.04740798   0.01820310
4984.00   1.03960109   0.01807650
4986.00   1.04244053   0.01791986
4988.00   1.05925143   0.01785659
4990.00   1.07691467   0.01778972
4992.00   1.09190011   0.01762576
4994.00   1.05824375   0.01735489
4996.00   1.00954914   0.01713612
4998.00   1.04055345   0.01700870
5000.00   1.00631154   0.01687892
5002.00   1.03251684   0.01700758
5004.00   1.00345802   0.01675637
5006.00   1.04206944   0.01689381
5008.00   1.02442884   0.01669578
5010.00   1.02758849   0.01668204
5012.00   1.02136254   0.01657038
5014.00   1.01027536   0.01667275
5016.00   1.02789402   0.01670944
5018.00   1.01699591   0.01683863
5020.00   1.03534925   0.01680888
5022.00   1.04232121   0.01685073
5024.00   1.04454887   0.01688383
5026.00   1.05900276   0.01682706
5028.00   1.07971978   0.01701439
5030.00   1.08046591   0.01700891
5032.00   1.10266006   0.01708172
5034.00   1.11160851   0.01704407
5036.00   1.06621993   0.01698817
5038.00   1.07670259   0.01711852
5040.00   1.07137096   0.01701022
5042.00   1.10257614   0.01711792
5044.00   1.10685694   0.01713151
5046.00   1.05258250   0.01699559
5048.00   1.09341383   0.01705538
5050.00   1.07221889   0.01704092
5052.00   1.09453583   0.01721614
5054.00   1.10261524   0.01717203
5056.00   1.09245658   0.01710717
5058.00   1.10768604   0.01704824
5060.00   1.13046598   0.01722527
5062.00   1.10783768   0.01736728
5064.00   1.14143407   0.01752851
5066.00   1.11867678   0.01748704
5068.00   1.13407660   0.01764862
5070.00   1.15349174   0.01781274
5072.00   1.16339898   0.01774582
5074.00   1.12380552   0.01759157
5076.00   1.08275115   0.01759923
5078.00   1.14684033   0.01795645
5080.00   1.19028687   0.01849389
5082.00   1.16879857   0.01867262
5084.00   1.16521788   0.01896680
5086.00   1.18546224   0.01875232
5088.00   1.18828321   0.01853421
5090.00   1.19691718   0.01840127
5092.00   1.20431471   0.01817368
5094.00   1.19386256   0.01812209
5096.00   1.20280516   0.01827904
5098.00   1.25427258   0.01847425
5100.00   1.22674596   0.01825218
5102.00   1.26499176   0.01838483
5104.00   1.24750853   0.01824196
5106.00   1.27220786   0.01823634
5108.00   1.26359010   0.01816850
5110.00   1.26851547   0.01815164
5112.00   1.29239631   0.01836974
5114.00   1.23901892   0.01826345
5116.00   1.28123593   0.01836755
5118.00   1.28386700   0.01839548
5120.00   1.31168473   0.01843725
5122.00   1.29886174   0.01826182
5124.00   1.29206014   0.01819256
5126.00   1.29076481   0.01830238
5128.00   1.35415697   0.01853146
5130.00   1.32009256   0.01838629
5132.00   1.32739723   0.01839975
5134.00   1.30911565   0.01839708
5136.00   1.34175837   0.01860863
5138.00   1.34070051   0.01863921
5140.00   1.35914600   0.01867802
5142.00   1.34172463   0.01849494
5144.00   1.36545718   0.01856209
5146.00   1.34610868   0.01855871
5148.00   1.33065200   0.01862012
5150.00   1.30751133   0.01865756
5152.00   1.32105041   0.01878860
5154.00   1.33095896   0.01874347
5156.00   1.33030522   0.01863391
5158.00   1.31266224   0.01854275
5160.00   1.29407382   0.01839529
5162.00   1.30404270   0.01861063
5164.00   1.25273502   0.01821656
5166.00   1.24153590   0.01804715
5168.00   1.28431869   0.01830940
5170.00   1.25444484   0.01808931
5172.00   1.21220601   0.01799206
5174.00   1.28732276   0.01820945
5176.00   1.26190221   0.01820382
5178.00   1.26209402   0.01828974
5180.00   1.24808753   0.01809288
5182.00   1.21338665   0.01799745
5184.00   1.24442172   0.01804010
5186.00   1.21332145   0.01790885
5188.00   1.24450040   0.01811377
5190.00   1.22294414   0.01795704
5192.00   1.23427963   0.01797695
5194.00   1.27385962   0.01812818
5196.00   1.21428442   0.01799318
5198.00   1.23344505   0.01802539
5200.00   1.23829377   0.01815481
5202.00   1.26813078   0.01825607
5204.00   1.26387036   0.01821081
5206.00   1.28152800   0.01827140
5208.00   1.28047621   0.01832339
5210.00   1.27020013   0.01833329
5212.00   1.27605402   0.01816415
5214.00   1.32346606   0.01832290
5216.00   1.29438007   0.01831110
5218.00   1.28830552   0.01823736
5220.00   1.31848300   0.01847062
5222.00   1.35360765   0.01852997
5224.00   1.34504557   0.01854781
5226.00   1.36251152   0.01860602
5228.00   1.38404119   0.01861900
5230.00   1.40182030   0.01865114
5232.00   1.39268851   0.01874637
5234.00   1.39403629   0.01869318
5236.00   1.39902592   0.01867221
5238.00   1.37757647   0.01868869
5240.00   1.35544038   0.01856291
5242.00   1.39786577   0.01870744
5244.00   1.38589609   0.01865724
5246.00   1.37123811   0.01862477
5248.00   1.37421620   0.01868661
5250.00   1.34821844   0.01848880
5252.00   1.37162936   0.01857843
5254.00   1.33402824   0.01843872
5256.00   1.35399318   0.01851354
5258.00   1.29024112   0.01829736
5260.00   1.28957403   0.01811724
5262.00   1.26870358   0.01803654
5264.00   1.29018581   0.01795312
5266.00   1.22752142   0.01783774
5268.00   1.23943830   0.01776155
5270.00   1.18700695   0.01747682
5272.00   1.18547285   0.01742406
5274.00   1.15316880   0.01739571
5276.00   1.14091611   0.01731505
5278.00   1.14337528   0.01716493
5280.00   1.11730862   0.01710523
5282.00   1.09795177   0.01709739
5284.00   1.09374726   0.01697655
5286.00   1.07265663   0.01691332
5288.00   1.11728883   0.01704217
5290.00   1.09060502   0.01690265
5292.00   1.06846046   0.01674436
5294.00   1.04172575   0.01654785
5296.00   1.03972363   0.01652762
5298.00   1.02180874   0.01655401
5300.00   1.04335344   0.01659014
5302.00   1.01108265   0.01647246
5304.00   0.99575233   0.01642891
5306.00   0.98588228   0.01633769
5308.00   0.95307338   0.01615847
5310.00   0.98353374   0.01627028
5312.00   0.99244022   0.01628280
5314.00   0.99898124   0.01624150
5316.00   1.01083004   0.01627322
5318.00   0.99974370   0.01629341
5320.00   0.99628031   0.01631106
5322.00   0.98629773   0.01633637
5324.00   0.99304479   0.01634346
5326.00   1.02152133   0.01637888
5328.00   1.03095222   0.01647668
5330.00   1.00814474   0.01645684
5332.00   1.00568473   0.01651178
5334.00   1.01452756   0.01663204
5336.00   0.99799728   0.01651121
5338.00   0.97793549   0.01642141
5340.00   1.02477694   0.01664387
5342.00   0.96898800   0.01643273
5344.00   1.03001571   0.01657646
5346.00   0.97390306   0.01643998
5348.00   1.00039613   0.01675672
5350.00   1.00633240   0.01674905
5352.00   0.96491015   0.01662656
5354.00   1.00356376   0.01690336
5356.00   0.97934908   0.01684422
5358.00   0.98080218   0.01665701
5360.00   1.02051675   0.01672533
5362.00   1.01735985   0.01669828
5364.00   1.06829309   0.01696955
5366.00   1.03337872   0.01680543
5368.00   1.03170872   0.01686609
5370.00   1.02825844   0.01699032
5372.00   1.06980598   0.01724060
5374.00   1.03806317   0.01710288
5376.00   1.06163049   0.01727886
5378.00   1.10513139   0.01742044
5380.00   1.09950781   0.01743359
5382.00   1.08393443   0.01738758
5384.00   1.09943438   0.01760443
5386.00   1.07404327   0.01757963
5388.00   1.08925188   0.01770835
5390.00   1.08330369   0.01788247
5392.00   1.09624183   0.01783150
5394.00   1.09103978   0.01789398
5396.00   1.04437232   0.01779572
5398.00   1.05971241   0.01788276
5400.00   1.05873096   0.01790765
5402.00   1.02113867   0.01787952
5404.00   1.05548298   0.01804433
5406.00   1.08998764   0.01832732
5408.00   1.08067989   0.01844594
5410.00   1.10095429   0.01863439
5412.00   1.07481861   0.01870843
5414.00   1.08146334   0.01889066
5416.00   1.07303655   0.01893063
5418.00   1.06023228   0.01906433
5420.00   1.10564995   0.01942317
5422.00   1.07734525   0.01944572
5424.00   1.04267049   0.01928024
5426.00   1.06430387   0.01935203
5428.00   1.11147618   0.01962127
5430.00   1.08338964   0.01957322
5432.00   1.03632414   0.01948266
5434.00   1.06023657   0.01952177
5436.00   1.03309369   0.01962659
5438.00   1.01148844   0.01942730
5440.00   1.00435138   0.01954769
5442.00   1.03727508   0.01983022
5444.00   0.97363418   0.01983946
5446.00   1.00433958   0.02004038
5448.00   1.01806331   0.02008801
5450.00   0.98607939   0.01990046
5452.00   1.01857996   0.02024882
5454.00   1.00797260   0.02050615
5456.00   0.92684221   0.02250772
5458.00   0.96368009   0.02475390
5460.00   0.99019593   0.02539646
5462.00   0.95463789   0.02427655
5464.00   0.97204387   0.02337443
5466.00   0.93803942   0.02256233
5468.00   0.96065891   0.02198192
5470.00   0.93626505   0.02114610
5472.00   0.93658614   0.02083887
5474.00   0.89998299   0.02016672
5476.00   0.88650054   0.02031740
5478.00   0.92002636   0.02062813
5480.00   0.86647695   0.02058811
5482.00   0.85971975   0.02061238
5484.00   0.82025015   0.02023325
5486.00   0.87670285   0.02049188
5488.00   0.86814231   0.02032896
5490.00   0.82247949   0.02005027
5492.00   0.87667620   0.02003079
5494.00   0.85949236   0.02009112
5496.00   0.83097798   0.01977154
5498.00   0.86568898   0.02002171
5500.00   0.85727179   0.02007154
5502.00   0.83850074   0.01972996
5504.00   0.85523939   0.01995185
5506.00   0.89798355   0.02031451
5508.00   0.88426846   0.02040164
5510.00   0.91303933   0.02060605
5512.00   0.91448611   0.02071292
5514.00   0.92820072   0.02089446
5516.00   0.97586870   0.02115379
5518.00   0.91949832   0.02108881
5520.00   0.92108488   0.02134681
5522.00   0.92775381   0.02119357
5524.00   0.93774158   0.02125534
5526.00   1.01732433   0.02156827
5528.00   1.01967025   0.02146073
5530.00   1.03061521   0.02156743
5532.00   1.01622355   0.02161914
5534.00   1.00854695   0.02166842
5536.00   1.05260050   0.02174884
5538.00   1.07041728   0.02196420
5540.00   1.08677149   0.03843401
5542.00   1.08595479   0.03796830
5544.00   1.10716069   0.03776787
5546.00   1.10773027   0.03748694
5548.00   1.12934327   0.03718135
5550.00   1.14272881   0.03684733
5552.00   1.12024343   0.03646673
5554.00   1.14017642   0.03616462
5556.00   1.18073046   0.03609854
5558.00   1.16229737   0.03589085
5560.00   1.13075519   0.03580068
5562.00   1.16626990   0.03622358
5564.00   1.20950794   0.03650048
5566.00   1.19711196   0.03675150
5568.00   1.19905245   0.03731987
5570.00   1.21937239   0.03813830
5572.00   1.22162116   0.03897523
5574.00   1.23231184   0.04031749
5576.00   1.17124546   0.04114266
5578.00   1.15191889   0.04120652
5580.00   1.20607364   0.04043619
5582.00   1.21793687   0.03879710
5584.00   1.18918419   0.03639613
5586.00   1.18679845   0.03418978
5588.00   1.19369340   0.03268983
5590.00   1.19067502   0.03200503
5592.00   1.18576658   0.03171961
5594.00   1.20573223   0.03170832
5596.00   1.22172439   0.03167352
5598.00   1.20701087   0.03145292
5600.00   1.16988790   0.03111249
5602.00   1.20109403   0.03100468
5604.00   1.22984302   0.03105636
5606.00   1.23459065   0.03085542
5608.00   1.22430098   0.03052127
5610.00   1.22845173   0.03044428
5612.00   1.27260292   0.03067965
5614.00   1.25655460   0.03038161
5616.00   1.23847187   0.03003681
5618.00   1.24077952   0.02990133
5620.00   1.25290763   0.02988490
5622.00   1.27868629   0.02977766
5624.00   1.28317964   0.02958711
5626.00   1.27889335   0.02943395
5628.00   1.27160645   0.02929969
5630.00   1.25803745   0.02899072
5632.00   1.27884758   0.02891021
5634.00   1.27456713   0.02879093
5636.00   1.26397431   0.02858020
5638.00   1.26172411   0.02834679
5640.00   1.26076472   0.02837411
5642.00   1.24360549   0.02820061
5644.00   1.21387255   0.02781989
5646.00   1.20785081   0.02755896
5648.00   1.23719680   0.02760415
5650.00   1.21922123   0.02738253
5652.00   1.17792654   0.02704429
5654.00   1.16742826   0.02692115
5656.00   1.17678583   0.02695614
5658.00   1.16557372   0.02687573
5660.00   1.16380501   0.02679165
5662.00   1.18166697   0.02681390
5664.00   1.19788182   0.02696035
5666.00   1.19921625   0.02712881
5668.00   1.19047642   0.02718017
5670.00   1.19772041   0.02734428
5672.00   1.18930149   0.02752705
5674.00   1.19996631   0.02775173
5676.00   1.23069382   0.02799999
5678.00   1.22838497   0.02820547
5680.00   1.21283185   0.02843068
5682.00   1.22458589   0.02879322
5684.00   1.24193919   0.02916920
5686.00   1.23948181   0.02934715
5688.00   1.23563766   0.02922659
5690.00   1.22093213   0.02888287
5692.00   1.20537543   0.02845648
5694.00   1.20119393   0.02795143
5696.00   1.21782124   0.02738254
5698.00   1.25098860   0.02707832
5700.00   1.26946342   0.02682224
5702.00   1.27924359   0.02661898
5704.00   1.28051579   0.02642713
5706.00   1.27691150   0.02622412
5708.00   1.30773628   0.02615623
5710.00   1.30701625   0.02605561
5712.00   1.30561841   0.02596238
5714.00   1.30892706   0.02587874
5716.00   1.29946947   0.02576141
5718.00   1.29580212   0.02556108
5720.00   1.30980742   0.02548224
5722.00   1.30100501   0.02539165
5724.00   1.26925361   0.02521307
5726.00   1.27572381   0.02506960
5728.00   1.28538835   0.02504683
5730.00   1.27478802   0.02491650
5732.00   1.26075363   0.02476493
5734.00   1.26234102   0.02469752
5736.00   1.26280928   0.02460082
5738.00   1.25646019   0.02449450
5740.00   1.24352574   0.02441171
5742.00   1.24280918   0.02437391
5744.00   1.25961316   0.02436511
5746.00   1.23693025   0.02423926
5748.00   1.20534956   0.02406901
5750.00   1.20462382   0.02403574
5752.00   1.21349680   0.02403269
5754.00   1.18358767   0.02385529
5756.00   1.16833985   0.02383073
5758.00   1.18775654   0.02390254
5760.00   1.18334913   0.02393984
5762.00   1.14728129   0.02396088
5764.00   1.12745798   0.02411679
5766.00   1.11054480   0.02421371
5768.00   1.10075414   0.02426455
5770.00   1.08579981   0.02416519
5772.00   1.06746423   0.02392780
5774.00   1.06287658   0.02372240
5776.00   1.06868076   0.02342339
5778.00   1.06069314   0.02303977
5780.00   1.03821611   0.02273955
5782.00   1.01476538   0.02266940
5784.00   1.02633214   0.02285067
5786.00   1.01090026   0.02299449
5788.00   0.98871756   0.02307653
5790.00   0.97773218   0.02313812
5792.00   0.98277718   0.02316906
5794.00   0.95584202   0.02279453
5796.00   0.96364880   0.02248536
5798.00   0.96392828   0.02215540
5800.00   0.95808268   0.02187917
5802.00   0.97320682   0.02181852
5804.00   0.94415778   0.02163211
5806.00   0.95780921   0.02167469
5808.00   0.96827459   0.02172919
5810.00   0.96048975   0.02169666
5812.00   0.96741563   0.02167262
5814.00   0.97206706   0.02171024
5816.00   0.98669738   0.02176881
5818.00   0.98324996   0.02177017
5820.00   0.95364219   0.02168690
5822.00   0.93501705   0.02159116
5824.00   0.96237373   0.02167659
5826.00   0.98146296   0.02175887
5828.00   0.97550637   0.02173231
5830.00   0.95460558   0.02161825
5832.00   0.96642226   0.02171450
5834.00   0.96897101   0.02173048
5836.00   0.98026896   0.02183301
5838.00   0.99446076   0.02198873
5840.00   1.00263321   0.02210387
5842.00   1.01527405   0.02213793
5844.00   1.00938976   0.02214502
5846.00   0.99952918   0.02216656
5848.00   0.99857402   0.02222020
5850.00   1.01011837   0.02229160
5852.00   1.03427756   0.02245906
5854.00   1.03231370   0.02247404
5856.00   1.03308153   0.02254301
5858.00   1.04922044   0.02272861
5860.00   1.06248426   0.02288386
5862.00   1.05414832   0.02293976
5864.00   1.06129587   0.02305954
5866.00   1.08317792   0.02324494
5868.00   1.10143852   0.02341511
5870.00   1.08597302   0.02342300
5872.00   1.10178757   0.02343419
5874.00   1.10872078   0.02348895
5876.00   1.10698700   0.02362802
5878.00   1.10274112   0.02393100
5880.00   1.07622516   0.02451691
5882.00   1.10294116   0.02591617
5884.00   1.11150873   0.02806941
5886.00   1.10100186   0.03071384
5888.00   1.09426153   0.03338335
5890.00   1.08692849   0.03525011
5892.00   1.10382450   0.03651627
5894.00   1.11214554   0.03666587
5896.00   1.11623871   0.03538207
5898.00   1.14420664   0.03270402
5900.00   1.16127741   0.03017232
5902.00   1.17324996   0.02772384
5904.00   1.18557227   0.02543060
5906.00   1.19966352   0.02374986
5908.00   1.20762098   0.02349506
5910.00   1.21418619   0.02366103
5912.00   1.20790112   0.02372359
5914.00   1.20076191   0.02370061
5916.00   1.20649719   0.02373277
5918.00   1.22862756   0.02386974
5920.00   1.22337615   0.02387176
5922.00   1.22929037   0.02391911
5924.00   1.23150551   0.02401097
5926.00   1.21402693   0.02408904
5928.00   1.21418536   0.02412308
5930.00   1.22395611   0.02413448
5932.00   1.24153090   0.02413318
5934.00   1.24615049   0.02406209
5936.00   1.22548342   0.02387884
5938.00   1.20673192   0.02363157
5940.00   1.18337870   0.02334856
5942.00   1.14554799   0.02300232
5944.00   1.10696697   0.02267206
5946.00   1.09433424   0.02253637
5948.00   1.10202539   0.02252837
5950.00   1.14794576   0.02281474
5952.00   1.17760265   0.02308375
5954.00   1.19033253   0.02323063
5956.00   1.24907005   0.02345681
5958.00   1.28894198   0.02367622
5960.00   1.29111993   0.02371844
5962.00   1.27821648   0.02359661
5964.00   1.27745056   0.02346002
5966.00   1.30271900   0.02359218
5968.00   1.30581009   0.02363784
5970.00   1.29396546   0.02360313
5972.00   1.28471315   0.02355616
5974.00   1.29054153   0.02356327
5976.00   1.27474272   0.02349330
5978.00   1.29585981   0.02356192
5980.00   1.32466853   0.02365649
5982.00   1.33487988   0.02365430
5984.00   1.31648028   0.02349016
5986.00   1.31011319   0.02339780
5988.00   1.29344165   0.02332904
5990.00   1.30025351   0.02332832
5992.00   1.32372510   0.02337678
5994.00   1.32625067   0.02340425
5996.00   1.35015631   0.02345025
5998.00   1.32912195   0.02338913
6000.00   1.31254995   0.02335584
6002.00   1.32626903   0.02339444
6004.00   1.33117974   0.02335560
6006.00   1.32092512   0.02318879
6008.00   1.32087421   0.02309046
6010.00   1.31804585   0.02303126
6012.00   1.30885077   0.02298719
6014.00   1.32376373   0.02304172
6016.00   1.33324420   0.02309058
6018.00   1.32483160   0.02302470
6020.00   1.31060088   0.02291099
6022.00   1.30625391   0.02285608
6024.00   1.31195652   0.02288220
6026.00   1.31213272   0.02288364
6028.00   1.31182373   0.02284800
6030.00   1.31163132   0.02280015
6032.00   1.30539834   0.02275730
6034.00   1.29218626   0.02266474
6036.00   1.29188144   0.02260369
6038.00   1.28183544   0.02250584
6040.00   1.26665294   0.02241167
6042.00   1.26886690   0.02241849
6044.00   1.24158704   0.02230444
6046.00   1.24103796   0.02224512
6048.00   1.25753868   0.02223774
6050.00   1.26352119   0.02221283
6052.00   1.23386729   0.02209861
6054.00   1.23901296   0.02212986
6056.00   1.25962400   0.02218205
6058.00   1.26318932   0.02213886
6060.00   1.23799574   0.02199343
6062.00   1.22333682   0.02193018
6064.00   1.22323418   0.02196189
6066.00   1.23055124   0.02196328
6068.00   1.23524666   0.02190860
6070.00   1.22572935   0.02181271
6072.00   1.20877683   0.02176979
6074.00   1.20955527   0.02176991
6076.00   1.20756388   0.02168731
6078.00   1.19866800   0.02158380
6080.00   1.19093263   0.02158701
6082.00   1.18656814   0.02150722
6084.00   1.17691445   0.02147714
6086.00   1.15801096   0.02136304
6088.00   1.13882744   0.02118959
6090.00   1.13437665   0.02114404
6092.00   1.09785128   0.02101026
6094.00   1.08254468   0.02092888
6096.00   1.07617688   0.02089388
6098.00   1.06319952   0.02085701
6100.00   1.03777301   0.02073619
6102.00   0.99758071   0.02057512
6104.00   0.97687268   0.02054762
6106.00   0.97161436   0.02067100
6108.00   0.96515208   0.02083482
6110.00   0.93243378   0.02080780
6112.00   0.90769053   0.02080609
6114.00   0.87639427   0.02066206
6116.00   0.85185432   0.02039149
6118.00   0.84735566   0.02008793
6120.00   0.82745117   0.01963320
6122.00   0.81626087   0.01928160
6124.00   0.79415959   0.01893489
6126.00   0.76223427   0.01859923
6128.00   0.73525900   0.01834684
6130.00   0.72121096   0.01815773
6132.00   0.71476954   0.01808950
6134.00   0.69533092   0.01794374
6136.00   0.66354078   0.01769312
6138.00   0.64172661   0.01750133
6140.00   0.64034003   0.01744675
6142.00   0.63281512   0.01738910
6144.00   0.62199593   0.01731646
6146.00   0.61008495   0.01720788
6148.00   0.58707684   0.01698279
6150.00   0.57605761   0.01691395
6152.00   0.57381779   0.01691915
6154.00   0.57173568   0.01695359
6156.00   0.56587821   0.01699854
6158.00   0.55481648   0.01705275
6160.00   0.53793532   0.01690147
6162.00   0.53366429   0.01673650
6164.00   0.53064817   0.01657414
6166.00   0.51283860   0.01636275
6168.00   0.50791055   0.01611534
6170.00   0.51310068   0.01595040
6172.00   0.51578492   0.01586682
6174.00   0.51188374   0.01581784
6176.00   0.50445604   0.01571314
6178.00   0.50848752   0.01566170
6180.00   0.51359439   0.01565659
6182.00   0.51659632   0.01567918
6184.00   0.51531422   0.01567918
6186.00   0.50673360   0.01557644
6188.00   0.52256197   0.01562525
6190.00   0.53841037   0.01573586
6192.00   0.53962106   0.01577551
6194.00   0.52811360   0.01571145
6196.00   0.52969968   0.01571368
6198.00   0.54028934   0.01581977
6200.00   0.54513347   0.01585424
6202.00   0.55408388   0.01591074
6204.00   0.57110047   0.01605544
6206.00   0.56353784   0.01610710
6208.00   0.56646770   0.01615924
6210.00   0.58052969   0.01622382
6212.00   0.59299308   0.01625651
6214.00   0.59480625   0.01624220
6216.00   0.61575395   0.01627965
6218.00   0.64248061   0.01640817
6220.00   0.65539902   0.01652970
6222.00   0.65347284   0.01659173
6224.00   0.65183693   0.01660223
6226.00   0.66939956   0.01671041
6228.00   0.68392569   0.01683732
6230.00   0.69259220   0.01700838
6232.00   0.70429087   0.01726672
6234.00   0.73640281   0.01764153
6236.00   0.74357206   0.01788230
6238.00   0.74741417   0.01798637
6240.00   0.76071876   0.01804964
6242.00   0.78321165   0.01809665
6244.00   0.79494596   0.01798457
6246.00   0.79895562   0.01785454
6248.00   0.80767518   0.01781850
6250.00   0.82870460   0.01793104
6252.00   0.85393476   0.01814651
6254.00   0.84883195   0.01831740
6256.00   0.84992337   0.01845668
6258.00   0.86147624   0.01862344
6260.00   0.87443733   0.01874994
6262.00   0.88549811   0.01875514
6264.00   0.90435213   0.01869648
6266.00   0.92193937   0.01870341
6268.00   0.93593997   0.01872542
6270.00   0.94838744   0.01877435
6272.00   0.95846075   0.01887856
6274.00   0.96958685   0.01898613
6276.00   0.98034114   0.01904382
6278.00   0.99601108   0.01919260
6280.00   1.01016963   0.01940814
6282.00   1.00784004   0.01948857
6284.00   1.00362313   0.01942867
6286.00   1.01037073   0.01943372
6288.00   1.02884185   0.01956149
6290.00   1.05392063   0.01977946
6292.00   1.07298195   0.01995682
6294.00   1.07125342   0.02024093
6296.00   1.08494914   0.02082227
6298.00   1.10212374   0.02144025
6300.00   1.10338938   0.02179902
6302.00   1.10341370   0.02194144
6304.00   1.11909151   0.02182856
6306.00   1.12411690   0.02136788
6308.00   1.12453508   0.02077448
6310.00   1.14127016   0.02040453
6312.00   1.13920009   0.02019365
6314.00   1.16462815   0.02013191
6316.00   1.18432188   0.02010614
6318.00   1.18470061   0.02004948
6320.00   1.17623103   0.01997437
6322.00   1.18306220   0.02006106
6324.00   1.19112289   0.02016268
6326.00   1.20131302   0.02026102
6328.00   1.21066046   0.02032920
6330.00   1.21226907   0.02031704
6332.00   1.23177755   0.02038055
6334.00   1.23455667   0.02035044
6336.00   1.22412813   0.02021188
6338.00   1.21278632   0.02003543
6340.00   1.21551883   0.02000208
6342.00   1.21564519   0.02001148
6344.00   1.22076118   0.02006593
6346.00   1.22833979   0.02010804
6348.00   1.23511350   0.02011693
6350.00   1.25123882   0.02024330
6352.00   1.27035880   0.02037469
6354.00   1.26758945   0.02039408
6356.00   1.25274837   0.02036095
6358.00   1.24979079   0.02041690
6360.00   1.25802886   0.02066651
6362.00   1.26097810   0.02073453
6364.00   1.26224744   0.02068812
6366.00   1.26119387   0.02056179
6368.00   1.25055873   0.02033169
6370.00   1.25451720   0.02018796
6372.00   1.26875830   0.02007761
6374.00   1.26858723   0.01995092
6376.00   1.24904454   0.01984324
6378.00   1.23978806   0.01990967
6380.00   1.25016785   0.02000142
6382.00   1.25487292   0.02005198
6384.00   1.25061619   0.02003543
6386.00   1.24394238   0.01996787
6388.00   1.24614441   0.01989945
6390.00   1.26144695   0.01995388
6392.00   1.26878560   0.01994845
6394.00   1.26561487   0.01987463
6396.00   1.25816154   0.01980140
6398.00   1.27000582   0.01984726
6400.00   1.27981615   0.01991124
6402.00   1.27768159   0.01988919
6404.00   1.27527249   0.01982784
6406.00   1.28902161   0.01985403
6408.00   1.29539096   0.01994846
6410.00   1.28976309   0.01994636
6412.00   1.28148854   0.01990423
6414.00   1.27609742   0.01987589
6416.00   1.27808154   0.01990784
6418.00   1.27918100   0.01982144
6420.00   1.26596105   0.01971035
6422.00   1.26787889   0.01972558
6424.00   1.28773689   0.01983874
6426.00   1.27966321   0.01978538
6428.00   1.26494205   0.01965868
6430.00   1.27397633   0.01965619
6432.00   1.29069078   0.01971863
6434.00   1.29452217   0.01974167
6436.00   1.28138483   0.01966833
6438.00   1.27020347   0.01956200
6440.00   1.27175939   0.01954714
6442.00   1.27877843   0.01959718
6444.00   1.27950108   0.01961387
6446.00   1.26686490   0.01953115
6448.00   1.26043558   0.01953688
6450.00   1.26025379   0.01954780
6452.00   1.25778222   0.01949493
6454.00   1.24360144   0.01936066
6456.00   1.22528684   0.01925479
6458.00   1.22315586   0.01930997
6460.00   1.23639357   0.01942220
6462.00   1.24302828   0.01948235
6464.00   1.21530271   0.01945426
6466.00   1.22395229   0.01950965
6468.00   1.22805166   0.01949962
6470.00   1.22097003   0.01939724
6472.00   1.21019638   0.01925534
6474.00   1.20809877   0.01916081
6476.00   1.21266460   0.01909150
6478.00   1.21797490   0.01902269
6480.00   1.21684229   0.01896825
6482.00   1.20445395   0.01891996
6484.00   1.18069875   0.01880914
6486.00   1.18952060   0.01881445
6488.00   1.19854438   0.01883362
6490.00   1.19537532   0.01883276
6492.00   1.18358457   0.01884417
6494.00   1.18123090   0.01894044
6496.00   1.18210208   0.01905548
6498.00   1.17012262   0.01912169
6500.00   1.15558159   0.01913401
6502.00   1.15795720   0.01911096
6504.00   1.18134868   0.01909530
6506.00   1.18386400   0.01893532
6508.00   1.17796588   0.01880258
6510.00   1.16735375   0.01871009
6512.00   1.14673579   0.01851614
6514.00   1.14640844   0.01840326
6516.00   1.15403104   0.01841775
6518.00   1.16816413   0.01852614
6520.00   1.17907429   0.01861168
6522.00   1.16611183   0.01851847
6524.00   1.16167486   0.01855316
6526.00   1.16476011   0.01858704
6528.00   1.16328728   0.01861206
6530.00   1.14898920   0.01863364
6532.00   1.13608170   0.01857749
6534.00   1.17279232   0.01871830
6536.00   1.17210817   0.01871765
6538.00   1.14623225   0.01858694
6540.00   1.14237452   0.01848804
6542.00   1.13350248   0.01839085
6544.00   1.14041913   0.01838013
6546.00   1.14199018   0.01839733
6548.00   1.13022423   0.01839574
6550.00   1.11324537   0.01835868
6552.00   1.13257790   0.01835749
6554.00   1.13478768   0.01837372
6556.00   1.12035990   0.01833323
6558.00   1.10849798   0.01823566
6560.00   1.11682618   0.01813514
6562.00   1.12219608   0.01814283
6564.00   1.11491263   0.01813736
6566.00   1.10549760   0.01809168
6568.00   1.10399592   0.01803794
6570.00   1.10358679   0.01805244
6572.00   1.09751117   0.01806186
6574.00   1.09374273   0.01810237
6576.00   1.09432209   0.01814571
6578.00   1.09958565   0.01815528
6580.00   1.10264719   0.01810209
6582.00   1.08882177   0.01798495
6584.00   1.09033418   0.01790924
6586.00   1.09672356   0.01783368
6588.00   1.08475280   0.01769051
6590.00   1.07775307   0.01771003
6592.00   1.07708538   0.01776359
6594.00   1.08192253   0.01777818
6596.00   1.08270895   0.01773467
6598.00   1.07202971   0.01769744
6600.00   1.07243812   0.01776895
6602.00   1.08227885   0.01783955
6604.00   1.08158004   0.01784021
6606.00   1.07006299   0.01778323
6608.00   1.07088614   0.01775395
6610.00   1.08056736   0.01771439
6612.00   1.08259594   0.01760781
6614.00   1.08044708   0.01756201
6616.00   1.08124888   0.01769050
6618.00   1.08709896   0.01799898
6620.00   1.06586456   0.01812419
6622.00   1.04875040   0.01813829
6624.00   1.03896511   0.01802925
6626.00   1.03513229   0.01781403
6628.00   1.04611742   0.01763157
6630.00   1.06811452   0.01754840
6632.00   1.07299447   0.01747000
6634.00   1.06585300   0.01741965
6636.00   1.06515598   0.01746854
6638.00   1.06228197   0.01754398
6640.00   1.05357373   0.01760616
6642.00   1.04683971   0.01761225
6644.00   1.04541922   0.01755969
6646.00   1.04505765   0.01746791
6648.00   1.02290118   0.01727914
6650.00   1.02319658   0.01711214
6652.00   1.03281784   0.01707815
6654.00   1.03884208   0.01719552
6656.00   1.04056263   0.01735571
6658.00   1.04095423   0.01725288
6660.00   1.02789390   0.01709822
6662.00   1.01662314   0.01702016
6664.00   1.01454031   0.01702345
6666.00   1.00843132   0.01699029
6668.00   1.01716852   0.01699118
6670.00   1.02602816   0.01700018
6672.00   1.02482331   0.01692913
6674.00   1.01495910   0.01687960
6676.00   1.01676285   0.01769810
6678.00   1.00133455   0.01762645
6680.00   1.00880933   0.01823463
6682.00   1.02373874   0.01891220
6684.00   1.00580978   0.01822361
6686.00   1.00726521   0.01714815
6688.00   1.00919580   0.01674060
6690.00   1.00912869   0.01676336
6692.00   1.00579536   0.01681812
6694.00   1.00078452   0.01677675
6696.00   0.99494857   0.01675042
6698.00   0.99363011   0.01674082
6700.00   1.00076568   0.01677644
6702.00   1.00965369   0.01683749
6704.00   1.00541890   0.01686055
6706.00   1.00630653   0.01686421
6708.00   0.99620658   0.01682623
6710.00   0.99483389   0.01681257
6712.00   1.00749719   0.01684169
6714.00   0.99965459   0.01678940
6716.00   0.99332303   0.01669644
6718.00   0.99533731   0.01666854
6720.00   0.99531132   0.01665867
6722.00   0.98582333   0.01659959
6724.00   0.98635930   0.01657794
6726.00   0.99001771   0.01659431
6728.00   0.99474192   0.01661960
6730.00   0.99075490   0.01660876
6732.00   0.97477150   0.01654269
6734.00   0.98504144   0.01658967
6736.00   0.98514414   0.01656044
6738.00   0.98857164   0.01656582
6740.00   0.99461704   0.01659306
6742.00   0.98310691   0.01648241
6744.00   0.97565395   0.01648478
6746.00   0.98413140   0.01650167
6748.00   0.98969477   0.01650323
6750.00   0.98380142   0.01647747
6752.00   0.97782487   0.01642759
6754.00   0.96894723   0.01636302
6756.00   0.96066761   0.01631261
6758.00   0.96255046   0.01630253
6760.00   0.97397226   0.01632361
6762.00   0.97690034   0.01633825
6764.00   0.96274549   0.01628830
6766.00   0.95159984   0.01625252
6768.00   0.95080060   0.01622922
6770.00   0.95596772   0.01620537
6772.00   0.95379704   0.01627711
6774.00   0.94484383   0.01628400
6776.00   0.93588275   0.01627158
6778.00   0.93516475   0.01627187
6780.00   0.94454765   0.01626644
6782.00   0.95332021   0.01625671
6784.00   0.93852311   0.01613946
6786.00   0.92761654   0.01604037
6788.00   0.93043691   0.01603961
6790.00   0.93470544   0.01612159
6792.00   0.93477505   0.01613676
6794.00   0.92751604   0.01603841
6796.00   0.91775465   0.01593447
6798.00   0.91303682   0.01589905
6800.00   0.92906386   0.01592271
6802.00   0.91985196   0.01588136
6804.00   0.91343236   0.01583085
6806.00   0.90738410   0.01577985
6808.00   0.90022683   0.01575276
6810.00   0.90633327   0.01576751
6812.00   0.90588731   0.01573909
6814.00   0.90085298   0.01569705
6816.00   0.89830279   0.01569359
6818.00   0.90084696   0.01574354
6820.00   0.89416081   0.01573482
6822.00   0.88318270   0.01577295
6824.00   0.88037753   0.01596437
6826.00   0.88729882   0.01627659
6828.00   0.89651567   0.01657544
6830.00   0.88954180   0.01674484
6832.00   0.89101940   0.01684914
6834.00   0.88630766   0.01673660
6836.00   0.87333339   0.01642811
6838.00   0.86656600   0.01614701
6840.00   0.87650377   0.01598725
6842.00   0.88441485   0.01587200
6844.00   0.88380575   0.01581741
6846.00   0.88063717   0.01582345
6848.00   0.89393550   0.01584405
6850.00   0.88821870   0.01571898
6852.00   0.88399571   0.01562890
6854.00   0.88501316   0.01561049
6856.00   0.88887620   0.01569419
6858.00   0.89458293   0.01601540
6860.00   0.90967029   0.01650773
6862.00   0.90236503   0.01675793
6864.00   0.88053012   0.01689410
6866.00   0.87172937   0.01732167
6868.00   0.90534490   0.01851903
6870.00   0.92592382   0.01936872
6872.00   0.91113204   0.01934599
6874.00   0.88235527   0.01867362
6876.00   0.88267380   0.01805679
6878.00   0.88762695   0.01748147
6880.00   0.88951015   0.01695635
6882.00   0.87999773   0.01654336
6884.00   0.86780834   0.01637331
6886.00   0.87815255   0.01660864
6888.00   0.89609057   0.01694958
6890.00   0.88548642   0.01700847
6892.00   0.86932367   0.01692182
6894.00   0.87046981   0.01687360
6896.00   0.88711977   0.01688751
6898.00   0.88541031   0.01686019
6900.00   0.88642198   0.01680759
6902.00   0.89110804   0.01671123
6904.00   0.89333087   0.01656970
6906.00   0.89815515   0.01651715
6908.00   0.89614391   0.01650459
6910.00   0.89128464   0.01649031
6912.00   0.88663149   0.01643243
6914.00   0.88521773   0.01633900
6916.00   0.88033217   0.01627550
6918.00   0.87449551   0.01631994
6920.00   0.86618733   0.01634004
6922.00   0.86118364   0.01632103
6924.00   0.86810714   0.01632827
6926.00   0.86328697   0.01624063
6928.00   0.85606927   0.01598526
6930.00   0.85703492   0.01575743
6932.00   0.86254430   0.01568463
6934.00   0.86188692   0.01576772
6936.00   0.85870075   0.01578473
6938.00   0.85293078   0.01580983
6940.00   0.85467976   0.01586879
6942.00   0.86336964   0.01596221
6944.00   0.85412550   0.01604502
6946.00   0.84920233   0.01614906
6948.00   0.84992582   0.01619217
6950.00   0.85486794   0.01619649
6952.00   0.85964280   0.01615645
6954.00   0.86372894   0.01596350
6956.00   0.86280316   0.01575046
6958.00   0.86070651   0.01560376
6960.00   0.86104590   0.01555080
6962.00   0.86220378   0.01552927
6964.00   0.84681010   0.01514670
6966.00   0.84086972   0.01662858
6968.00   0.84556228   0.01527873
6970.00   0.84457779   0.01533242
6972.00   0.84652823   0.01548277
6974.00   0.83558869   0.01563298
6976.00   0.83382785   0.01561595
6978.00   0.82722235   0.01555837
6980.00   0.81965423   0.01553451
6982.00   0.84676075   0.01707571
6984.00   0.84963435   0.01664524
6986.00   0.85615015   0.01628131
6988.00   0.86109656   0.01585632
6990.00   0.85889071   0.01552287
6992.00   0.85060644   0.01545879
6994.00   0.84812808   0.01546454
6996.00   0.85195541   0.01546679
6998.00   0.85850590   0.01548398
7000.00   0.86299491   0.01553621
7002.00   0.86542600   0.01554781
7004.00   0.85027081   0.01545767
7006.00   0.84095329   0.01546892
7008.00   0.84884214   0.01556623
7010.00   0.86556596   0.01559415
7012.00   0.85084009   0.01548417
7014.00   0.83525306   0.01541149
7016.00   0.83590978   0.01536075
7018.00   0.84449786   0.01529105
7020.00   0.83486682   0.01516296
7022.00   0.83845735   0.01521914
7024.00   0.85016274   0.01530292
7026.00   0.85289448   0.01535467
7028.00   0.84385544   0.01536189
7030.00   0.84048718   0.01534283
7032.00   0.82858944   0.01520420
7034.00   0.82335520   0.01512529
7036.00   0.82765985   0.01516074
7038.00   0.83758020   0.01527142
7040.00   0.84762317   0.01533845
7042.00   0.84057736   0.01535882
7044.00   0.83686852   0.01543013
7046.00   0.83726698   0.01547416
7048.00   0.83646846   0.01543054
7050.00   0.83928210   0.01549526
7052.00   0.83694881   0.01549767
7054.00   0.83953238   0.01542020
7056.00   0.83926582   0.01528659
7058.00   0.82443285   0.01516269
7060.00   0.83923292   0.01520267
7062.00   0.83575219   0.01523633
7064.00   0.83211422   0.01526605
7066.00   0.83403653   0.01529236
7068.00   0.82759243   0.01528972
7070.00   0.84384722   0.01536018
7072.00   0.83917540   0.01529238
7074.00   0.82977062   0.01517296
7076.00   0.82966900   0.01511183
7078.00   0.83292657   0.01514606
7080.00   0.83004314   0.01517266
7082.00   0.83208990   0.01519112
7084.00   0.83849555   0.01526480
7086.00   0.84464455   0.01538940
7088.00   0.82770044   0.01529955
7090.00   0.83537346   0.01534080
7092.00   0.83988541   0.01533330
7094.00   0.83427310   0.01525551
7096.00   0.82445842   0.01516382
7098.00   0.83824319   0.01517735
7100.00   0.83595604   0.01514146
7102.00   0.82666445   0.01507302
7104.00   0.81980354   0.01502472
7106.00   0.82237864   0.01505607
7108.00   0.82075435   0.01515347
7110.00   0.82607931   0.01516719
7112.00   0.82436538   0.01511884
7114.00   0.82050675   0.01507324
7116.00   0.83344156   0.01508845
7118.00   0.84188658   0.01511102
7120.00   0.83989519   0.01515503
7122.00   0.83030683   0.01516471
7124.00   0.81874400   0.01511360
7126.00   0.81439191   0.01505302
7128.00   0.82276696   0.01517282
7130.00   0.82927412   0.01519838
7132.00   0.83736771   0.01519281
7134.00   0.84742421   0.01524051
7136.00   0.83570439   0.01520202
7138.00   0.82471400   0.01514382
7140.00   0.81725150   0.01511915
7142.00   0.82116526   0.01517591
7144.00   0.83698267   0.01530265
7146.00   0.82916689   0.01532981
7148.00   0.82680625   0.01531835
7150.00   0.82706118   0.01522969
7152.00   0.82563335   0.01512127
7154.00   0.82139230   0.01509183
7156.00   0.82681865   0.01511900
7158.00   0.82120901   0.01508517
7160.00   0.82989770   0.01514720
7162.00   0.84574968   0.01525830
7164.00   0.82984477   0.01518922
7166.00   0.82574934   0.01530566
7168.00   0.83046216   0.01543499
7170.00   0.82980758   0.01552209
7172.00   0.82360369   0.01561994
7174.00   0.84127027   0.01591237
7176.00   0.83555013   0.01588342
7178.00   0.84176707   0.01588363
7180.00   0.83538175   0.01580850
7182.00   0.80619282   0.01562900
7184.00   0.82214421   0.01585233
7186.00   0.84128475   0.01613473
7188.00   0.83180165   0.01604167
7190.00   0.81578225   0.01576723
7192.00   0.82605338   0.01572021
7194.00   0.82234049   0.01577039
7196.00   0.82437497   0.01575076
7198.00   0.83136278   0.01578792
7200.00   0.83928937   0.01586694
7202.00   0.83940715   0.01587850
7204.00   0.83328295   0.01593255
7206.00   0.83041018   0.01581795
7208.00   0.82963389   0.01560735
7210.00   0.82352638   0.01534869
7212.00   0.80774897   0.01503359
7214.00   0.81590098   0.01494047
7216.00   0.82482988   0.01500050
7218.00   0.82397026   0.01505297
7220.00   0.81729001   0.01504188
7222.00   0.82666320   0.01511022
7224.00   0.83429152   0.01517340
7226.00   0.81892079   0.01509437
7228.00   0.80440718   0.01501812
7230.00   0.81188798   0.01514867
7232.00   0.81621188   0.01553699
7234.00   0.80530959   0.01623682
7236.00   0.79433757   0.01690433
7238.00   0.79197150   0.01745754
7240.00   0.79910153   0.01797251
7242.00   0.81570691   0.01871175
7244.00   0.81441289   0.01866785
7246.00   0.81106657   0.01807388
7248.00   0.80930358   0.01730698
7250.00   0.80176085   0.01676153
7252.00   0.81396508   0.01632753
7254.00   0.82442790   0.01611537
7256.00   0.82295370   0.01589887
7258.00   0.81244016   0.01561629
7260.00   0.80892783   0.01545533
7262.00   0.79976124   0.01533702
7264.00   0.80197388   0.01537356
7266.00   0.80841708   0.01547075
7268.00   0.80776173   0.01555537
7270.00   0.78808469   0.01565525
7272.00   0.79036790   0.01654106
7274.00   0.79318959   0.01737309
7276.00   0.80306250   0.01787086
7278.00   0.82328194   0.01799646
7280.00   0.80659384   0.01778326
7282.00   0.77729672   0.01691311
7284.00   0.76335168   0.01612412
7286.00   0.76370925   0.01578104
7288.00   0.76566273   0.01580975
7290.00   0.79017448   0.01579353
7292.00   0.78898650   0.01563038
7294.00   0.76703453   0.01535244
7296.00   0.75092489   0.01513511
7298.00   0.76962680   0.01519583
7300.00   0.76669836   0.01542486
7302.00   0.77123708   0.01557547
7304.00   0.76892161   0.01559502
7306.00   0.75865841   0.01550105
7308.00   0.76292014   0.01538017
7310.00   0.77638918   0.01556873
7312.00   0.77326226   0.01610704
7314.00   0.76787394   0.01654516
7316.00   0.77492183   0.01664561
7318.00   0.79510766   0.01674751
7320.00   0.77709699   0.01635662
7322.00   0.76676863   0.01575282
7324.00   0.77006847   0.01531733
7326.00   0.77587986   0.01530265
7328.00   0.77483600   0.01544570
7330.00   0.76973432   0.01551770
7332.00   0.76739079   0.01552876
7334.00   0.77058882   0.01563997
7336.00   0.77564526   0.01599517
7338.00   0.77417636   0.01640111
7340.00   0.76784629   0.01657190
7342.00   0.76526946   0.01658217
7344.00   0.76099211   0.01638536
7346.00   0.74507970   0.01586435
7348.00   0.75874519   0.01522443
7350.00   0.75718528   0.01474422
7352.00   0.75289041   0.01464943
7354.00   0.75337380   0.01489852
7356.00   0.75164443   0.01516393
7358.00   0.73410565   0.01515952
7360.00   0.73667955   0.01519962
7362.00   0.74565691   0.01533733
7364.00   0.74757719   0.01556488
7366.00   0.75407165   0.01591067
7368.00   0.74966615   0.01604087
7370.00   0.74076825   0.01605395
7372.00   0.73576808   0.01590625
7374.00   0.73846036   0.01551466
7376.00   0.73715544   0.01481644
7378.00   0.74094599   0.01453139
7380.00   0.74816519   0.01448128
7382.00   0.75196427   0.01450337
7384.00   0.74484116   0.01450154
7386.00   0.74317122   0.01462242
7388.00   0.73651558   0.01474889
7390.00   0.74191576   0.01490036
7392.00   0.75295645   0.01501737
7394.00   0.74473333   0.01499366
7396.00   0.72631556   0.01509120
7398.00   0.73426861   0.01532324
7400.00   0.73788959   0.01545701
7402.00   0.72170180   0.01539887
7404.00   0.71254253   0.01532282
7406.00   0.71865100   0.01514237
7408.00   0.72246218   0.01477595
7410.00   0.71630269   0.01436507
7412.00   0.70581919   0.01411126
7414.00   0.71506411   0.01418230
7416.00   0.70231444   0.01412173
7418.00   0.70093566   0.01409485
7420.00   0.70792943   0.01409313
7422.00   0.70979208   0.01408274
7424.00   0.71746415   0.01420310
7426.00   0.72268635   0.01428508
7428.00   0.71929020   0.01436171
7430.00   0.71289057   0.01444634
7432.00   0.71353984   0.01454271
7434.00   0.70877069   0.01471742
7436.00   0.70217448   0.01473622
7438.00   0.70608872   0.01472790
7440.00   0.71931535   0.01474612
7442.00   0.72581023   0.01472351
7444.00   0.70696729   0.01438637
7446.00   0.70120162   0.01409354
7448.00   0.70589685   0.01399141
7450.00   0.71120358   0.01403803
7452.00   0.71143216   0.01400532
7454.00   0.71595985   0.01406777
7456.00   0.71571571   0.01411161
7458.00   0.71721840   0.01415138
7460.00   0.72360331   0.01422033
7462.00   0.72298747   0.01432283
7464.00   0.71592426   0.01437507
7466.00   0.71587306   0.01447290
7468.00   0.71778172   0.01460674
7470.00   0.70988530   0.01470060
7472.00   0.70110750   0.01469684
7474.00   0.70373291   0.01472827
7476.00   0.71188623   0.01480825
7478.00   0.71494836   0.01486297
7480.00   0.70368958   0.01480056
7482.00   0.69557363   0.01474818
7484.00   0.69752628   0.01460322
7486.00   0.68974417   0.01436168
7488.00   0.67219949   0.01409962
7490.00   0.66226226   0.01392498
7492.00   0.67248505   0.01388228
7494.00   0.66983557   0.01381040
7496.00   0.65450972   0.01368767
7498.00   0.63851762   0.01355436
7500.00   0.63720840   0.01347937
7502.00   0.62734705   0.01340439
7504.00   0.61265868   0.01330252
7506.00   0.60787803   0.01322735
7508.00   0.61672854   0.01320152
7510.00   0.61275321   0.01314291
7512.00   0.60058057   0.01311659
7514.00   0.59263128   0.01313525
7516.00   0.58863777   0.01323186
7518.00   0.58299798   0.01345833
7520.00   0.58011919   0.01389536
7522.00   0.56205350   0.01407321
7524.00   0.54752165   0.01409714
7526.00   0.54587483   0.01406750
7528.00   0.55279469   0.01399993
7530.00   0.54099709   0.01348448
7532.00   0.53837878   0.01310776
7534.00   0.53988653   0.01294061
7536.00   0.53892499   0.01289026
7538.00   0.53720516   0.01279421
7540.00   0.54285741   0.01274892
7542.00   0.54638058   0.01274555
7544.00   0.54545522   0.01274217
7546.00   0.54156303   0.01270403
7548.00   0.53826666   0.01264229
7550.00   0.53889769   0.01266325
7552.00   0.54373503   0.01274659
7554.00   0.54646206   0.01283863
7556.00   0.54454249   0.01291010
7558.00   0.54696900   0.01297923
7560.00   0.54516053   0.01296457
7562.00   0.55168337   0.01292278
7564.00   0.55841893   0.01295129
7566.00   0.55288690   0.01314353
7568.00   0.54848164   0.01350837
7570.00   0.55996114   0.01376814
7572.00   0.56193584   0.01392949
7574.00   0.55755144   0.01404182
7576.00   0.56877595   0.01412176
7578.00   0.57047170   0.01384947
7580.00   0.57064551   0.01362695
7582.00   0.56876940   0.01351156
7584.00   0.56550270   0.01345413
7586.00   0.56175083   0.01336848
7588.00   0.56221366   0.01331639
7590.00   0.55161935   0.01321106
7592.00   0.54425120   0.01349569
7594.00   0.55354494   0.01482353
7596.00   0.58069521   0.01763754
7598.00   0.58541805   0.02116648
7600.00   0.58222842   0.02441223
7602.00   0.57842594   0.02712291
7604.00   0.57538778   0.02895704
7606.00   0.57407606   0.02903502
7608.00   0.57999468   0.02773385
7610.00   0.57440740   0.02561115
7612.00   0.57905650   0.02326223
7614.00   0.61525613   0.02108220
7616.00   0.59339803   0.01816515
7618.00   0.55036432   0.01607435
7620.00   0.54134423   0.01557402
7622.00   0.56893116   0.01664979
7624.00   0.58921051   0.01847202
7626.00   0.56820279   0.02001629
7628.00   0.57494050   0.02021920
7630.00   0.57464004   0.01978874
7632.00   0.56004900   0.01931042
7634.00   0.57296854   0.01895148
7636.00   0.58514172   0.01850877
7638.00   0.58148390   0.01797981
7640.00   0.57550818   0.01748508
7642.00   0.57488966   0.01711458
7644.00   0.56734163   0.01686048
7646.00   0.58484942   0.01666375
7648.00   0.59404367   0.01647869
7650.00   0.59136134   0.01621767
7652.00   0.58980554   0.01587590
7654.00   0.61100191   0.01561690
7656.00   0.61741406   0.01551953
7658.00   0.60911691   0.01542628
7660.00   0.61017585   0.01538413
7662.00   0.63688082   0.01544227
7664.00   0.61968511   0.01512263
7666.00   0.62102741   0.01487837
7668.00   0.62312835   0.01459422
7670.00   0.62168038   0.01430795
7672.00   0.62811488   0.01419745
7674.00   0.62882620   0.01410127
7676.00   0.63648707   0.01404574
7678.00   0.64237976   0.01404412
7680.00   0.64456433   0.01408636
7682.00   0.65092427   0.01411796
7684.00   0.65334076   0.01416624
7686.00   0.65618843   0.01415465
7688.00   0.65644473   0.01414585
7690.00   0.65685278   0.01417803
7692.00   0.66606504   0.01414530
7694.00   0.65398133   0.01411783
7696.00   0.66055226   0.01430559
7698.00   0.66866827   0.01448410
7700.00   0.65789050   0.01441119
7702.00   0.66925615   0.01428808
7704.00   0.67060357   0.01429243
7706.00   0.66372901   0.01452384
7708.00   0.66418922   0.01516100
7710.00   0.68316650   0.01624200
7712.00   0.67953545   0.01726028
7714.00   0.67405891   0.01791333
7716.00   0.68170309   0.01802364
7718.00   0.69144934   0.01757130
7720.00   0.67812687   0.01673101
7722.00   0.67255419   0.01598639
7724.00   0.66263252   0.01516075
7726.00   0.66790026   0.01471112
7728.00   0.68894619   0.01473158
7730.00   0.68603516   0.01458300
7732.00   0.66871452   0.01419808
7734.00   0.65754730   0.01398256
7736.00   0.65803319   0.01400440
7738.00   0.66965681   0.01415969
7740.00   0.68861932   0.01422517
7742.00   0.67976910   0.01415792
7744.00   0.68062824   0.01477069
7746.00   0.69015723   0.01586209
7748.00   0.69326991   0.01679479
7750.00   0.67775744   0.01689805
7752.00   0.68418908   0.01700006
7754.00   0.69415933   0.01691959
7756.00   0.69930172   0.01646214
7758.00   0.69616717   0.01559286
7760.00   0.68724060   0.01515767
7762.00   0.69778639   0.01515153
7764.00   0.70555466   0.01498259
7766.00   0.70289451   0.01456717
7768.00   0.69789410   0.01438027
7770.00   0.69630265   0.01456485
7772.00   0.70448297   0.01466147
7774.00   0.71217817   0.01479402
7776.00   0.71310812   0.01501055
7778.00   0.70945024   0.01510734
7780.00   0.72051829   0.01502179
7782.00   0.72928113   0.01500051
7784.00   0.73062211   0.01495831
7786.00   0.72396535   0.01486518
7788.00   0.71527880   0.01509722
7790.00   0.71280819   0.01576740
7792.00   0.71286207   0.01623048
7794.00   0.72270852   0.01638978
7796.00   0.74323958   0.01635020
7798.00   0.73450500   0.01600173
7800.00   0.72418183   0.01526628
7802.00   0.72761917   0.01484095
7804.00   0.74053526   0.01497910
7806.00   0.74530292   0.01539222
7808.00   0.73581630   0.01544134
7810.00   0.73684531   0.01550759
7812.00   0.74455351   0.01547616
7814.00   0.75204057   0.01546729
7816.00   0.75351906   0.01584925
7818.00   0.76058483   0.01674329
7820.00   0.74695474   0.01714307
7822.00   0.73522156   0.01715820
7824.00   0.74006325   0.01695080
7826.00   0.74536467   0.01642255
7828.00   0.73859674   0.01548626
7830.00   0.73919535   0.01487604
7832.00   0.74954867   0.01475544
7834.00   0.76369405   0.01496389
7836.00   0.77425551   0.01526697
7838.00   0.76306921   0.01551664
7840.00   0.74677223   0.01562105
7842.00   0.74510121   0.01566397
7844.00   0.76273555   0.01577195
7846.00   0.76255375   0.01590329
7848.00   0.74353766   0.01647582
7850.00   0.73544306   0.01722315
7852.00   0.74080545   0.01780034
7854.00   0.74344444   0.01796701
7856.00   0.74389702   0.01810678
7858.00   0.75463885   0.01767097
7860.00   0.76053172   0.01684426
7862.00   0.75510889   0.01612064
7864.00   0.74814153   0.01614233
7866.00   0.74441856   0.01623853
7868.00   0.74181843   0.01621806
7870.00   0.74614453   0.01619866
7872.00   0.75742316   0.01625741
7874.00   0.76361847   0.01626250
7876.00   0.75904101   0.01616590
7878.00   0.75684971   0.01608313
7880.00   0.76030439   0.01608744
7882.00   0.76608628   0.01619945
7884.00   0.76401526   0.01637413
7886.00   0.75644016   0.01654451
7888.00   0.74889547   0.01659045
7890.00   0.74576896   0.01656772
7892.00   0.74708146   0.01653962
7894.00   0.74862933   0.01621881
7896.00   0.75068873   0.01560861
7898.00   0.75508052   0.01511175
7900.00   0.75498265   0.01490856
7902.00   0.73980546   0.01488322
7904.00   0.73389977   0.01483551
7906.00   0.73421985   0.01515480
7908.00   0.73555666   0.01605222
7910.00   0.73077947   0.01712800
7912.00   0.71496922   0.01760166
7914.00   0.71394521   0.01770592
7916.00   0.71291751   0.01795465
7918.00   0.70737010   0.01782937
7920.00   0.70349312   0.01708177
7922.00   0.71530867   0.01631388
7924.00   0.72438377   0.01615000
7926.00   0.72820282   0.01610328
7928.00   0.71670622   0.01597275
7930.00   0.69806606   0.01578203
7932.00   0.71136278   0.01573157
7934.00   0.72073287   0.01574130
7936.00   0.72372824   0.01591051
7938.00   0.72258741   0.01586184
7940.00   0.72278529   0.01532542
7942.00   0.71760362   0.01496460
7944.00   0.70515221   0.01595415
7946.00   0.70288152   0.01658394
7948.00   0.71189213   0.01628202
7950.00   0.71484756   0.01528963
7952.00   0.70861816   0.01521465
7954.00   0.70584816   0.01519633
7956.00   0.70250982   0.01502548
7958.00   0.69658607   0.01498976
7960.00   0.68726391   0.01572038
7962.00   0.68760604   0.01642379
7964.00   0.67997789   0.01668601
7966.00   0.68471760   0.01669000
7968.00   0.70481157   0.01652981
7970.00   0.70021772   0.01582254
7972.00   0.69327217   0.01518838
7974.00   0.68792105   0.01507177
7976.00   0.68714637   0.01531030
7978.00   0.68938857   0.01552092
7980.00   0.67454153   0.01554603
7982.00   0.67998487   0.01538473
7984.00   0.68457800   0.01508799
7986.00   0.67856693   0.01494179
7988.00   0.66849595   0.01530090
7990.00   0.66646737   0.01620435
7992.00   0.67152911   0.01663038
7994.00   0.66668111   0.01676242
7996.00   0.65921718   0.01662699
7998.00   0.67715025   0.01608069
8000.00   0.67764568   0.01502432
8002.00   0.67934674   0.01439980
8004.00   0.67393845   0.01417448
8006.00   0.66508633   0.01419565
8008.00   0.67284518   0.01443395
8010.00   0.67255330   0.01470097
8012.00   0.67674422   0.01493518
8014.00   0.67669153   0.01506156
8016.00   0.66874170   0.01507261
8018.00   0.66505045   0.01500086
8020.00   0.66243988   0.01536615
8022.00   0.65782970   0.01585578
8024.00   0.65957481   0.01620613
8026.00   0.66812211   0.01627032
8028.00   0.65062457   0.01614278
8030.00   0.64507514   0.01567394
8032.00   0.64175028   0.01494767
8034.00   0.64429051   0.01430132
8036.00   0.65851563   0.01411003
8038.00   0.65990967   0.01408090
8040.00   0.65745038   0.01402675
8042.00   0.65688854   0.01405215
8044.00   0.65574956   0.01416176
8046.00   0.64733702   0.01425931
8048.00   0.64161283   0.01436720
8050.00   0.62298298   0.01435584
8052.00   0.61431497   0.01429749
8054.00   0.62265134   0.01431332
8056.00   0.62705702   0.01450343
8058.00   0.61444360   0.01468320
8060.00   0.60771102   0.01477378
8062.00   0.60889912   0.01482125
8064.00   0.61382967   0.01482762
8066.00   0.61466932   0.01463671
8068.00   0.61963439   0.01420884
8070.00   0.62004238   0.01381366
8072.00   0.61718017   0.01360728
8074.00   0.61595553   0.01361046
8076.00   0.61995178   0.01367426
8078.00   0.61140603   0.01368335
8080.00   0.60650182   0.01368594
8082.00   0.60341567   0.01366747
8084.00   0.59382772   0.01360628
8086.00   0.59950095   0.01365557
8088.00   0.60110110   0.01374949
8090.00   0.59672314   0.01380175
8092.00   0.59535265   0.01383010
8094.00   0.60951573   0.01392608
8096.00   0.61094862   0.01404280
8098.00   0.61244452   0.01416793
8100.00   0.61079007   0.01423614
8102.00   0.60441631   0.01421501
8104.00   0.59492314   0.01412640
8106.00   0.61203593   0.01412806
8108.00   0.61683506   0.01403027
8110.00   0.61274439   0.01389894
8112.00   0.61199164   0.01384764
8114.00   0.61833811   0.01390592
8116.00   0.61056972   0.01381767
8118.00   0.60984331   0.01372099
8120.00   0.61421061   0.01369633
8122.00   0.61439258   0.01376712
8124.00   0.60880083   0.01380712
8126.00   0.61165029   0.01383608
8128.00   0.61158222   0.01384069
8130.00   0.60748434   0.01387089
8132.00   0.60857499   0.01401756
8134.00   0.61976111   0.01436162
8136.00   0.61674702   0.01436866
8138.00   0.61399144   0.01427970
8140.00   0.61796409   0.01429775
8142.00   0.61485600   0.01442627
8144.00   0.60541838   0.01439025
8146.00   0.61070895   0.01438048
8148.00   0.61564416   0.01442479
8150.00   0.60983235   0.01444894
8152.00   0.60062897   0.01428058
8154.00   0.60908705   0.01429935
8156.00   0.61451262   0.01428340
8158.00   0.61229914   0.01423502
8160.00   0.60559314   0.01426621
8162.00   0.61213493   0.01461883
8164.00   0.60349894   0.01460971
8166.00   0.58907086   0.01439255
8168.00   0.58084100   0.01420763
8170.00   0.58530354   0.01422808
8172.00   0.58339685   0.01411609
8174.00   0.56713539   0.01399356
8176.00   0.56559640   0.01435453
8178.00   0.57710892   0.01508706
8180.00   0.57631570   0.01564453
8182.00   0.55266172   0.01545265
8184.00   0.55996937   0.01542493
8186.00   0.57042831   0.01549092
8188.00   0.57015771   0.01559967
8190.00   0.57283914   0.01583199
8192.00   0.55953962   0.01587072
8194.00   0.55566281   0.01583830
8196.00   0.55124295   0.01580549
8198.00   0.54373288   0.01573182
8200.00   0.55409408   0.01542861
8202.00   0.55883867   0.01476803
8204.00   0.55915093   0.01422675
8206.00   0.55863863   0.01394345
8208.00   0.55984980   0.01385568
8210.00   0.56189823   0.01381414
8212.00   0.55227178   0.01373567
8214.00   0.55218136   0.01365868
8216.00   0.55484301   0.01358338
8218.00   0.54336959   0.01350074
8220.00   0.53254825   0.01345541
8222.00   0.51886606   0.01335452
8224.00   0.50748801   0.01334182
8226.00   0.50778085   0.01365624
8228.00   0.52702695   0.01439527
8230.00   0.51065660   0.01458235
8232.00   0.49049115   0.01406318
8234.00   0.47916201   0.01339771
8236.00   0.47646609   0.01298982
8238.00   0.46803951   0.01280328
8240.00   0.48333907   0.01284860
8242.00   0.48601189   0.01293483
8244.00   0.47474742   0.01293937
8246.00   0.46180606   0.01283076
8248.00   0.46753630   0.01268000
8250.00   0.46139503   0.01249001
8252.00   0.45297381   0.01238971
8254.00   0.44525799   0.01238519
8256.00   0.43898702   0.01241685
8258.00   0.43268502   0.01241606
8260.00   0.42529821   0.01233640
8262.00   0.42109945   0.01221789
8264.00   0.41670135   0.01209697
8266.00   0.40640375   0.01197931
8268.00   0.39404991   0.01180008
8270.00   0.40097368   0.01182172
8272.00   0.41439831   0.01231860
8274.00   0.41804859   0.01318786
8276.00   0.40337923   0.01410366
8278.00   0.39419508   0.01481820
8280.00   0.38687178   0.01522813
8282.00   0.38787392   0.01571140
8284.00   0.39296293   0.01621801
8286.00   0.38596544   0.01620951
8288.00   0.38511083   0.01569960
8290.00   0.38670421   0.01548537
8292.00   0.39006910   0.01556564
8294.00   0.39580226   0.01572434
8296.00   0.39982367   0.01579530
8298.00   0.38887075   0.01560994
8300.00   0.38446033   0.01540321
8302.00   0.39123034   0.01502033
8304.00   0.40058723   0.01429083
8306.00   0.40250477   0.01347120
8308.00   0.39722261   0.01313578
8310.00   0.38699770   0.01295923
8312.00   0.38652980   0.01290665
8314.00   0.40608463   0.01301392
8316.00   0.40625095   0.01270487
8318.00   0.40618646   0.01243908
8320.00   0.41172466   0.01240610
8322.00   0.42030001   0.01249427
8324.00   0.42463374   0.01239692
8326.00   0.42387447   0.01219732
8328.00   0.43023959   0.01214879
8330.00   0.43301407   0.01216859
8332.00   0.42450401   0.01216124
8334.00   0.41064808   0.01213912
8336.00   0.43065551   0.01247242
8338.00   0.43770754   0.01414071
8340.00   0.44241560   0.01642268
8342.00   0.45135427   0.01821264
8344.00   0.42782819   0.01831489
8346.00   0.42999294   0.01843875
8348.00   0.44057217   0.01819553
8350.00   0.44243899   0.01714713
8352.00   0.42903376   0.01526911
8354.00   0.42870072   0.01456341
8356.00   0.42851016   0.01428584
8358.00   0.42590451   0.01380596
8360.00   0.42565474   0.01325989
8362.00   0.43184736   0.01319360
8364.00   0.42587253   0.01324509
8366.00   0.41915682   0.01312788
8368.00   0.41782603   0.01288103
8370.00   0.42201185   0.01255234
8372.00   0.42501947   0.01220760
8374.00   0.43586138   0.01217224
8376.00   0.42960572   0.01260754
8378.00   0.41734132   0.01322500
8380.00   0.41043654   0.01368311
8382.00   0.41138506   0.01372963
8384.00   0.42265096   0.01377170
8386.00   0.42343542   0.01346118
8388.00   0.41645372   0.01283239
8390.00   0.41065252   0.01227236
8392.00   0.40676817   0.01257081
8394.00   0.41472378   0.01436777
8396.00   0.42396668   0.01591746
8398.00   0.41987279   0.01653961
8400.00   0.40079999   0.01624893
8402.00   0.40815270   0.01615120
8404.00   0.42352629   0.01489696
8406.00   0.42685816   0.01320035
8408.00   0.41827676   0.01219409
8410.00   0.41102019   0.01278978
8412.00   0.41343221   0.01355568
8414.00   0.42261973   0.01390085
8416.00   0.42499581   0.01397741
8418.00   0.42212430   0.01382114
8420.00   0.42984048   0.01333413
8422.00   0.43988660   0.01286611
8424.00   0.43219629   0.01377010
8426.00   0.42076817   0.01555247
8428.00   0.42092839   0.01707897
8430.00   0.44155732   0.01724602
8432.00   0.46216631   0.01718671
8434.00   0.46251211   0.01629560
8436.00   0.45415369   0.01458631
8438.00   0.45155108   0.01263568
8440.00   0.44986668   0.01213953
8442.00   0.44684124   0.01208513
8444.00   0.45492169   0.01232396
8446.00   0.46573758   0.01285312
8448.00   0.46785736   0.01361160
8450.00   0.47486821   0.01410310
8452.00   0.48073503   0.01422383
8454.00   0.48355624   0.01415474
8456.00   0.48502722   0.01395482
8458.00   0.48670578   0.01374501
8460.00   0.50007242   0.01456322
8462.00   0.51928860   0.01580575
8464.00   0.51729870   0.01646383
8466.00   0.50119865   0.01641710
8468.00   0.50349450   0.01625592
8470.00   0.51321417   0.01537779
8472.00   0.52300042   0.01400023
8474.00   0.52580839   0.01299523
8476.00   0.52382296   0.01285326
8478.00   0.52996093   0.01289747
8480.00   0.52942652   0.01285897
8482.00   0.52589417   0.01286464
8484.00   0.52799058   0.01290456
8486.00   0.53581983   0.01300759
8488.00   0.53078800   0.01342399
8490.00   0.52891564   0.01392069
8492.00   0.53584796   0.01422534
8494.00   0.54849869   0.01433073
8496.00   0.55698907   0.01436465
8498.00   0.55462861   0.01439805
8500.00   0.54976314   0.01482846
8502.00   0.55669332   0.01527971
8504.00   0.56566817   0.01550842
8506.00   0.55730468   0.01543167
8508.00   0.56717855   0.01519828
8510.00   0.58142084   0.01445055
8512.00   0.58536977   0.01364471
8514.00   0.57519513   0.01316954
8516.00   0.56478888   0.01308928
8518.00   0.57146102   0.01315684
8520.00   0.57675010   0.01318239
8522.00   0.58087307   0.01318368
8524.00   0.58631104   0.01321155
8526.00   0.58987999   0.01323639
8528.00   0.58158016   0.01317293
8530.00   0.57879621   0.01317604
8532.00   0.58101308   0.01331449
8534.00   0.58372939   0.01356444
8536.00   0.58480513   0.01375397
8538.00   0.57924670   0.01380338
8540.00   0.58105302   0.01384855
8542.00   0.58725458   0.01399642
8544.00   0.58979678   0.01427577
8546.00   0.60197622   0.01449744
8548.00   0.61047459   0.01467550
8550.00   0.61169690   0.01478183
8552.00   0.60752106   0.01468701
8554.00   0.60459757   0.01426874
8556.00   0.60577065   0.01399735
8558.00   0.60601330   0.01397679
8560.00   0.60060382   0.01384704
8562.00   0.59585118   0.01350988
8564.00   0.60651642   0.01327509
8566.00   0.60697049   0.01331675
8568.00   0.60836989   0.01334954
8570.00   0.60926419   0.01332914
8572.00   0.60754460   0.01329207
8574.00   0.60331607   0.01330011
8576.00   0.61967146   0.01339352
8578.00   0.63081837   0.01341747
8580.00   0.62780976   0.01339677
8582.00   0.61487728   0.01342063
8584.00   0.61518401   0.01356571
8586.00   0.60951352   0.01361924
8588.00   0.60830098   0.01367225
8590.00   0.61102390   0.01373017
8592.00   0.61387306   0.01378720
8594.00   0.62257487   0.01393459
8596.00   0.62347865   0.01396350
8598.00   0.61556256   0.01388122
8600.00   0.61027884   0.01375907
8602.00   0.62252688   0.01369013
8604.00   0.62366563   0.01361306
8606.00   0.62343472   0.01359564
8608.00   0.62031668   0.01363401
8610.00   0.61636859   0.01375328
8612.00   0.61825460   0.01402448
8614.00   0.62396663   0.01436011
8616.00   0.61446601   0.01464000
8618.00   0.60736722   0.01496273
8620.00   0.61359167   0.01538379
8622.00   0.61586326   0.01579603
8624.00   0.60960358   0.01617053
8626.00   0.61674988   0.01648961
8628.00   0.62322623   0.01666983
8630.00   0.61663717   0.01666472
8632.00   0.60301870   0.01648761
8634.00   0.59407538   0.01618694
8636.00   0.61011523   0.01588107
8638.00   0.62833238   0.01549561
8640.00   0.61689228   0.01493565
8642.00   0.59592909   0.01450583
8644.00   0.58944553   0.01443299
8646.00   0.60252470   0.01467162
8648.00   0.61687374   0.01509315
8650.00   0.60900348   0.01557654
8652.00   0.60845238   0.01597382
8654.00   0.60543919   0.01626831
8656.00   0.60118008   0.01639863
8658.00   0.59876090   0.01640179
8660.00   0.60234594   0.01642292
8662.00   0.59479898   0.01629273
8664.00   0.59249043   0.01615516
8666.00   0.58993286   0.01600073
8668.00   0.58636332   0.01580719
8670.00   0.59675694   0.01561076
8672.00   0.59102917   0.01531910
8674.00   0.59123468   0.01505229
8676.00   0.59661549   0.01483920
8678.00   0.59872657   0.01465550
8680.00   0.58873653   0.01438478
8682.00   0.59914738   0.01424700
8684.00   0.60989970   0.01412452
8686.00   0.61318254   0.01397451
8688.00   0.60974139   0.01380801
8690.00   0.60345393   0.01367195
8692.00   0.59327751   0.01351615
8694.00   0.58699036   0.01342159
8696.00   0.58690929   0.01340553
8698.00   0.58922333   0.01341286
8700.00   0.59135389   0.01337269
8702.00   0.59438258   0.01334291
8704.00   0.59339482   0.01330789
8706.00   0.58801073   0.01325588
8708.00   0.58688539   0.01321038
8710.00   0.60236740   0.01324022
8712.00   0.60807079   0.01321393
8714.00   0.60161227   0.01311592
8716.00   0.59043711   0.01299238
8718.00   0.58401698   0.01292944
8720.00   0.58530545   0.01295589
8722.00   0.59444553   0.01300902
8724.00   0.59867376   0.01302024
8726.00   0.58988166   0.01296594
8728.00   0.58473402   0.01294637
8730.00   0.58940905   0.01291622
8732.00   0.59365278   0.01291639
8734.00   0.59668249   0.01293040
8736.00   0.60025078   0.01290364
8738.00   0.60216266   0.01286544
8740.00   0.58718544   0.01280283
8742.00   0.58450264   0.01279137
8744.00   0.59987926   0.01287668
8746.00   0.61018735   0.01302447
8748.00   0.59664911   0.01297708
8750.00   0.59518510   0.01297034
8752.00   0.59514600   0.01323240
8754.00   0.58876938   0.01401525
8756.00   0.58736682   0.01550626
8758.00   0.59062916   0.01674726
8760.00   0.59010178   0.01763505
8762.00   0.58008522   0.01854690
8764.00   0.56542319   0.01940872
8766.00   0.56682295   0.01903530
8768.00   0.56673509   0.01814625
8770.00   0.57379800   0.01772647
8772.00   0.58299536   0.01780836
8774.00   0.58760864   0.01791277
8776.00   0.57876825   0.01784375
8778.00   0.58075923   0.01780285
8780.00   0.58176792   0.01743177
8782.00   0.57594573   0.01642931
8784.00   0.57155806   0.01480691
8786.00   0.57882422   0.01419793
8788.00   0.58544511   0.01431174
8790.00   0.58743161   0.01454447
8792.00   0.58737785   0.01457446
8794.00   0.59098309   0.01444648
8796.00   0.56909198   0.01373641
8798.00   0.55582505   0.01310429
8800.00   0.56787294   0.01291605
8802.00   0.59476864   0.01312288
8804.00   0.60072392   0.01323387
8806.00   0.58822763   0.01319008
8808.00   0.57130784   0.01305982
8810.00   0.56249720   0.01294840
8812.00   0.56348091   0.01291461
8814.00   0.55923802   0.01290059
8816.00   0.55814451   0.01282136
8818.00   0.56027633   0.01303380
8820.00   0.55982691   0.01448743
8822.00   0.55655265   0.01732720
8824.00   0.57344943   0.01996558
8826.00   0.56335974   0.02076290
8828.00   0.53993660   0.02087781
8830.00   0.53014708   0.02059865
8832.00   0.55455047   0.01962520
8834.00   0.55702710   0.01783369
8836.00   0.55364925   0.01668485
8838.00   0.55564547   0.01614897
8840.00   0.56178659   0.01566224
8842.00   0.55911988   0.01451223
8844.00   0.56267327   0.01372511
8846.00   0.56413752   0.01380398
8848.00   0.56462687   0.01414073
8850.00   0.56286317   0.01419680
8852.00   0.55262357   0.01401194
8854.00   0.54320335   0.01366282
8856.00   0.54776675   0.01327720
8858.00   0.56192964   0.01315667
8860.00   0.57140779   0.01352558
8862.00   0.54866886   0.01425139
8864.00   0.50702006   0.01513186
8866.00   0.47792605   0.01569464
8868.00   0.48050424   0.01568335
8870.00   0.51614273   0.01504238
8872.00   0.53557038   0.01432699
8874.00   0.53504652   0.01321688
8876.00   0.52232891   0.01247497
8878.00   0.51287824   0.01286487
8880.00   0.51824778   0.01456055
8882.00   0.50208241   0.01696740
8884.00   0.50659639   0.01803279
8886.00   0.51499945   0.01827633
8888.00   0.50955200   0.01795996
8890.00   0.48039460   0.01684388
8892.00   0.48588538   0.01450031
8894.00   0.48641619   0.01287609
8896.00   0.47759792   0.01267225
8898.00   0.46684274   0.01359233
8900.00   0.47298923   0.01486494
8902.00   0.46841136   0.01511104
8904.00   0.45730138   0.01510485
8906.00   0.44147095   0.01477902
8908.00   0.42738676   0.01395065
8910.00   0.43863761   0.01267369
8912.00   0.45097283   0.01274629
8914.00   0.44266787   0.01483706
8916.00   0.41932967   0.01726427
8918.00   0.40229285   0.01848826
8920.00   0.39797655   0.01866530
8922.00   0.39290020   0.01839810
8924.00   0.39671421   0.01686220
8926.00   0.40695843   0.01428840
8928.00   0.41006020   0.01225526
8930.00   0.40463841   0.01166653
8932.00   0.39727345   0.01152681
8934.00   0.38539019   0.01145585
8936.00   0.37150955   0.01162940
8938.00   0.36591569   0.01262674
8940.00   0.36930957   0.01364696
8942.00   0.37001109   0.01409469
8944.00   0.37056431   0.01413409
8946.00   0.37459162   0.01390585
8948.00   0.37335196   0.01309820
8950.00   0.37117326   0.01229138
8952.00   0.37017521   0.01333383
8954.00   0.36660752   0.01548449
8956.00   0.35725775   0.01718216
8958.00   0.34924212   0.01706235
8960.00   0.35452509   0.01687293
8962.00   0.35898852   0.01599899
8964.00   0.35740200   0.01427101
8966.00   0.35267934   0.01202283
8968.00   0.36026382   0.01113340
8970.00   0.35906562   0.01102902
8972.00   0.35414556   0.01122396
8974.00   0.35103431   0.01133755
8976.00   0.35258436   0.01122603
8978.00   0.35577813   0.01113799
8980.00   0.36661544   0.01139153
8982.00   0.37044060   0.01194430
8984.00   0.36308917   0.01271336
8986.00   0.35872951   0.01365846
8988.00   0.37861261   0.01486147
8990.00   0.39833090   0.01549467
8992.00   0.40049326   0.01507364
8994.00   0.38379815   0.01386726
8996.00   0.37526369   0.01366286
8998.00   0.38730693   0.01499158
9000.00   0.39978957   0.01619125
9002.00   0.40473294   0.01680711
9004.00   0.40419504   0.01671217
9006.00   0.40358898   0.01534811
9008.00   0.41646287   0.01360009
9010.00   0.42341924   0.01249842
9012.00   0.42031965   0.01223874
9014.00   0.41564575   0.01221645
9016.00   0.41956273   0.01240106
9018.00   0.42126107   0.01244261
9020.00   0.40970328   0.01217810
9022.00   0.39702439   0.01189763
9024.00   0.41103998   0.01216804
9026.00   0.41531572   0.01235073
9028.00   0.42019224   0.01223562
9030.00   0.42449781   0.01214207
9032.00   0.42422238   0.01230694
9034.00   0.41688132   0.01269653
9036.00   0.42198360   0.01284730
9038.00   0.43139055   0.01289479
9040.00   0.43581489   0.01297780
9042.00   0.43147865   0.01315116
9044.00   0.43136439   0.01329706
9046.00   0.41870847   0.01361296
9048.00   0.41659367   0.01386635
9050.00   0.42730689   0.01402013
9052.00   0.43828142   0.01401282
9054.00   0.43238029   0.01351804
9056.00   0.41592002   0.01248951
9058.00   0.41277424   0.01185090
9060.00   0.42589781   0.01191857
9062.00   0.44324544   0.01229968
9064.00   0.44511569   0.01234123
9066.00   0.43165663   0.01225415
9068.00   0.42661214   0.01232976
9070.00   0.43650484   0.01263212
9072.00   0.44929829   0.01295612
9074.00   0.43824354   0.01260932
9076.00   0.41946557   0.01211566
9078.00   0.41943893   0.01202224
9080.00   0.43977499   0.01237419
9082.00   0.44266438   0.01250918
9084.00   0.43017316   0.01231926
9086.00   0.43215966   0.01249537
9088.00   0.43638361   0.01282447
9090.00   0.42838517   0.01295157
9092.00   0.42248905   0.01282271
9094.00   0.42367828   0.01279277
9096.00   0.42421034   0.01290440
9098.00   0.42694041   0.01318777
9100.00   0.43276051   0.01352924
9102.00   0.42219576   0.01344258
9104.00   0.41885760   0.01341218
9106.00   0.42685699   0.01340641
9108.00   0.43368521   0.01313588
9110.00   0.42575601   0.01233864
9112.00   0.42110443   0.01177392
9114.00   0.42053536   0.01162544
9116.00   0.42214549   0.01184147
9118.00   0.42376372   0.01215707
9120.00   0.41869673   0.01220900
9122.00   0.41469988   0.01185591
9124.00   0.41502145   0.01160976
9126.00   0.41312256   0.01163785
9128.00   0.40655529   0.01190703
9130.00   0.40379962   0.01224630
9132.00   0.41250494   0.01246414
9134.00   0.41805080   0.01257889
9136.00   0.41891339   0.01264040
9138.00   0.41707376   0.01260232
9140.00   0.41398898   0.01216126
9142.00   0.41767645   0.01185111
9144.00   0.41392529   0.01173655
9146.00   0.40903565   0.01182016
9148.00   0.41555765   0.01207074
9150.00   0.42714396   0.01253245
9152.00   0.42515031   0.01313781
9154.00   0.42198554   0.01370756
9156.00   0.41998306   0.01394426
9158.00   0.41883621   0.01362639
9160.00   0.42744839   0.01308389
9162.00   0.42763481   0.01270534
9164.00   0.41890177   0.01241328
9166.00   0.41368070   0.01216900
9168.00   0.42879426   0.01205257
9170.00   0.41815844   0.01191628
9172.00   0.41846183   0.01211619
9174.00   0.42855695   0.01257441
9176.00   0.43905950   0.01293364
9178.00   0.44069514   0.01265671
9180.00   0.43038252   0.01220404
9182.00   0.42846355   0.01205357
9184.00   0.43738136   0.01219586
9186.00   0.44940320   0.01234821
9188.00   0.45515323   0.01216687
9190.00   0.44807795   0.01193763
9192.00   0.44656506   0.01192593
9194.00   0.45668700   0.01214027
9196.00   0.47185278   0.01237685
9198.00   0.45952442   0.01226780
9200.00   0.45349345   0.01206921
9202.00   0.45449170   0.01192858
9204.00   0.46208727   0.01195142
9206.00   0.47658837   0.01217671
9208.00   0.48810744   0.01240752
9210.00   0.49008489   0.01258979
9212.00   0.48432836   0.01269472
9214.00   0.47830853   0.01277806
9216.00   0.48195425   0.01296612
9218.00   0.48653278   0.01321006
9220.00   0.48849359   0.01326260
9222.00   0.49601826   0.01328372
9224.00   0.51100469   0.01343709
9226.00   0.52408963   0.01372497
9228.00   0.51965278   0.01360284
9230.00   0.50950456   0.01324445
9232.00   0.49986684   0.01287676
9234.00   0.49458817   0.01268794
9236.00   0.49038363   0.01262494
9238.00   0.49134040   0.01262746
9240.00   0.49805680   0.01264323
9242.00   0.50609446   0.01268193
9244.00   0.50873756   0.01277309
9246.00   0.49444810   0.01285032
9248.00   0.48736462   0.01281345
9250.00   0.49289083   0.01279790
9252.00   0.50314921   0.01280479
9254.00   0.50287688   0.01272201
9256.00   0.49946356   0.01258404
9258.00   0.49668774   0.01259695
9260.00   0.50095350   0.01274478
9262.00   0.50640905   0.01285985
9264.00   0.49588391   0.01270257
9266.00   0.49750754   0.01251500
9268.00   0.49532732   0.01242654
9270.00   0.49933186   0.01246733
9272.00   0.50915247   0.01257230
9274.00   0.49120346   0.01253115
9276.00   0.49173209   0.01262970
9278.00   0.48645994   0.01290521
9280.00   0.48482528   0.01321449
9282.00   0.49556169   0.01340818
9284.00   0.48964670   0.01345937
9286.00   0.50150830   0.01370106
9288.00   0.50400156   0.01380495
9290.00   0.49385557   0.01370578
9292.00   0.48643899   0.01358585
9294.00   0.48169073   0.01378860
9296.00   0.49026144   0.01398608
9298.00   0.49182042   0.01453111
9300.00   0.48890722   0.01604342
9302.00   0.49853387   0.01873905
9304.00   0.46033061   0.02060561
9306.00   0.46780458   0.02310844
9308.00   0.48647186   0.02682159
9310.00   0.48104319   0.02985321
9312.00   0.44686165   0.02886480
9314.00   0.44385639   0.02784447
9316.00   0.50785559   0.02960444
9318.00   0.53931612   0.03025427
9320.00   0.48569155   0.02759721
9322.00   0.45266151   0.02544434
9324.00   0.49988833   0.02682458
9326.00   0.51214355   0.02684085
9328.00   0.47795877   0.02390263
9330.00   0.43774894   0.01862618
9332.00   0.46065474   0.01767466
9334.00   0.50203043   0.02005393
9336.00   0.51381260   0.02159458
9338.00   0.48620710   0.02136097
9340.00   0.44735822   0.02039513
9342.00   0.48300382   0.02165068
9344.00   0.57174236   0.02368031
9346.00   0.58235401   0.02231827
9348.00   0.50858498   0.01765607
9350.00   0.46314728   0.01501431
9352.00   0.46495804   0.01543135
9354.00   0.49943295   0.01765387
9356.00   0.53617817   0.01946018
9358.00   0.54628837   0.01960678
9360.00   0.51094288   0.01753963
9362.00   0.48584118   0.01572902
9364.00   0.47147629   0.01501031
9366.00   0.47525492   0.01637010
9368.00   0.49964523   0.02111299
9370.00   0.53872067   0.03042018
9372.00   0.52760714   0.03687935
9374.00   0.47821978   0.03714401
9376.00   0.44520685   0.03518009
9378.00   0.47240222   0.03580968
9380.00   0.52614999   0.03598588
9382.00   0.50264168   0.02851584
9384.00   0.48795676   0.02022232
9386.00   0.50586420   0.01631398
9388.00   0.52423114   0.01605266
9390.00   0.50741702   0.01494605
9392.00   0.50887233   0.01416798
9394.00   0.51071405   0.01404763
9396.00   0.51162416   0.01475245
9398.00   0.52480888   0.01611843
9400.00   0.52890998   0.01763583
9402.00   0.51877505   0.01789687
9404.00   0.50529623   0.01722393
9406.00   0.49713683   0.01622935
9408.00   0.49976888   0.01561271
9410.00   0.50985432   0.01557143
9412.00   0.51256710   0.01593863
9414.00   0.50922680   0.01683817
9416.00   0.50937444   0.01820310
9418.00   0.51809764   0.01964000
9420.00   0.52592927   0.02009898
9422.00   0.50751036   0.01953417
9424.00   0.48145333   0.01848307
9426.00   0.48618135   0.01790504
9428.00   0.55684072   0.01890515
9430.00   0.56770092   0.01907991
9432.00   0.51627153   0.01832119
9434.00   0.45291933   0.01836267
9436.00   0.44381842   0.02139305
9438.00   0.47932574   0.02631854
9440.00   0.53526664   0.03256004
9442.00   0.56828099   0.03444271
9444.00   0.55887568   0.03037887
9446.00   0.50990015   0.02099048
9448.00   0.49044180   0.01653427
9450.00   0.47316241   0.01527374
9452.00   0.47838274   0.01699241
9454.00   0.50093329   0.02040243
9456.00   0.49405041   0.02409544
9458.00   0.50153738   0.02578237
9460.00   0.51227450   0.02600056
9462.00   0.50652152   0.02408641
9464.00   0.47991750   0.01991976
9466.00   0.48524830   0.01656237
9468.00   0.49739408   0.01598402
9470.00   0.50735992   0.01824274
9472.00   0.49904141   0.02141209
9474.00   0.47001222   0.02389488
9476.00   0.45270655   0.02506025
9478.00   0.44316241   0.02595748
9480.00   0.46155155   0.02654045
9482.00   0.49560928   0.02525486
9484.00   0.51050019   0.02000583
9486.00   0.49032918   0.01589871
9488.00   0.47109374   0.01408457
9490.00   0.46384123   0.01386784
9492.00   0.47305286   0.01453471
9494.00   0.49446973   0.01631019
9496.00   0.47250023   0.01902815
9498.00   0.45525587   0.02265203
9500.00   0.47447982   0.02547146
9502.00   0.51316017   0.02598731
9504.00   0.49015477   0.02242184
9506.00   0.46415779   0.01905346
9508.00   0.46476331   0.01640446
9510.00   0.47391143   0.01479951
9512.00   0.47105190   0.01440844
9514.00   0.47809055   0.01591787
9516.00   0.49913183   0.01856077
9518.00   0.48990074   0.02065276
9520.00   0.46319342   0.02161129
9522.00   0.45437908   0.02130062
9524.00   0.46797583   0.01956579
9526.00   0.47804365   0.01748975
9528.00   0.48293194   0.01624514
9530.00   0.48356915   0.01597481
9532.00   0.47877064   0.01573827
9534.00   0.46657097   0.01547405
9536.00   0.48190296   0.01576251
9538.00   0.49563146   0.01608836
9540.00   0.49343887   0.01622800
9542.00   0.48793340   0.01646257
9544.00   0.50399739   0.01756094
9546.00   0.50319272   0.01837284
9548.00   0.46524456   0.01854317
9550.00   0.41256952   0.01841683
9552.00   0.42019323   0.01917781
9554.00   0.44716248   0.02090993
9556.00   0.46807453   0.02113295
9558.00   0.47055706   0.01957972
9560.00   0.45238757   0.01754577
9562.00   0.41731086   0.01901401
9564.00   0.44286871   0.02281640
9566.00   0.48334041   0.02549870
9568.00   0.49786925   0.02579181
9570.00   0.47049427   0.02343754
9572.00   0.45616233   0.01993077
9574.00   0.44475421   0.01644892
9576.00   0.43198776   0.01426631
9578.00   0.43094310   0.01409174
9580.00   0.45616281   0.01510164
9582.00   0.47600266   0.01552703
9584.00   0.45252898   0.01476946
9586.00   0.42811301   0.01418324
9588.00   0.43298498   0.01475530
9590.00   0.46301436   0.01618546
9592.00   0.45513844   0.01642733
9594.00   0.45103431   0.01585343
9596.00   0.45039192   0.01508984
9598.00   0.44571123   0.01465699
9600.00   0.43563405   0.01448089
9602.00   0.43271360   0.01504300
9604.00   0.45187008   0.01628896
9606.00   0.46428943   0.01733945
9608.00   0.44752124   0.01748648
9610.00   0.44174901   0.01673380
9612.00   0.45490119   0.01608846
9614.00   0.45025095   0.01596569
9616.00   0.43298241   0.01652095
9618.00   0.42748877   0.01750757
9620.00   0.43115854   0.01821962
9622.00   0.44055590   0.01872941
9624.00   0.45638767   0.01853321
9626.00   0.46958873   0.01749681
9628.00   0.46562573   0.01589014
9630.00   0.43423688   0.01455619
9632.00   0.40460643   0.01372384
9634.00   0.39810839   0.01369455
9636.00   0.41504693   0.01432091
9638.00   0.43159375   0.01500441
9640.00   0.42472863   0.01471829
9642.00   0.41661665   0.01432408
9644.00   0.42609617   0.01443535
9646.00   0.45005465   0.01500729
9648.00   0.45114884   0.01505232
9650.00   0.43350735   0.01454251
9652.00   0.42677879   0.01436789
9654.00   0.42921174   0.01452526
9656.00   0.43114910   0.01467870
9658.00   0.43559733   0.01471615
9660.00   0.43855366   0.01520773
9662.00   0.44061303   0.01614350
9664.00   0.43611312   0.01708279
9666.00   0.42464733   0.01752543
9668.00   0.43148652   0.01736199
9670.00   0.43887177   0.01735553
9672.00   0.43048230   0.01699772
9674.00   0.41466132   0.01638895
9676.00   0.42326903   0.01630379
9678.00   0.42570293   0.01730153
9680.00   0.43240920   0.01821793
9682.00   0.43217626   0.01847778
9684.00   0.42275128   0.01795339
9686.00   0.41726318   0.01690655
9688.00   0.41168776   0.01576791
9690.00   0.43043175   0.01531317
9692.00   0.44166055   0.01567371
9694.00   0.43195593   0.01653460
9696.00   0.44023851   0.01738042
9698.00   0.42881671   0.01764023
9700.00   0.42146924   0.01786064
9702.00   0.41733292   0.01775633
9704.00   0.40856972   0.01691914
9706.00   0.41795957   0.01557635
9708.00   0.42976260   0.01537886
9710.00   0.43539405   0.01565571
9712.00   0.43596289   0.01627236
9714.00   0.43722272   0.01736626
9716.00   0.41874245   0.01854016
9718.00   0.40032849   0.01866737
9720.00   0.38851404   0.01839688
9722.00   0.39152193   0.01818205
9724.00   0.41524211   0.01801122
9726.00   0.43896356   0.01669721
9728.00   0.42909351   0.01544968
9730.00   0.41159332   0.01502642
9732.00   0.40586266   0.01558829
9734.00   0.40387130   0.01650875
9736.00   0.40536883   0.01727726
9738.00   0.40044752   0.01744469
9740.00   0.39567831   0.01724981
9742.00   0.40029302   0.01701302
9744.00   0.42823800   0.01675502
9746.00   0.42121598   0.01625667
9748.00   0.41459641   0.01598837
9750.00   0.41237059   0.01574248
9752.00   0.40934479   0.01519880
9754.00   0.40481460   0.01470113
9756.00   0.41279852   0.01475802
9758.00   0.41197166   0.01482542
9760.00   0.40250441   0.01470004
9762.00   0.39755318   0.01447304
9764.00   0.41194093   0.01450657
9766.00   0.41958174   0.01444671
9768.00   0.41469321   0.01424264
9770.00   0.40109172   0.01398081
9772.00   0.39175799   0.01385725
9774.00   0.39397070   0.01391563
9776.00   0.39559957   0.01400036
9778.00   0.39449158   0.01416138
9780.00   0.39089051   0.01451638
9782.00   0.38361982   0.01517027
9784.00   0.37570921   0.01654748
9786.00   0.37837097   0.01849805
9788.00   0.38808361   0.02036993
9790.00   0.39760986   0.02169541
9792.00   0.40458885   0.02247820
9794.00   0.39072260   0.02213531
9796.00   0.37705627   0.02079105
9798.00   0.37864938   0.01917063
9800.00   0.39612508   0.01822835
9802.00   0.39777040   0.01806775
9804.00   0.37832093   0.01744868
9806.00   0.37206578   0.01676217
9808.00   0.37244987   0.01636716
9810.00   0.35765505   0.01645667
9812.00   0.36555767   0.01665083
9814.00   0.38204622   0.01665702
9816.00   0.39646778   0.01641681
9818.00   0.40234599   0.01601125
9820.00   0.39381024   0.01560150
9822.00   0.38036609   0.01530269
9824.00   0.38472676   0.01535433
9826.00   0.39581701   0.01555441
9828.00   0.39889634   0.01563943
9830.00   0.38962102   0.01545720
9832.00   0.39838091   0.01532918
9834.00   0.39729944   0.01508592
9836.00   0.38945666   0.01479207
9838.00   0.38625988   0.01464977
9840.00   0.39310119   0.01494279
9842.00   0.39851919   0.01585515
9844.00   0.39280215   0.01699101
9846.00   0.38202104   0.01781182
9848.00   0.37685657   0.01799075
9850.00   0.38533211   0.01800808
9852.00   0.39767042   0.01763231
9854.00   0.39918008   0.01662508
9856.00   0.39359534   0.01548952
9858.00   0.39630449   0.01520405
9860.00   0.39489195   0.01506315
9862.00   0.38951346   0.01516467
9864.00   0.38142633   0.01612612
9866.00   0.37680531   0.01824235
9868.00   0.38776278   0.02122517
9870.00   0.38548627   0.02322377
9872.00   0.40633667   0.02394278
9874.00   0.41104093   0.02357682
9876.00   0.38729867   0.02224331
9878.00   0.39068425   0.01958649
9880.00   0.39697281   0.01742372
9882.00   0.39634836   0.01640389
9884.00   0.39231810   0.01626837
9886.00   0.39111903   0.01648186
9888.00   0.38921916   0.01733372
9890.00   0.38448188   0.01874252
9892.00   0.38682210   0.01976353
9894.00   0.39158973   0.02023960
9896.00   0.38975570   0.02034436
9898.00   0.39092496   0.02009649
9900.00   0.38760820   0.01876425
9902.00   0.37956956   0.01711071
9904.00   0.37215599   0.01618732
9906.00   0.37677291   0.01696181
9908.00   0.40615019   0.01934585
9910.00   0.41721055   0.02226697
9912.00   0.40776768   0.02444900
9914.00   0.39169964   0.02541120
9916.00   0.38899183   0.02525074
9918.00   0.38757440   0.02410183
9920.00   0.38292933   0.02164627
9922.00   0.37826493   0.01887016
9924.00   0.37640169   0.01706316
9926.00   0.37781599   0.01671789
9928.00   0.37005153   0.01658197
9930.00   0.36766586   0.01671689
9932.00   0.36782262   0.01716463
9934.00   0.36536655   0.01826832
9936.00   0.36777756   0.02081582
9938.00   0.38487568   0.02452675
9940.00   0.39059886   0.02849072
9942.00   0.38068402   0.03202078
9944.00   0.36409709   0.03448705
9946.00   0.35641727   0.03474322
9948.00   0.36882564   0.03375059
9950.00   0.38265106   0.03233502
9952.00   0.38793874   0.03116928
9954.00   0.38976184   0.03066144
9956.00   0.35828543   0.03101970
9958.00   0.36615053   0.03190464
9960.00   0.38443112   0.03180861
9962.00   0.38742802   0.03004376
9964.00   0.38133934   0.02717274
9966.00   0.38927647   0.02527354
9968.00   0.38575700   0.02360392
9970.00   0.37458634   0.02254962
9972.00   0.36601534   0.02233920
9974.00   0.37420776   0.02236420
9976.00   0.37409976   0.02180193
9978.00   0.35720244   0.02077230
9980.00   0.35184658   0.01975814
9982.00   0.37089109   0.01913817
9984.00   0.36480284   0.01847164
9986.00   0.37625137   0.01828688
9988.00   0.37521377   0.01805570
9990.00   0.36264732   0.01785344
9992.00   0.35622880   0.01808906
9994.00   0.37080631   0.01905784
9996.00   0.35878003   0.01993860
9998.00   0.35383436   0.02060143
10000.00   0.35705569   0.02101051
10002.00   0.34362492   0.02130463
10004.00   0.35411081   0.02253661
10006.00   0.35854366   0.02612241
10008.00   0.37730834   0.03114410
10010.00   0.39867637   0.03564284
10012.00   0.36228022   0.03755610
10014.00   0.33717680   0.03777044
10016.00   0.34828910   0.03621549
10018.00   0.36207175   0.03293267
10020.00   0.35839987   0.02896640
10022.00   0.35789725   0.02775146
10024.00   0.37995127   0.02769089
10026.00   0.38301626   0.02754500
10028.00   0.37206638   0.02661802
10030.00   0.36850870   0.02478772
10032.00   0.37571952   0.02259310
10034.00   0.36061239   0.02111846
10036.00   0.34174201   0.02074716
10038.00   0.33766842   0.02135783
10040.00   0.35477316   0.02235901
10042.00   0.37178352   0.02296180
10044.00   0.35745993   0.02304119
10046.00   0.34692168   0.02268771
10048.00   0.35008934   0.02196196
10050.00   0.34542108   0.02093865
10052.00   0.35017529   0.02092407
10054.00   0.35526946   0.02224579
10056.00   0.35961714   0.02422050
10058.00   0.36315289   0.02602834
10060.00   0.35761133   0.02700813
10062.00   0.36222228   0.02737981
10064.00   0.35920194   0.02720080
10066.00   0.35225475   0.02656813
10068.00   0.34901944   0.02570604
10070.00   0.35297653   0.02512124
10072.00   0.35205445   0.02475121
10074.00   0.35427412   0.02540776
10076.00   0.35261199   0.02767667
10078.00   0.34226573   0.03114918
10080.00   0.34144473   0.03399983
10082.00   0.35311094   0.03511542
10084.00   0.34874532   0.03486693
10086.00   0.33531174   0.03301964
10088.00   0.34152159   0.02925570
10090.00   0.36040846   0.02543893
10092.00   0.36431327   0.02364166
10094.00   0.35024631   0.02333168
10096.00   0.33225670   0.02409721
10098.00   0.33420196   0.02611508
10100.00   0.35823378   0.02869294
10102.00   0.35650989   0.02992805
10104.00   0.34938589   0.03020251
10106.00   0.34793058   0.02972933
10108.00   0.33260384   0.02801762
10110.00   0.33409098   0.02556822
10112.00   0.35963401   0.02415257
10114.00   0.36975792   0.02439216
10116.00   0.34533632   0.02661294
10118.00   0.32610691   0.03151220
10120.00   0.32850662   0.03702596
10122.00   0.32018891   0.04033487
10124.00   0.32995021   0.04164661
10126.00   0.37061659   0.04151477
10128.00   0.34671870   0.03848192
10130.00   0.31320718   0.03330757
10132.00   0.32507360   0.02892844
10134.00   0.35692897   0.02697783
10136.00   0.34838772   0.02665790
10138.00   0.35587856   0.02672561
10140.00   0.38215128   0.02720493
10142.00   0.37611148   0.02798187
10144.00   0.33937237   0.02908685
10146.00   0.33972177   0.03075056
10148.00   0.34663686   0.03322633
10150.00   0.34357259   0.03528510
10152.00   0.33590969   0.03658631
10154.00   0.32987812   0.03708600
10156.00   0.32759348   0.03694752
10158.00   0.35883895   0.03561637
10160.00   0.35022417   0.03392011
10162.00   0.32311010   0.03337883
10164.00   0.31508192   0.03545125
10166.00   0.32545069   0.04049374
10168.00   0.35778990   0.04627965
10170.00   0.34308603   0.04923703
10172.00   0.33448389   0.04989055
10174.00   0.39419413   0.04957375
10176.00   0.37155238   0.04638196
10178.00   0.35506698   0.04118679
10180.00   0.34230134   0.03730023
10182.00   0.31917986   0.03674952
10184.00   0.27971926   0.03878782
10186.00   0.32682011   0.04171106
10188.00   0.35625517   0.04316245
10190.00   0.35005450   0.04341357
10192.00   0.33226451   0.04270285
10194.00   0.35339865   0.04098265
10196.00   0.36668971   0.03806086
10198.00   0.35973442   0.03707444
10200.00   0.34486461   0.03811028
10202.00   0.32651469   0.04057636
10204.00   0.29802451   0.04444008
10206.00   0.33692518   0.04929496
10208.00   0.38054124   0.05231850
10210.00   0.35972640   0.05302501
10212.00   0.27589953   0.05172511
10214.00   0.29407221   0.04899601
10216.00   0.32690629   0.04419905
10218.00   0.33565131   0.04076658
10220.00   0.32835257   0.04109846
10222.00   0.32665560   0.04471232
10224.00   0.29804158   0.04764504
10226.00   0.33784714   0.04996845
10228.00   0.36244759   0.05088506
10230.00   0.33874765   0.04944255
10232.00   0.30367669   0.04513626
10234.00   0.31742620   0.04186448
10236.00   0.31943372   0.03870067
10238.00   0.31472933   0.03617815
10240.00   0.31566086   0.03476431
10242.00   0.31759727   0.03426892
10244.00   0.31226230   0.03374537
10246.00   0.31804430   0.03383352
10248.00   0.34193984   0.03445744
10250.00   0.37367490   0.03526825
10252.00   0.37893546   0.03581871
10254.00   0.36439738   0.03611988
10256.00   0.35343722   0.03619087
10258.00   0.34843209   0.03634807
10260.00   0.33890831   0.03694255
10262.00   0.31971872   0.03819149
10264.00   0.29660097   0.03968151
10266.00   0.30933377   0.04183456
10268.00   0.34320211   0.04414263
10270.00   0.36452171   0.04582468
10272.00   0.35015085   0.04613446
10274.00   0.36796308   0.04614719
10276.00   0.39593017   0.04742049
10278.00   0.39141795   0.05243019
10280.00   0.31688651   0.06250931
10282.00   0.30077717   0.07655611
10284.00   0.36918554   0.08703199
10286.00   0.42861208   0.09271582
10288.00   0.42316261   0.09370438
10290.00   0.37883663   0.09088733
10292.00   0.33957732   0.08213425
10294.00   0.35439518   0.07561775
10296.00   0.41907513   0.06999211
10298.00   0.35407272   0.06720757
10300.00   0.34900889   0.06305823
10302.00   0.33108887   0.05753341
10304.00   0.45255992   0.05533960
10306.00   0.43242884   0.05851992
10308.00   0.36516702   0.05531922
10310.00   0.33534995   0.05590891
10312.00   0.31485820   0.05512853
10314.00   0.30220857   0.05278344
10316.00   0.29995576   0.05004567
10318.00   0.31218800   0.04889195
10320.00   0.30333975   0.04934264
10322.00   0.30062708   0.04993010
10324.00   0.28959015   0.05038859
10326.00   0.28169575   0.05094379
10328.00   0.29195809   0.05194564
10330.00   0.31012174   0.05124469
10332.00   0.31434381   0.05143010
10334.00   0.32806566   0.05296907
10336.00   0.34574190   0.05527766
10338.00   0.32841185   0.05719548
10340.00   0.33715868   0.06072340
10342.00   0.34982786   0.06573950
10344.00   0.34594098   0.06993604
10346.00   0.32736325   0.07216202
10348.00   0.32186291   0.07368404
10350.00   0.30341053   0.07296572
10352.00   0.27427378   0.07020950
10354.00   0.26284006   0.06658264
10356.00   0.27857426   0.06357523
10358.00   0.24770433   0.06160359
10360.00   0.24893861   0.06036451
10362.00   0.27488437   0.06067902
10364.00   0.28109905   0.06469006
10366.00   0.23828661   0.07407083
10368.00   0.38401529   0.09048804
10370.00   0.40269724   0.09985709
10372.00   0.25576323   0.10456383
10374.00   0.31543007   0.10529218
10376.00   0.32970357   0.10088735
10378.00   0.23237646   0.08890136
10380.00   0.29946795   0.07740858
10382.00   0.35129240   0.07048268
10384.00   0.34117532   0.06887990
10386.00   0.30807909   0.06930185
10388.00   0.33844376   0.07103381
10390.00   0.35290334   0.07705873
10392.00   0.33663294   0.08408596
10394.00   0.31269404   0.08905637
10396.00   0.18355811   0.09146909
10398.00   0.38886166   0.09312920
10400.00   0.35831198   0.08895244
10402.00   0.31297573   0.08228722
10404.00   0.39559042   0.07898045
10406.00   0.31878820   0.07673123
10408.00   0.31123307   0.07825404
10410.00   0.32768086   0.08583349
10412.00   0.32780531   0.09904250
10414.00   0.28634778   0.11491873
10416.00   0.27149889   0.12605648
10418.00   0.39937711   0.13271596
10420.00   0.40635362   0.13176124
10422.00   0.26664266   0.12240988
10424.00   0.22823243   0.10693014
10426.00   0.23280263   0.09478137
10428.00   0.27067459   0.08825817
10430.00   0.29163215   0.08550755
10432.00   0.28788427   0.08407861
10434.00   0.33059347   0.08329242
10436.00   0.35454717   0.08186585
10438.00   0.32352960   0.08109659
10440.00   0.28406683   0.08150556
10442.00   0.27829555   0.08356965
10444.00   0.28592324   0.08872611
10446.00   0.37298119   0.09742367
10448.00   0.33746168   0.10254350
10450.00   0.23304737   0.10422844
10452.00   0.21069522   0.10448516
10454.00   0.31602558   0.10231010
10456.00   0.35149980   0.09645722
10458.00   0.24580686   0.09218606
10460.00   0.31974480   0.09371245
10462.00   0.26730016   0.10192624
10464.00   0.19613104   0.11563907
10466.00   0.27756217   0.12732704
10468.00   0.38259873   0.13436572
10470.00   0.40835819   0.13531238
10472.00   0.35142508   0.12934917
10474.00   0.34953925   0.11629169
10476.00   0.33360836   0.10335506
10478.00   0.33674577   0.09508583
10480.00   0.36296853   0.09272348
10482.00   0.34015128   0.09308436
10484.00   0.29783642   0.09188071
10486.00   0.24708401   0.09119863
10488.00   0.25851840   0.09242860
10490.00   0.35010991   0.09498901
10492.00   0.40585768   0.09528745
10494.00   0.30020258   0.09447626
10496.00   0.24290828   0.09464151
10498.00   0.28113160   0.09600755
10500.00   0.33902499   0.09773143
10502.00   0.30109513   0.10020399
10504.00   0.30758277   0.10505640
10506.00   0.36871052   0.11069455
10508.00   0.40043354   0.11519527
10510.00   0.32737371   0.11715671
10512.00   0.35297608   0.11564510
10514.00   0.27163294   0.11240444
10516.00   0.28589228   0.11086029
10518.00   0.25732633   0.11326209
10520.00   0.24587373   0.11925545
10522.00   0.34884921   0.12608962
10524.00   0.31723413   0.12887834
10526.00   0.20057900   0.12976944
10528.00   0.12290093   0.12339738
10530.00   0.19967091   0.11334275
10532.00   0.15547548   0.10489409
10534.00   0.22816680   0.10178490
10536.00   0.39063874   0.10336721
10538.00   0.50196332   0.10504496
10540.00   0.38775277   0.10478827
10542.00   0.29998821   0.10435280
10544.00   0.27770820   0.10473197
10546.00   0.29668298   0.10481429
10548.00   0.30398369   0.10376986
10550.00   0.20309991   0.10363587
10552.00   0.27517667   0.10540334
10554.00   0.33794269   0.10677793
10556.00   0.31910941   0.10717203
10558.00   0.26648572   0.10760414
10560.00   0.25307080   0.10654956
10562.00   0.28471941   0.10799509
10564.00   0.21181095   0.11132585
10566.00   0.20138338   0.11468353
10568.00   0.29803443   0.11601436
10570.00   0.27151456   0.11682837
10572.00   0.20727766   0.11771514
10574.00   0.13320896   0.11763218
10576.00   0.31979677   0.11632053
10578.00   0.23620081   0.11460856
10580.00   0.24335085   0.11928532
10582.00   0.24440949   0.12538643
10584.00   0.30320641   0.12928765
10586.00   0.41905156   0.12970756
10588.00   0.23329984   0.12986499
10590.00   0.31759945   0.12798567
10592.00   0.26762512   0.12329286
10594.00   0.25675020   0.11963079
10596.00   0.30853689   0.12117507
10598.00   0.34085694   0.12432892
10600.00   0.17763776   0.12384182
10602.00   0.08532093   0.12151019
10604.00   0.13769406   0.11982539
10606.00   0.23436539   0.12072185
10608.00   0.13777784   0.12065240
10610.00   0.23674595   0.12246255
10612.00   0.32893243   0.12626688
10614.00   0.43455470   0.12964097
10616.00   0.25305459   0.12875195
10618.00   0.10938532   0.12882705
10620.00   0.10047597   0.13166937
10622.00   0.17550625   0.13415402
10624.00   0.38459894   0.13471746
10626.00   0.32902122   0.13043942
10628.00   0.20197292   0.12915203
10630.00   0.21953766   0.12992007
10632.00   0.32073361   0.13250662
10634.00   0.33266175   0.13863471
10636.00   0.13851421   0.13341767
10638.00   0.38124117   0.14317389
10640.00   0.30574617   0.14304568
10642.00   0.13637798   0.14346942
10644.00   0.18348403   0.14129235
10646.00   -0.03928931   0.14739774
10648.00   0.25923753   0.14794438
10650.00   0.45795026   0.15029730
10652.00   0.49882254   0.15462875
10654.00   0.18829256   0.15418214
10656.00   0.20158565   0.15333182
10658.00   0.28001681   0.15742794
10660.00   0.27863738   0.15358606
10662.00   0.37451759   0.15406518
10664.00   0.40740466   0.15785597
10666.00   0.41226649   0.15828390
10668.00   0.35499349   0.15842532
10670.00   0.24614160   0.16203624
10672.00   0.16075139   0.15846698
10674.00   0.16225685   0.16257483
10676.00   0.15801106   0.16340780
10678.00   0.34901962   0.17308056
10680.00   0.49386248   0.18465775
10682.00   0.35314539   0.18209466
10684.00   0.18070877   0.18170269
10686.00   0.31905481   0.18715368
10688.00   0.41578034   0.19400643
10690.00   0.32697520   0.19660833
10692.00   -0.03597958   0.20079291
10694.00   0.10185856   0.20339650
10696.00   0.20514913   0.20294003
10698.00   0.40118554   0.21129191
10700.00   0.42395383   0.21483950
10702.00   0.60729611   0.20267969
10704.00   0.17663349   0.20740573
10706.00   -0.19370544   0.22555546
