# File created by shivutils (I.Shivvers)
# wl(A)   flm    er(optional)
3438.00   13.77561474   0.34935355
3440.00   14.92825985   0.36373538
3442.00   14.46848011   0.35698318
3444.00   14.53823185   0.35670274
3446.00   13.78425884   0.35168752
3448.00   14.55660915   0.35754061
3450.00   14.97409058   0.36521333
3452.00   14.38397408   0.36076567
3454.00   14.84002590   0.36655185
3456.00   14.87152958   0.36749554
3458.00   14.91476059   0.36829019
3460.00   14.96008492   0.37135762
3462.00   14.92998123   0.37006441
3464.00   14.43155670   0.36800805
3466.00   14.33990288   0.36726075
3468.00   13.84717655   0.36309910
3470.00   14.82548618   0.37644660
3472.00   15.23085880   0.37979046
3474.00   14.79300690   0.37665254
3476.00   15.55135155   0.38695693
3478.00   16.27540207   0.39604396
3480.00   16.09924316   0.39425474
3482.00   17.04492760   0.40585896
3484.00   17.34459877   0.41043630
3486.00   17.17425156   0.40591726
3488.00   18.57462692   0.42014450
3490.00   18.69046974   0.42086023
3492.00   18.52171516   0.42014104
3494.00   19.32878304   0.42859623
3496.00   19.90748024   0.43182668
3498.00   19.91051483   0.43216789
3500.00   20.41853905   0.43821916
3502.00   21.20661545   0.44662875
3504.00   21.08296394   0.44431543
3506.00   20.70569801   0.43865600
3508.00   21.02040482   0.44194499
3510.00   21.28341484   0.44368324
3512.00   21.41627502   0.44312671
3514.00   21.31818008   0.44455886
3516.00   21.80541611   0.44723758
3518.00   21.51564598   0.44209644
3520.00   21.97397614   0.44526505
3522.00   22.68823433   0.45333871
3524.00   22.64194489   0.45160946
3526.00   23.36355400   0.45541686
3528.00   23.10817528   0.45201451
3530.00   23.24367905   0.45140028
3532.00   24.00211334   0.45893458
3534.00   23.19038391   0.45183644
3536.00   23.44997215   0.44949290
3538.00   24.22156715   0.45457712
3540.00   23.11085892   0.44706315
3542.00   23.48185158   0.44876161
3544.00   23.76510048   0.44927192
3546.00   24.15711975   0.45211199
3548.00   23.10908890   0.44293982
3550.00   23.01481247   0.44071332
3552.00   24.20645714   0.44665349
3554.00   24.30306625   0.44544488
3556.00   24.69281387   0.44905972
3558.00   24.67274284   0.44496891
3560.00   24.28984070   0.44135562
3562.00   25.14658546   0.44626564
3564.00   25.11422157   0.44290468
3566.00   24.96333504   0.44021043
3568.00   25.90985107   0.44530475
3570.00   26.11265945   0.44320801
3572.00   26.63932419   0.44639829
3574.00   26.20950127   0.44147143
3576.00   25.36597252   0.43286571
3578.00   25.40801048   0.43121788
3580.00   24.04209137   0.41926432
3582.00   25.37198639   0.42709002
3584.00   23.95456314   0.41285586
3586.00   23.88053322   0.41022393
3588.00   23.59988594   0.40584707
3590.00   23.20710945   0.40177208
3592.00   23.13083267   0.39862218
3594.00   23.38070488   0.39929399
3596.00   22.72529030   0.39188829
3598.00   22.97343254   0.39128312
3600.00   23.08962822   0.39000317
3602.00   22.31596947   0.38360405
3604.00   22.68527794   0.38434619
3606.00   23.16788101   0.38526189
3608.00   23.15117455   0.38263851
3610.00   24.41741943   0.39239275
3612.00   23.58423424   0.38490739
3614.00   23.97075844   0.38700816
3616.00   24.39000130   0.38708147
3618.00   24.54515457   0.38619375
3620.00   24.74864960   0.38635027
3622.00   25.46349144   0.38840503
3624.00   26.01882172   0.38952935
3626.00   26.58387756   0.39286816
3628.00   26.28960800   0.39048219
3630.00   27.86897659   0.39886025
3632.00   27.94692421   0.39844564
3634.00   27.52250481   0.39285249
3636.00   28.08858109   0.39465699
3638.00   28.77742004   0.39678872
3640.00   27.94785118   0.39017940
3642.00   28.16051102   0.38926536
3644.00   28.44491577   0.38935846
3646.00   28.37156868   0.38772690
3648.00   27.89458084   0.38629857
3650.00   28.22229195   0.38605341
3652.00   28.23543739   0.38409930
3654.00   27.95986176   0.37964150
3656.00   26.46622086   0.36755666
3658.00   26.52071762   0.36530143
3660.00   25.38879013   0.35789052
3662.00   25.36735916   0.35620835
3664.00   24.67459488   0.34960788
3666.00   24.26951599   0.34301093
3668.00   23.03408623   0.33319014
3670.00   22.47677803   0.32807314
3672.00   22.28776550   0.32543117
3674.00   21.23415756   0.31717476
3676.00   21.00371933   0.31453350
3678.00   19.47415733   0.30217537
3680.00   19.26291084   0.30001861
3682.00   19.17129707   0.29725942
3684.00   18.29179192   0.28999719
3686.00   17.83289719   0.28529373
3688.00   17.41513634   0.28173700
3690.00   17.54560280   0.28108183
3692.00   17.55479050   0.28050095
3694.00   16.50482750   0.27166116
3696.00   16.68456459   0.27218497
3698.00   16.33227921   0.26826572
3700.00   16.39939308   0.26792580
3702.00   16.34135246   0.26544544
3704.00   15.93640614   0.26268753
3706.00   16.00833893   0.26244155
3708.00   15.29936790   0.25621334
3710.00   15.44368935   0.25577676
3712.00   15.73557186   0.25756946
3714.00   15.72732162   0.25580627
3716.00   15.17513847   0.25146693
3718.00   15.12267113   0.24943198
3720.00   14.67357063   0.24512281
3722.00   14.99826622   0.24626918
3724.00   14.83232594   0.24562228
3726.00   14.97632504   0.24531855
3728.00   15.18315125   0.24635150
3730.00   15.28526211   0.24642703
3732.00   15.49434090   0.24746704
3734.00   15.25350952   0.24546358
3736.00   15.01091480   0.24220835
3738.00   15.34314823   0.24346386
3740.00   14.94219303   0.24136056
3742.00   14.79666615   0.23921925
3744.00   14.66314983   0.23736843
3746.00   14.82160664   0.23725407
3748.00   14.26887608   0.23257391
3750.00   14.36309242   0.23214917
3752.00   13.98432350   0.22844690
3754.00   14.58036518   0.23180220
3756.00   14.02093315   0.22755273
3758.00   13.48279381   0.22240733
3760.00   13.70601273   0.22355975
3762.00   14.00933933   0.22480457
3764.00   13.72946167   0.22131214
3766.00   13.44134521   0.21969211
3768.00   13.55705929   0.21952480
3770.00   13.43407631   0.21814898
3772.00   13.36480713   0.21712439
3774.00   13.53574467   0.21784823
3776.00   13.36139297   0.21598883
3778.00   13.06063557   0.21371901
3780.00   13.11120701   0.21321984
3782.00   13.01468277   0.21111931
3784.00   13.22347832   0.21192490
3786.00   12.99082661   0.20956013
3788.00   13.22530174   0.21075593
3790.00   13.43338299   0.21249083
3792.00   12.39456749   0.20500073
3794.00   12.80141544   0.20640285
3796.00   13.15497780   0.20756719
3798.00   13.29625702   0.20788249
3800.00   13.25513935   0.20752214
3802.00   13.18134499   0.20604412
3804.00   13.19511127   0.20536667
3806.00   13.54572392   0.20690012
3808.00   13.80958366   0.20878072
3810.00   13.62102032   0.20625411
3812.00   13.86013126   0.20769575
3814.00   14.05836010   0.20898190
3816.00   14.52155399   0.21146922
3818.00   15.30715752   0.21579541
3820.00   15.44116783   0.21642338
3822.00   15.77881336   0.21731313
3824.00   15.84751797   0.21769005
3826.00   16.49056625   0.22105269
3828.00   16.72420692   0.22184283
3830.00   17.22224808   0.22431546
3832.00   17.77665710   0.22728576
3834.00   17.65283394   0.22601828
3836.00   18.85048294   0.23233081
3838.00   18.64462471   0.23037557
3840.00   19.28200340   0.23282264
3842.00   19.38543320   0.23308913
3844.00   20.23146057   0.23702887
3846.00   20.29200554   0.23706403
3848.00   21.34404373   0.24170369
3850.00   21.23506737   0.24065541
3852.00   22.00881004   0.24389684
3854.00   23.03665733   0.24844712
3856.00   23.17770958   0.24855624
3858.00   23.72294426   0.25118029
3860.00   23.96423531   0.25193673
3862.00   24.14601135   0.25280079
3864.00   24.69872665   0.25419596
3866.00   25.08016586   0.26168710
3868.00   26.49215317   0.26170075
3870.00   26.85390282   0.26281786
3872.00   27.82378769   0.26673102
3874.00   28.30755997   0.26887482
3876.00   28.31853676   0.26869643
3878.00   29.23101807   0.27201846
3880.00   29.90462875   0.27440238
3882.00   29.97204590   0.27358150
3884.00   30.15290260   0.27409694
3886.00   30.38396645   0.27450499
3888.00   30.82808113   0.27624372
3890.00   31.09280014   0.27672389
3892.00   31.36028862   0.27757525
3894.00   31.61108589   0.27773699
3896.00   32.08038712   0.27968329
3898.00   32.15946579   0.27949616
3900.00   32.61088181   0.28057507
3902.00   32.86977005   0.28132093
3904.00   33.78126526   0.28475490
3906.00   33.78662109   0.28508294
3908.00   34.14328766   0.28661045
3910.00   34.59418106   0.28779128
3912.00   34.80301285   0.28784490
3914.00   34.80905533   0.28685981
3916.00   34.87096024   0.28622732
3918.00   34.57581329   0.28443390
3920.00   35.16903687   0.28545576
3922.00   35.12669373   0.28492156
3924.00   35.10932159   0.28413612
3926.00   35.55234146   0.28542578
3928.00   34.56823349   0.28084126
3930.00   34.66473007   0.28081006
3932.00   32.95730209   0.27354559
3934.00   33.10905075   0.27347606
3936.00   34.47499847   0.27815074
3938.00   34.34892654   0.27690616
3940.00   33.98710251   0.27487832
3942.00   33.82931900   0.27426565
3944.00   33.36377716   0.27207899
3946.00   33.28553391   0.27047798
3948.00   32.74598694   0.26765510
3950.00   32.53672409   0.26599056
3952.00   31.76371956   0.26248392
3954.00   31.38640022   0.26086923
3956.00   32.24802780   0.26375988
3958.00   31.26153755   0.25974658
3960.00   30.66098213   0.25731057
3962.00   30.15187073   0.25507817
3964.00   30.33855629   0.25486833
3966.00   29.36993790   0.25062209
3968.00   28.41496468   0.24612129
3970.00   28.97824860   0.24815820
3972.00   29.02641296   0.24811409
3974.00   28.35656738   0.24488270
3976.00   28.29095078   0.24385999
3978.00   27.51894760   0.24040738
3980.00   27.38448715   0.23923279
3982.00   27.58060455   0.23981991
3984.00   27.26446342   0.23754916
3986.00   27.06359863   0.23626749
3988.00   26.69760895   0.23459597
3990.00   26.86315536   0.23481460
3992.00   27.43190956   0.23663861
3994.00   26.72259521   0.23368748
3996.00   27.34746552   0.23623011
3998.00   26.69561958   0.23319623
4000.00   26.86318016   0.23328890
4002.00   27.32988358   0.23432307
4004.00   27.53075600   0.23501162
4006.00   27.50845337   0.23468301
4008.00   27.23212814   0.23303641
4010.00   27.97820282   0.23537590
4012.00   27.62003326   0.23343053
4014.00   27.88433075   0.23420659
4016.00   28.18925858   0.23461656
4018.00   28.32920456   0.23558187
4020.00   28.08344841   0.23408537
4022.00   28.78428650   0.23637252
4024.00   28.69227219   0.23561500
4026.00   29.61502647   0.23792377
4028.00   30.01626205   0.23877373
4030.00   29.72233200   0.23743822
4032.00   30.28336525   0.23861855
4034.00   30.44454384   0.23874894
4036.00   30.45280838   0.23859788
4038.00   31.05864525   0.23993205
4040.00   31.68562126   0.24172473
4042.00   31.90646744   0.24233560
4044.00   32.05582809   0.24576792
4046.00   31.93935585   0.24754418
4048.00   31.82033539   0.24439500
4050.00   31.79936600   0.24060933
4052.00   32.40954971   0.24185468
4054.00   32.76477051   0.24305439
4056.00   32.95904922   0.24294277
4058.00   33.59017563   0.24455430
4060.00   33.57186890   0.24379210
4062.00   33.48543930   0.24349277
4064.00   34.28355789   0.24570787
4066.00   34.58674240   0.24657065
4068.00   34.98051834   0.24751958
4070.00   34.83725357   0.24681106
4072.00   35.18497086   0.24741006
4074.00   35.04102707   0.24673474
4076.00   34.97205734   0.24708012
4078.00   35.46041489   0.24825327
4080.00   35.43085098   0.24754198
4082.00   35.66337204   0.24792393
4084.00   35.59600449   0.24739438
4086.00   35.48188400   0.24681699
4088.00   35.65448380   0.24714556
4090.00   36.10444641   0.24764667
4092.00   36.26744461   0.24803618
4094.00   36.00633240   0.24713773
4096.00   36.65230942   0.24832734
4098.00   36.70171356   0.24889509
4100.00   36.91355896   0.24954210
4102.00   36.87142563   0.24882770
4104.00   36.91996765   0.24860926
4106.00   37.33178329   0.24947731
4108.00   36.90478516   0.24788426
4110.00   37.06386566   0.24798021
4112.00   37.20708466   0.24784252
4114.00   36.76906967   0.24606338
4116.00   36.87942505   0.24595357
4118.00   36.85474777   0.24548574
4120.00   37.56925201   0.24712621
4122.00   36.83594131   0.24421678
4124.00   37.31377029   0.24537204
4126.00   37.23918533   0.24483903
4128.00   37.02278137   0.24367082
4130.00   37.23846817   0.24364802
4132.00   36.58658981   0.24151361
4134.00   36.66015625   0.24080665
4136.00   36.29539108   0.23892424
4138.00   36.23381805   0.23832333
4140.00   35.60838318   0.23569879
4142.00   35.36471558   0.23417668
4144.00   35.20352554   0.23284425
4146.00   34.86416626   0.23108901
4148.00   34.49758530   0.22932321
4150.00   34.62831497   0.22957218
4152.00   34.91008759   0.22993165
4154.00   34.11236572   0.22690763
4156.00   34.46327591   0.22726756
4158.00   34.47192383   0.22663778
4160.00   34.00932693   0.22527444
4162.00   33.54983139   0.22373500
4164.00   34.00493240   0.22512175
4166.00   33.94346237   0.22471258
4168.00   33.99622345   0.22447528
4170.00   33.96404648   0.22392757
4172.00   33.87919235   0.22368909
4174.00   33.31715775   0.22181661
4176.00   33.36805344   0.22205302
4178.00   34.06282806   0.22410424
4180.00   34.07642365   0.22390862
4182.00   34.03936005   0.22376041
4184.00   34.07656479   0.22339666
4186.00   34.27366638   0.22400889
4188.00   34.34495926   0.22375175
4190.00   34.47350311   0.22372927
4192.00   34.29276276   0.22271618
4194.00   34.33214188   0.22263302
4196.00   34.34313965   0.22230455
4198.00   33.88077164   0.22039975
4200.00   33.06299973   0.21761115
4202.00   32.88050842   0.21676803
4204.00   32.68350220   0.21571738
4206.00   31.90269852   0.21276867
4208.00   31.76963425   0.21183829
4210.00   31.00660706   0.20907894
4212.00   31.00620079   0.20854592
4214.00   30.33271599   0.20601034
4216.00   30.00034142   0.20428279
4218.00   30.30553436   0.20500122
4220.00   29.39248848   0.20148402
4222.00   29.14413071   0.20025779
4224.00   29.14005852   0.19966060
4226.00   28.96080971   0.19866322
4228.00   28.24678230   0.19624855
4230.00   28.06895065   0.19514260
4232.00   27.89010429   0.19409813
4234.00   27.59849358   0.19290160
4236.00   27.49225235   0.19213748
4238.00   27.06014061   0.19039343
4240.00   26.83532143   0.18876742
4242.00   26.69878960   0.18758194
4244.00   26.48410988   0.18703605
4246.00   26.10736084   0.18622091
4248.00   25.62503815   0.18401465
4250.00   26.24300766   0.18500356
4252.00   25.45332909   0.18188323
4254.00   25.64332771   0.18227173
4256.00   25.05522728   0.17967747
4258.00   24.19041824   0.17645729
4260.00   23.78967285   0.17462423
4262.00   23.41604233   0.17309789
4264.00   23.14792061   0.17178044
4266.00   22.85173035   0.17016993
4268.00   22.45821381   0.16850527
4270.00   21.99836922   0.16657627
4272.00   21.79011726   0.16535845
4274.00   21.47969818   0.16409348
4276.00   20.75244522   0.16139582
4278.00   20.31333160   0.15949370
4280.00   20.67086220   0.16068044
4282.00   20.04918289   0.15858211
4284.00   20.08090591   0.15856612
4286.00   19.66913223   0.15681927
4288.00   19.59811974   0.15636086
4290.00   19.74151802   0.15673985
4292.00   19.43660545   0.15548559
4294.00   19.51752472   0.15596850
4296.00   19.01893997   0.15452300
4298.00   18.92517853   0.15397064
4300.00   19.19890213   0.15490244
4302.00   18.94427872   0.15391870
4304.00   18.83750725   0.15359274
4306.00   19.06989861   0.15469965
4308.00   18.89876556   0.15383145
4310.00   19.02914238   0.15430658
4312.00   18.96752357   0.15464243
4314.00   19.02290726   0.15504807
4316.00   19.20718384   0.15503687
4318.00   19.33268547   0.15541004
4320.00   19.18739319   0.15485154
4322.00   19.44931602   0.15595794
4324.00   19.68365860   0.15673852
4326.00   19.79698563   0.15698381
4328.00   19.68705559   0.15640955
4330.00   20.10849762   0.15803416
4332.00   20.46569824   0.15916520
4334.00   20.64894295   0.16019228
4336.00   20.72181320   0.16056414
4338.00   20.99093437   0.16158545
4340.00   20.81867599   0.16081448
4342.00   21.13716507   0.16176151
4344.00   20.94310760   0.16110258
4346.00   20.69865417   0.16028000
4348.00   20.70589256   0.16030303
4350.00   20.52859306   0.15937734
4352.00   20.76402664   0.16023859
4354.00   20.51676941   0.16031283
4356.00   20.72093201   0.16658196
4358.00   20.45139503   0.16896796
4360.00   20.21572876   0.16448443
4362.00   19.89648056   0.15839189
4364.00   20.33687592   0.15803790
4366.00   20.38009453   0.15821798
4368.00   20.70868874   0.15864931
4370.00   20.86974525   0.15924063
4372.00   20.86698532   0.15891600
4374.00   20.68522453   0.15840966
4376.00   20.77117538   0.15860288
4378.00   20.48273087   0.15711287
4380.00   20.61681938   0.15737773
4382.00   20.76248550   0.15737391
4384.00   21.33277512   0.15936138
4386.00   21.64466286   0.16026400
4388.00   21.57561684   0.15956455
4390.00   21.55522346   0.15931846
4392.00   21.99066734   0.16065609
4394.00   22.33371735   0.16157857
4396.00   22.38133621   0.16158363
4398.00   22.62317085   0.16208427
4400.00   22.55640984   0.16192743
4402.00   22.98719025   0.16305275
4404.00   22.99798012   0.16264047
4406.00   22.93754959   0.16248776
4408.00   22.95800972   0.16248827
4410.00   23.09926033   0.16283609
4412.00   23.32945633   0.16389382
4414.00   22.58820343   0.16164652
4416.00   22.65269279   0.16197807
4418.00   22.49827766   0.16102716
4420.00   22.70793343   0.16156457
4422.00   22.52136803   0.16069095
4424.00   22.78973198   0.16165310
4426.00   22.16207314   0.15980954
4428.00   22.56957245   0.16120705
4430.00   22.36188889   0.16064520
4432.00   22.62022972   0.16176969
4434.00   22.66017723   0.16162921
4436.00   22.88362694   0.16241930
4438.00   22.58668137   0.16155390
4440.00   22.37705421   0.16097361
4442.00   22.55322456   0.16139005
4444.00   22.53685379   0.16142605
4446.00   22.31202126   0.16061398
4448.00   22.19813728   0.16011767
4450.00   22.84380150   0.16204789
4452.00   22.75104713   0.16188271
4454.00   22.72033310   0.16155052
4456.00   22.80192375   0.16172248
4458.00   23.08185768   0.16262241
4460.00   23.64728355   0.16419086
4462.00   23.81853676   0.16500308
4464.00   24.02283096   0.16546388
4466.00   24.22471428   0.16594812
4468.00   24.78038216   0.16746524
4470.00   24.89434814   0.16754518
4472.00   25.54750061   0.16943055
4474.00   26.28871155   0.17138346
4476.00   26.06399345   0.17037170
4478.00   26.10803795   0.17055815
4480.00   26.90916061   0.17265081
4482.00   27.13303375   0.17322473
4484.00   27.16201782   0.17325911
4486.00   27.60545731   0.17440729
4488.00   27.83601952   0.17489201
4490.00   27.96979713   0.17515700
4492.00   28.36664391   0.17619996
4494.00   28.37198448   0.17614408
4496.00   28.79463768   0.17725866
4498.00   29.06480026   0.17794797
4500.00   29.27165794   0.17820625
4502.00   29.59144020   0.17908083
4504.00   29.41111374   0.17826171
4506.00   29.53330612   0.17879869
4508.00   29.95266724   0.17972676
4510.00   29.73191643   0.17879044
4512.00   29.70714569   0.17866172
4514.00   30.03262329   0.17942913
4516.00   30.09102631   0.17965710
4518.00   30.59678650   0.18111949
4520.00   30.29142761   0.18032795
4522.00   30.30783463   0.18018252
4524.00   30.58353043   0.18116455
4526.00   30.40805817   0.18062685
4528.00   30.44532585   0.18051641
4530.00   30.77376366   0.18153557
4532.00   30.48307037   0.18066254
4534.00   30.39226532   0.18022463
4536.00   30.73363113   0.18102768
4538.00   30.73502159   0.18114513
4540.00   30.52513504   0.18041137
4542.00   30.63009453   0.18055768
4544.00   30.67655945   0.18063374
4546.00   30.05801010   0.17881732
4548.00   30.07971191   0.17841682
4550.00   30.65814781   0.17995514
4552.00   30.27345467   0.17875975
4554.00   29.94449043   0.17784986
4556.00   29.94767761   0.17788301
4558.00   29.83114624   0.17743343
4560.00   29.65087891   0.17673202
4562.00   29.49752426   0.17625093
4564.00   29.59504890   0.17632239
4566.00   29.15863609   0.17463514
4568.00   29.57831001   0.17570055
4570.00   29.43772316   0.17512693
4572.00   28.92660332   0.17361100
4574.00   29.45706367   0.17487355
4576.00   29.52441788   0.17486702
4578.00   29.42420387   0.17455067
4580.00   29.49923325   0.17480816
4582.00   29.37478447   0.17440443
4584.00   29.11310196   0.17359914
4586.00   29.37938118   0.17453276
4588.00   29.37772179   0.17457448
4590.00   29.38718414   0.17482141
4592.00   29.24182510   0.17453699
4594.00   29.33512115   0.17491142
4596.00   29.61845779   0.17602336
4598.00   29.77682877   0.17637469
4600.00   29.32077599   0.17535554
4602.00   29.22812843   0.17529617
4604.00   29.28433990   0.17553231
4606.00   29.11811447   0.17529377
4608.00   28.77309418   0.17445239
4610.00   28.74318695   0.17441095
4612.00   28.43470383   0.17346700
4614.00   28.61927414   0.17410704
4616.00   28.23143959   0.17328680
4618.00   28.37790489   0.17347004
4620.00   28.16716957   0.17272964
4622.00   27.93684006   0.17221402
4624.00   28.02259636   0.17227988
4626.00   27.51560211   0.17093584
4628.00   27.64381409   0.17105044
4630.00   26.65538406   0.16833247
4632.00   26.61727142   0.16794558
4634.00   26.45367432   0.16750018
4636.00   26.17262459   0.16661078
4638.00   25.95520401   0.16582142
4640.00   25.60215569   0.16470423
4642.00   25.35708427   0.16357210
4644.00   24.96851540   0.16232446
4646.00   24.72665405   0.16160938
4648.00   24.40172577   0.16039146
4650.00   24.24410629   0.15985872
4652.00   24.02204132   0.15911503
4654.00   24.17786407   0.15934499
4656.00   23.71160889   0.15747514
4658.00   23.75092316   0.15766342
4660.00   23.23098755   0.15597504
4662.00   23.03441429   0.15531127
4664.00   22.93873024   0.15496129
4666.00   22.92568398   0.15473300
4668.00   22.81225014   0.15450886
4670.00   22.82798958   0.15455507
4672.00   22.72275352   0.15415576
4674.00   22.97184372   0.15472575
4676.00   22.97248459   0.15442036
4678.00   22.53190804   0.15306684
4680.00   22.63273430   0.15318148
4682.00   22.66935921   0.15311825
4684.00   22.31427956   0.15203366
4686.00   22.55368805   0.15256847
4688.00   22.68201828   0.15262637
4690.00   22.24346161   0.15322195
4692.00   22.45405388   0.15182358
4694.00   22.24784851   0.15134639
4696.00   22.32192230   0.15146613
4698.00   21.80583000   0.14944050
4700.00   21.73660278   0.14905898
4702.00   21.87768173   0.14951241
4704.00   21.74337387   0.14880726
4706.00   21.29641533   0.14752388
4708.00   21.24943924   0.14717038
4710.00   21.30531693   0.14724195
4712.00   21.22581100   0.14669603
4714.00   21.20044708   0.14641263
4716.00   21.23262596   0.14652096
4718.00   20.90730095   0.14520687
4720.00   20.62177658   0.14404547
4722.00   20.49527168   0.14336817
4724.00   20.77236366   0.14419566
4726.00   20.25722122   0.14234670
4728.00   20.62326813   0.14362887
4730.00   20.90288925   0.14448430
4732.00   20.47691345   0.14315714
4734.00   20.20612526   0.14241628
4736.00   20.20055962   0.14222051
4738.00   20.00367928   0.14158966
4740.00   20.16391563   0.14227588
4742.00   20.04690933   0.14222343
4744.00   19.73087883   0.14109918
4746.00   19.66115189   0.14003772
4748.00   19.46961403   0.13938501
4750.00   19.33012962   0.13880892
4752.00   19.41240692   0.13905348
4754.00   19.30281258   0.13896357
4756.00   19.62585068   0.13963628
4758.00   19.04915428   0.13738333
4760.00   18.98677444   0.13739504
4762.00   18.62455177   0.13628556
4764.00   18.89496613   0.13711613
4766.00   18.96649551   0.13742055
4768.00   18.72334290   0.13653751
4770.00   18.64988708   0.13619894
4772.00   18.47783470   0.13555992
4774.00   18.78761292   0.13666680
4776.00   18.76039505   0.13660413
4778.00   18.71170044   0.13655145
4780.00   18.73579788   0.13639148
4782.00   18.85409546   0.13655072
4784.00   18.98546791   0.13688484
4786.00   18.58288574   0.13544030
4788.00   18.57530022   0.13529485
4790.00   18.64486313   0.13553166
4792.00   18.54824638   0.13506503
4794.00   18.41322136   0.13461860
4796.00   18.39009857   0.13432822
4798.00   17.91131592   0.13257031
4800.00   18.23782730   0.13349360
4802.00   18.14982224   0.13305904
4804.00   17.83393097   0.13188222
4806.00   17.84494591   0.13171722
4808.00   17.72978592   0.13124359
4810.00   17.35181236   0.12991636
4812.00   17.22571182   0.12934947
4814.00   17.26223946   0.12942453
4816.00   16.83949471   0.12797321
4818.00   16.69582748   0.12733087
4820.00   16.34566689   0.12598349
4822.00   16.36998367   0.12598991
4824.00   16.01919937   0.12451630
4826.00   15.90256786   0.12404434
4828.00   15.44834805   0.12247632
4830.00   15.55791378   0.12255307
4832.00   15.43280220   0.12224722
4834.00   14.98655510   0.12037899
4836.00   14.96509933   0.12028588
4838.00   14.58736324   0.11881413
4840.00   14.67565536   0.11914758
4842.00   14.72259808   0.11903606
4844.00   14.43824577   0.11801724
4846.00   14.15648746   0.11683895
4848.00   14.11613750   0.11649020
4850.00   13.80592442   0.11534858
4852.00   13.80290413   0.11528414
4854.00   14.06575966   0.11610179
4856.00   13.57208347   0.11398077
4858.00   13.70540237   0.11448574
4860.00   13.85231018   0.11509702
4862.00   13.87111664   0.11523521
4864.00   13.57718182   0.11405727
4866.00   13.68047714   0.11414645
4868.00   13.69400883   0.11420870
4870.00   13.54365730   0.11371844
4872.00   13.78192043   0.11449960
4874.00   14.08834076   0.11553527
4876.00   13.95606518   0.11512475
4878.00   14.06250095   0.11549678
4880.00   13.99021339   0.11501979
4882.00   14.24996185   0.11588009
4884.00   14.27622414   0.11594263
4886.00   14.25659370   0.11564509
4888.00   14.68956470   0.11729247
4890.00   14.72670460   0.11737490
4892.00   14.85321712   0.11769424
4894.00   15.06552219   0.11869817
4896.00   15.07149506   0.12052969
4898.00   15.17981529   0.11933671
4900.00   15.58569527   0.12052954
4902.00   15.75414658   0.12096593
4904.00   15.79060268   0.12098760
4906.00   16.11647987   0.12195336
4908.00   15.99942398   0.12163900
4910.00   16.12011719   0.12202094
4912.00   16.25279617   0.12247707
4914.00   16.24838638   0.12256208
4916.00   16.41877747   0.12303402
4918.00   16.34325600   0.12279122
4920.00   16.42574120   0.12292264
4922.00   16.19407463   0.12216710
4924.00   16.19433784   0.12207147
4926.00   16.19579887   0.12191208
4928.00   16.19639015   0.12174451
4930.00   15.85707760   0.12050429
4932.00   15.90969849   0.12068731
4934.00   15.71840382   0.12006927
4936.00   15.81326103   0.12057563
4938.00   15.58703518   0.11936148
4940.00   15.66637516   0.11942373
4942.00   15.60841179   0.11925587
4944.00   15.36412811   0.11847061
4946.00   15.06546879   0.11730002
4948.00   15.08862400   0.11744676
4950.00   15.35842705   0.11822905
4952.00   15.07655525   0.11753700
4954.00   14.97758007   0.11699679
4956.00   15.10153866   0.11743322
4958.00   15.50929928   0.11855669
4960.00   15.06518269   0.11720943
4962.00   15.24131870   0.11776296
4964.00   15.36533070   0.11811423
4966.00   15.54374886   0.11891183
4968.00   15.47408104   0.11884064
4970.00   15.55786514   0.11919891
4972.00   15.20643902   0.11818917
4974.00   15.21796513   0.11818596
4976.00   15.31907368   0.11874011
4978.00   15.35356712   0.11906493
4980.00   15.34222984   0.11930322
4982.00   15.39616585   0.11962655
4984.00   15.52722836   0.12002490
4986.00   15.43763733   0.11943528
4988.00   15.30913353   0.11882217
4990.00   15.47999477   0.11956806
4992.00   15.42479229   0.11901489
4994.00   15.28959274   0.11844056
4996.00   15.70029259   0.11980843
4998.00   15.45749283   0.11873170
5000.00   15.43303680   0.11856061
5002.00   15.46837425   0.11875631
5004.00   15.45913506   0.11854481
5006.00   15.64355659   0.11920846
5008.00   15.64904022   0.11911453
5010.00   15.71642113   0.11954511
5012.00   15.66041279   0.11938462
5014.00   15.83580017   0.12002156
5016.00   15.83248138   0.12002160
5018.00   15.92928886   0.12056002
5020.00   15.97235107   0.12082960
5022.00   16.10119438   0.12124144
5024.00   16.20498276   0.12162282
5026.00   16.11336327   0.12113325
5028.00   16.23461533   0.12165482
5030.00   16.37153625   0.12233181
5032.00   16.31824493   0.12201815
5034.00   16.19510651   0.12138470
5036.00   16.48918724   0.12258112
5038.00   16.57598495   0.12282456
5040.00   16.61394691   0.12302950
5042.00   16.52368736   0.12278667
5044.00   16.52619934   0.12279603
5046.00   16.77396393   0.12370143
5048.00   16.74451065   0.12359544
5050.00   16.92513657   0.12437125
5052.00   17.02028084   0.12458969
5054.00   17.23629570   0.12531202
5056.00   17.20803833   0.12544598
5058.00   17.61245728   0.12682733
5060.00   17.54888344   0.12653080
5062.00   17.93847275   0.12781753
5064.00   17.89756203   0.12782098
5066.00   18.09595108   0.12846401
5068.00   18.03198242   0.12874489
5070.00   18.33134270   0.12986004
5072.00   18.51305771   0.13016330
5074.00   18.54374886   0.13037860
5076.00   18.78604889   0.13125238
5078.00   18.45824623   0.13016510
5080.00   19.01503563   0.13261037
5082.00   19.18133163   0.13356468
5084.00   19.41280556   0.13466978
5086.00   19.41795731   0.13480203
5088.00   19.46784782   0.13468596
5090.00   19.40743828   0.13387968
5092.00   19.65242004   0.13460270
5094.00   19.83546448   0.13488053
5096.00   19.92008400   0.13546269
5098.00   20.03350830   0.13603041
5100.00   20.28495979   0.13688800
5102.00   20.36056709   0.13698354
5104.00   20.53227425   0.13736011
5106.00   20.27674103   0.13662177
5108.00   20.54321098   0.13738829
5110.00   20.81216240   0.13870896
5112.00   20.74252892   0.13866243
5114.00   20.90267563   0.13915505
5116.00   21.07461739   0.13947257
5118.00   20.79249573   0.13883205
5120.00   21.21618652   0.14000189
5122.00   21.02704620   0.13976161
5124.00   21.12709808   0.14024246
5126.00   21.06427193   0.14009346
5128.00   21.09000969   0.14027329
5130.00   21.33455849   0.14115193
5132.00   21.33893967   0.14135776
5134.00   21.02684212   0.14077546
5136.00   21.22261429   0.14166880
5138.00   21.02932930   0.14141138
5140.00   21.14689636   0.14185724
5142.00   21.16570854   0.14226376
5144.00   21.12917328   0.14233056
5146.00   21.07386971   0.14235350
5148.00   20.70654869   0.14171875
5150.00   20.98811722   0.14282556
5152.00   20.91593742   0.14296475
5154.00   20.74835777   0.14279185
5156.00   20.80634880   0.14310548
5158.00   20.75954628   0.14297070
5160.00   20.48871613   0.14236061
5162.00   20.70405197   0.14315745
5164.00   20.63590240   0.14315677
5166.00   20.46322823   0.14270572
5168.00   20.66937637   0.14374849
5170.00   20.76763916   0.14414856
5172.00   20.40999031   0.14320438
5174.00   20.66590309   0.14420214
5176.00   20.49693489   0.14419299
5178.00   20.53165627   0.14455487
5180.00   20.81175232   0.14546129
5182.00   20.62468910   0.14529441
5184.00   20.37850761   0.14467797
5186.00   20.43683052   0.14521240
5188.00   20.63623619   0.14554127
5190.00   20.60536003   0.14566286
5192.00   20.80056763   0.14634711
5194.00   20.49361992   0.14585699
5196.00   20.83761787   0.14718455
5198.00   20.85255432   0.14755778
5200.00   20.98617172   0.14802741
5202.00   20.95568848   0.14822027
5204.00   20.79435539   0.14792524
5206.00   20.82657433   0.14830928
5208.00   20.74327469   0.14821714
5210.00   20.77969360   0.14879040
5212.00   20.63476562   0.14826560
5214.00   20.55573273   0.14823951
5216.00   20.40386772   0.14779799
5218.00   20.08193207   0.14728022
5220.00   20.04081917   0.14720266
5222.00   19.65079117   0.14633225
5224.00   19.67375374   0.14647442
5226.00   19.60278130   0.14630200
5228.00   19.09712219   0.14470062
5230.00   18.68996429   0.14326234
5232.00   18.57341385   0.14333281
5234.00   18.39672852   0.14295055
5236.00   17.94697952   0.14127409
5238.00   17.65302658   0.14073224
5240.00   17.28961182   0.13962932
5242.00   16.83720016   0.13828263
5244.00   16.73979759   0.13775714
5246.00   16.88230515   0.13858916
5248.00   16.59715652   0.13750787
5250.00   16.02740669   0.13570845
5252.00   15.88402557   0.13527904
5254.00   15.79534435   0.13549036
5256.00   15.39386559   0.13428275
5258.00   15.16946316   0.13385223
5260.00   15.02819824   0.13325050
5262.00   14.46007442   0.13126519
5264.00   14.54923630   0.13197182
5266.00   14.27231503   0.13129592
5268.00   14.30348492   0.13141258
5270.00   13.77934456   0.12951680
5272.00   13.92925549   0.13068211
5274.00   13.98951530   0.13112709
5276.00   13.95797443   0.13143417
5278.00   13.67320442   0.13063440
5280.00   13.70934486   0.13109013
5282.00   13.65299320   0.13137014
5284.00   13.84941196   0.13268976
5286.00   13.59966755   0.13165449
5288.00   13.66520786   0.13231848
5290.00   13.73286438   0.13307162
5292.00   13.47059155   0.13234712
5294.00   13.72857094   0.13401383
5296.00   13.83149815   0.13492954
5298.00   13.67952251   0.13482139
5300.00   13.34044361   0.13377002
5302.00   13.62052536   0.13559544
5304.00   13.81197453   0.13712597
5306.00   13.75793839   0.13723697
5308.00   13.45688343   0.13625439
5310.00   13.81089497   0.13818866
5312.00   13.64977646   0.13837931
5314.00   13.73139381   0.13920352
5316.00   13.69672680   0.13945305
5318.00   13.85832310   0.14028536
5320.00   13.70947361   0.14011627
5322.00   13.82266617   0.14100535
5324.00   13.78875256   0.14123160
5326.00   13.80164528   0.14203444
5328.00   13.94172859   0.14328814
5330.00   13.72552109   0.14268434
5332.00   14.00295639   0.14459465
5334.00   13.95980453   0.14490400
5336.00   14.09729385   0.14586398
5338.00   14.15604496   0.14647235
5340.00   14.12160969   0.14694101
5342.00   14.21588230   0.14766522
5344.00   14.23385906   0.14840242
5346.00   14.14355850   0.14821781
5348.00   14.34892273   0.14927202
5350.00   14.78179359   0.15183103
5352.00   14.24271297   0.14931968
5354.00   14.49996662   0.15137251
5356.00   14.92705631   0.15330778
5358.00   14.77371216   0.15302439
5360.00   14.78080177   0.15337951
5362.00   14.64723206   0.15274152
5364.00   14.67092228   0.15283987
5366.00   15.12995434   0.15541214
5368.00   15.16846848   0.15586187
5370.00   15.20930195   0.15656251
5372.00   15.37197685   0.15734746
5374.00   15.25446701   0.15719371
5376.00   15.13717461   0.15694663
5378.00   14.78236866   0.15589859
5380.00   15.06317806   0.15714313
5382.00   15.28914356   0.15860283
5384.00   15.09565830   0.15765852
5386.00   15.06169415   0.15754397
5388.00   15.18120956   0.15868515
5390.00   15.27294731   0.15933868
5392.00   15.17946243   0.15957627
5394.00   15.21086884   0.15947694
5396.00   15.30119896   0.16045606
5398.00   15.28157043   0.16078870
5400.00   15.11874771   0.16007790
5402.00   14.87865543   0.15915921
5404.00   15.00690651   0.16019905
5406.00   15.33332920   0.16203865
5408.00   15.03083515   0.16072597
5410.00   14.82500362   0.16024965
5412.00   14.43043137   0.15857325
5414.00   14.40960407   0.15887111
5416.00   14.47057438   0.15942568
5418.00   13.93858910   0.15708074
5420.00   13.87591839   0.15704860
5422.00   13.71128082   0.15669045
5424.00   13.92530155   0.15772705
5426.00   13.62196636   0.15646985
5428.00   13.66256428   0.15658274
5430.00   13.59898853   0.15616059
5432.00   13.30189800   0.15527691
5434.00   13.17143250   0.15421504
5436.00   13.24736500   0.15489011
5438.00   13.14964485   0.15469594
5440.00   13.00522614   0.15471941
5442.00   12.94242859   0.06860024
5444.00   12.85111523   0.06406739
5446.00   12.69731808   0.05624269
5448.00   12.48354340   0.05707565
5450.00   12.11487865   0.06585084
5452.00   11.96283627   0.06742921
5454.00   11.97901154   0.06577276
5456.00   11.97896576   0.06348895
5458.00   11.92996788   0.05893928
5460.00   11.89383125   0.05489382
5462.00   11.94502640   0.05850863
5464.00   12.09895325   0.06905789
5466.00   12.08053493   0.06894926
5468.00   11.93423176   0.05908969
5470.00   11.79141045   0.05352570
5472.00   11.58290768   0.05365613
5474.00   11.43102551   0.05517475
5476.00   11.47271919   0.05488576
5478.00   11.65615177   0.05399986
5480.00   11.78333759   0.05700704
5482.00   11.94246864   0.06639827
5484.00   12.06398773   0.06775109
5486.00   12.15299320   0.06079297
5488.00   12.23294163   0.05397935
5490.00   12.32320595   0.05339874
5492.00   12.40913105   0.05593111
5494.00   12.43200684   0.05717734
5496.00   12.30375767   0.05793703
5498.00   12.39183998   0.06071403
5500.00   12.61948490   0.06761511
5502.00   12.91006088   0.07016722
5504.00   13.30556393   0.06495826
5506.00   13.72824001   0.05587646
5508.00   13.93248844   0.05326146
5510.00   13.92819023   0.05493746
5512.00   14.08471870   0.05603293
5514.00   14.37384510   0.05827331
5516.00   14.54628658   0.06075320
5518.00   14.55331802   0.06408551
5520.00   14.50956631   0.06697303
5522.00   14.50657845   0.06756315
5524.00   14.45607567   0.06622786
5526.00   14.70480633   0.06672627
5528.00   15.34475613   0.06947893
5530.00   15.74431610   0.06935807
5532.00   15.96558094   0.06473047
5534.00   16.07209969   0.06075687
5536.00   16.03715515   0.06267604
5538.00   15.86213207   0.06801794
5540.00   15.91033077   0.06969327
5542.00   16.12789154   0.07018386
5544.00   16.28584099   0.06979691
5546.00   16.43992043   0.06729501
5548.00   16.58260918   0.06559180
5550.00   16.69624138   0.06684650
5552.00   16.79835510   0.06922134
5554.00   16.95685387   0.06799186
5556.00   17.20037651   0.06263907
5558.00   17.34141922   0.06050886
5560.00   17.43036842   0.06012265
5562.00   17.48198700   0.05999454
5564.00   17.45272255   0.05912338
5566.00   17.41897964   0.05908336
5568.00   17.56713867   0.06300099
5570.00   17.93223000   0.07111942
5572.00   17.98782158   0.07352255
5574.00   17.77829361   0.07311279
5576.00   17.65926743   0.07167585
5578.00   17.65669632   0.06827307
5580.00   17.66642952   0.06430268
5582.00   17.59877014   0.06194770
5584.00   17.47607994   0.06039454
5586.00   17.45337486   0.05953534
5588.00   17.49755287   0.05993582
5590.00   17.55290031   0.06009259
5592.00   17.68435860   0.05963202
5594.00   17.75811005   0.06006746
5596.00   17.66033173   0.06270728
5598.00   17.45109558   0.06664175
5600.00   17.34016418   0.06859717
5602.00   17.19384956   0.07110585
5604.00   17.21255302   0.06996147
5606.00   17.41789818   0.06234847
5608.00   17.61854935   0.05760110
5610.00   17.78755379   0.06153281
5612.00   17.92354393   0.06887474
5614.00   17.86322975   0.07222205
5616.00   17.48846436   0.07572824
5618.00   17.47639465   0.07526898
5620.00   17.78537750   0.06879195
5622.00   17.95415878   0.06529474
5624.00   17.89859390   0.06798159
5626.00   17.75595474   0.07203396
5628.00   17.63898468   0.07221095
5630.00   17.45570183   0.07073258
5632.00   17.45787239   0.06756546
5634.00   17.64124107   0.05945851
5636.00   17.77828026   0.05484621
5638.00   17.89341736   0.05555815
5640.00   17.98131561   0.05753424
5642.00   18.01127434   0.05757642
5644.00   17.99178696   0.05708767
5646.00   17.99178696   0.05715509
5648.00   17.98652649   0.05702895
5650.00   17.98170280   0.05794055
5652.00   17.98420525   0.06065894
5654.00   17.97421074   0.06250992
5656.00   17.92848206   0.06145678
5658.00   17.86324310   0.05883345
5660.00   17.86410332   0.06037946
5662.00   17.97084045   0.06543660
5664.00   17.94895172   0.06869255
5666.00   17.81039429   0.07337132
5668.00   17.69671440   0.07485030
5670.00   17.65471268   0.07078435
5672.00   17.63813972   0.06355546
5674.00   17.58990860   0.05949004
5676.00   17.50999641   0.05490993
5678.00   17.48830414   0.05627581
5680.00   17.53588676   0.06544608
5682.00   17.54126358   0.07006726
5684.00   17.50836372   0.06944792
5686.00   17.43260956   0.06708516
5688.00   17.27045059   0.06616811
5690.00   16.99853325   0.06544522
5692.00   16.88377571   0.06440068
5694.00   16.87351418   0.06289195
5696.00   16.86687469   0.06182497
5698.00   16.91202354   0.06167581
5700.00   16.92784500   0.06115054
5702.00   16.82891846   0.05870190
5704.00   16.65035820   0.05462946
5706.00   16.51390266   0.05382210
5708.00   16.30669212   0.05444935
5710.00   16.26028061   0.05745499
5712.00   16.45847511   0.06582876
5714.00   16.55903244   0.07006814
5716.00   16.35744095   0.06536880
5718.00   16.00296402   0.05470701
5720.00   15.84294796   0.05077348
5722.00   15.77999115   0.05136939
5724.00   15.71879673   0.05145348
5726.00   15.69022083   0.05287115
5728.00   15.68647480   0.05461396
5730.00   15.72416115   0.05740976
5732.00   15.77491570   0.05983035
5734.00   15.77132416   0.05823341
5736.00   15.75517845   0.05142702
5738.00   15.65655231   0.05017287
5740.00   15.42401123   0.05217061
5742.00   15.27294731   0.05506698
5744.00   15.25055504   0.06047864
5746.00   15.23825836   0.06473165
5748.00   15.09853172   0.06342743
5750.00   14.85697746   0.05742970
5752.00   14.78053665   0.05448088
5754.00   14.82348442   0.05189800
5756.00   14.85774803   0.05066549
5758.00   14.96514416   0.05130747
5760.00   14.99863815   0.05246701
5762.00   14.81540012   0.05321660
5764.00   14.48309422   0.05401991
5766.00   14.29260540   0.05528324
5768.00   14.11416340   0.05864531
5770.00   14.04460716   0.05817210
5772.00   14.13009071   0.05299071
5774.00   14.18907547   0.04854664
5776.00   14.13647461   0.04808331
5778.00   14.04112816   0.04952875
5780.00   14.01710224   0.04971445
5782.00   14.05209732   0.05000692
5784.00   14.03809357   0.04969597
5786.00   14.00130272   0.04855103
5788.00   13.95877743   0.04778026
5790.00   13.90179825   0.04770322
5792.00   13.84711838   0.04788376
5794.00   13.83072567   0.04772471
5796.00   13.83118534   0.04694806
5798.00   13.88399792   0.04818011
5800.00   14.06509399   0.05083220
5802.00   14.11348724   0.05379481
5804.00   13.96063519   0.05857565
5806.00   13.79936028   0.06184421
5808.00   13.81670666   0.05984355
5810.00   13.93969727   0.05307125
5812.00   14.05144596   0.05110912
5814.00   14.23883629   0.05254842
5816.00   14.34913445   0.05280178
5818.00   14.39895725   0.05223471
5820.00   14.41497803   0.05199783
5822.00   14.38626289   0.05306122
5824.00   14.32152081   0.05480027
5826.00   14.37570667   0.05428716
5828.00   14.58663559   0.05060389
5830.00   14.64822960   0.05004408
5832.00   14.57961178   0.05248392
5834.00   14.54468346   0.05394563
5836.00   14.60295963   0.05313564
5838.00   14.70047092   0.05127510
5840.00   14.76944256   0.04999143
5842.00   14.83720112   0.04831341
5844.00   14.89684677   0.04763798
5846.00   14.94502831   0.04793504
5848.00   14.99735737   0.04818647
5850.00   15.08017063   0.04833424
5852.00   15.14362621   0.04848164
5854.00   15.09520721   0.04846809
5856.00   14.92518711   0.04802218
5858.00   14.91517735   0.04911620
5860.00   15.00810814   0.05123734
5862.00   15.10518837   0.05375762
5864.00   15.27004051   0.05832218
5866.00   15.38437653   0.06111932
5868.00   15.30613708   0.05833262
5870.00   15.08232117   0.05060630
5872.00   15.00573635   0.04769534
5874.00   14.98492050   0.04738203
5876.00   14.99803162   0.04780631
5878.00   15.08536339   0.04930881
5880.00   15.15696526   0.05186493
5882.00   15.18689060   0.05652929
5884.00   15.18407726   0.06184474
5886.00   15.03792191   0.06115916
5888.00   14.64205933   0.05262617
5890.00   14.48738480   0.05001218
5892.00   14.45480061   0.05175884
5894.00   14.48956776   0.05266131
5896.00   14.61058521   0.05117092
5898.00   14.78012085   0.04893159
5900.00   14.87381744   0.04817212
5902.00   14.93701267   0.04825070
5904.00   14.98134041   0.04846587
5906.00   14.97189617   0.04967794
5908.00   15.00023270   0.04997936
5910.00   15.08864212   0.04892774
5912.00   15.18691158   0.04751448
5914.00   15.24497128   0.04680321
5916.00   15.29204559   0.04619560
5918.00   15.27374649   0.04684168
5920.00   15.11320496   0.04858406
5922.00   15.10240936   0.05059062
5924.00   15.26428986   0.05412770
5926.00   15.45104980   0.05632808
5928.00   15.57186508   0.05466589
5930.00   15.67339325   0.05002923
5932.00   15.70600986   0.04826744
5934.00   15.63752556   0.04813309
5936.00   15.62773800   0.04772682
5938.00   15.65745068   0.04763482
5940.00   15.68190575   0.04749233
5942.00   15.67402363   0.04670941
5944.00   15.65646744   0.04585422
5946.00   15.69132900   0.04730321
5948.00   15.77437305   0.05117898
5950.00   15.84138012   0.05343066
5952.00   15.93919945   0.05624270
5954.00   15.99032307   0.05708579
5956.00   15.97657871   0.05474500
5958.00   15.92096806   0.05094269
5960.00   15.83912563   0.04921736
5962.00   15.68838596   0.04849875
5964.00   15.64305305   0.04784997
5966.00   15.69272423   0.04719896
5968.00   15.70725155   0.04769908
5970.00   15.68686008   0.05010732
5972.00   15.64830971   0.05248037
5974.00   15.58889675   0.05298731
5976.00   15.50015926   0.05247980
5978.00   15.46587753   0.05132217
5980.00   15.48742104   0.04813064
5982.00   15.47437668   0.04658725
5984.00   15.42370033   0.04663742
5986.00   15.37881279   0.04724773
5988.00   15.37271023   0.04803864
5990.00   15.38825035   0.04918635
5992.00   15.36032772   0.04954993
5994.00   15.33751392   0.04941764
5996.00   15.23422813   0.04919507
5998.00   15.04582310   0.04887188
6000.00   14.84132385   0.04819495
6002.00   14.64205837   0.04673422
6004.00   14.43333912   0.04493621
6006.00   14.21471024   0.04456370
6008.00   13.96003437   0.04575093
6010.00   13.76810455   0.04567502
6012.00   13.64288616   0.04501375
6014.00   13.48874950   0.04423829
6016.00   13.29929066   0.04325101
6018.00   13.08202076   0.04223253
6020.00   12.82279968   0.04171369
6022.00   12.51633835   0.04166027
6024.00   12.22252178   0.04118880
6026.00   11.92255974   0.04041724
6028.00   11.61616611   0.03980656
6030.00   11.30673504   0.03943032
6032.00   10.98686981   0.03904919
6034.00   10.64038754   0.03837062
6036.00   10.26650238   0.03743116
6038.00   9.96188068   0.03723750
6040.00   9.72357178   0.03809561
6042.00   9.45857525   0.03799941
6044.00   9.19306946   0.03611519
6046.00   8.90643406   0.03540372
6048.00   8.56704998   0.03866934
6050.00   8.19675350   0.04354069
6052.00   7.91833210   0.04307469
6054.00   7.70990229   0.03680331
6056.00   7.49943399   0.03416773
6058.00   7.32414150   0.03377433
6060.00   7.13650990   0.03345713
6062.00   6.91037846   0.03262071
6064.00   6.67623425   0.03174319
6066.00   6.49738216   0.03099188
6068.00   6.36758947   0.03023059
6070.00   6.21369267   0.02978929
6072.00   6.04843330   0.02965473
6074.00   5.89940929   0.02962007
6076.00   5.76891279   0.02985694
6078.00   5.65186787   0.03003453
6080.00   5.54831076   0.02955123
6082.00   5.46455765   0.02843726
6084.00   5.36065960   0.02794152
6086.00   5.21742964   0.02760880
6088.00   5.13293123   0.02766769
6090.00   5.13885403   0.02855431
6092.00   5.13518333   0.02918223
6094.00   5.02952719   0.02847358
6096.00   4.85849094   0.02676025
6098.00   4.76934385   0.02651752
6100.00   4.74795341   0.02684157
6102.00   4.67914915   0.02804060
6104.00   4.54699898   0.03127933
6106.00   4.45530510   0.03299965
6108.00   4.47015905   0.03131812
6110.00   4.54266214   0.02748552
6112.00   4.54259586   0.02614053
6114.00   4.49038458   0.02624514
6116.00   4.47590446   0.02641277
6118.00   4.48287201   0.02697585
6120.00   4.48368311   0.02809933
6122.00   4.47089434   0.03051190
6124.00   4.45303631   0.03279074
6126.00   4.43771362   0.03206458
6128.00   4.41302156   0.02747737
6130.00   4.41919136   0.02745622
6132.00   4.45722294   0.03175538
6134.00   4.48760557   0.03337532
6136.00   4.49694443   0.03185225
6138.00   4.51640129   0.02936807
6140.00   4.58691692   0.02817780
6142.00   4.70378256   0.02742153
6144.00   4.76714230   0.02684307
6146.00   4.80125380   0.02661167
6148.00   4.83156204   0.02654730
6150.00   4.84249258   0.02679456
6152.00   4.86170816   0.02707877
6154.00   4.91014051   0.02716851
6156.00   4.97727489   0.02717698
6158.00   5.05905914   0.02740328
6160.00   5.16302824   0.02777590
6162.00   5.26908302   0.02817748
6164.00   5.38003492   0.02883748
6166.00   5.50108624   0.02921939
6168.00   5.64173222   0.02899624
6170.00   5.79131556   0.02846851
6172.00   5.90900373   0.02843218
6174.00   6.00958920   0.02879343
6176.00   6.09396553   0.02884176
6178.00   6.12382698   0.02820149
6180.00   6.20616913   0.02852790
6182.00   6.36776638   0.03033362
6184.00   6.56958294   0.03261340
6186.00   6.77297258   0.03439898
6188.00   7.01966190   0.03672987
6190.00   7.17730045   0.03648870
6192.00   7.25980139   0.03265194
6194.00   7.34951687   0.03099149
6196.00   7.42975235   0.03235762
6198.00   7.52267313   0.03446687
6200.00   7.66087341   0.03590046
6202.00   7.83023834   0.03748740
6204.00   8.02511597   0.03753418
6206.00   8.29031467   0.03514187
6208.00   8.49014664   0.03494573
6210.00   8.63395023   0.03664697
6212.00   8.75786304   0.03890682
6214.00   8.85824585   0.04143103
6216.00   8.93929577   0.04424765
6218.00   9.14942551   0.04546944
6220.00   9.52025700   0.04607365
6222.00   9.77447987   0.04544035
6224.00   9.98716831   0.04304092
6226.00   10.15112591   0.04045424
6228.00   10.24537373   0.03788159
6230.00   10.29714966   0.03537319
6232.00   10.38837719   0.03468415
6234.00   10.47644901   0.03578332
6236.00   10.60720253   0.03672734
6238.00   10.79155159   0.03877358
6240.00   10.95850563   0.03985293
6242.00   11.12162209   0.03940288
6244.00   11.25426769   0.03860359
6246.00   11.27905273   0.03910728
6248.00   11.17035961   0.04057044
6250.00   11.26145935   0.04089947
6252.00   11.52968979   0.04006751
6254.00   11.72217846   0.04023312
6256.00   11.84630489   0.04177704
6258.00   11.94660473   0.04324357
6260.00   12.03610325   0.04355888
6262.00   12.10261250   0.04323546
6264.00   12.23175240   0.04274443
6266.00   12.45496845   0.04153936
6268.00   12.57953072   0.04080570
6270.00   12.61079121   0.04051822
6272.00   12.63346100   0.04018131
6274.00   12.67381001   0.03912455
6276.00   12.72045994   0.03784074
6278.00   12.84512615   0.03920777
6280.00   13.08137989   0.04417254
6282.00   13.23037148   0.04538443
6284.00   13.34032726   0.04435819
6286.00   13.43250656   0.04313821
6288.00   13.51042461   0.04168179
6290.00   13.57177258   0.04036261
6292.00   13.62066364   0.04156422
6294.00   13.65791321   0.04577472
6296.00   13.67327976   0.04637550
6298.00   13.66250706   0.04464905
6300.00   13.64716625   0.04304000
6302.00   13.62150002   0.04134035
6304.00   13.59584236   0.03984509
6306.00   13.58573914   0.03954537
6308.00   13.57941151   0.04018391
6310.00   13.61213398   0.04094486
6312.00   13.66892719   0.04285975
6314.00   13.76095963   0.04345316
6316.00   13.91735649   0.04262308
6318.00   14.06702805   0.04146897
6320.00   14.15095139   0.04054524
6322.00   14.19644260   0.03950771
6324.00   14.24877834   0.04017735
6326.00   14.30377102   0.04297761
6328.00   14.32489491   0.04427550
6330.00   14.32225037   0.04508625
6332.00   14.29117012   0.04512454
6334.00   14.20413685   0.04385240
6336.00   14.09076023   0.04170219
6338.00   14.09219551   0.04082710
6340.00   14.20675373   0.04012479
6342.00   14.26208019   0.04089262
6344.00   14.31989002   0.04409487
6346.00   14.35053730   0.04569466
6348.00   14.33309174   0.04450371
6350.00   14.29987907   0.04234932
6352.00   14.31145000   0.04223286
6354.00   14.34837055   0.04336982
6356.00   14.38927746   0.04400192
6358.00   14.49724483   0.04484791
6360.00   14.50480080   0.04538651
6362.00   14.36248779   0.04563032
6364.00   14.19517231   0.04564479
6366.00   14.12597847   0.04522695
6368.00   14.09689617   0.04412700
6370.00   14.13891602   0.04512426
6372.00   14.33776379   0.04948336
6374.00   14.39292145   0.05003859
6376.00   14.30052948   0.04640113
6378.00   14.18793201   0.04220002
6380.00   14.12232018   0.04001459
6382.00   14.06868076   0.03876396
6384.00   14.05714703   0.03944426
6386.00   14.09654999   0.04381367
6388.00   14.12338734   0.04461224
6390.00   14.20142841   0.04184182
6392.00   14.20433998   0.04052712
6394.00   14.04289246   0.04393588
6396.00   13.80804634   0.04852381
6398.00   13.73913860   0.04777714
6400.00   13.80129051   0.04144457
6402.00   13.79247665   0.03906331
6404.00   13.74361610   0.03737659
6406.00   13.73903465   0.03839338
6408.00   13.85405540   0.04375237
6410.00   13.95542049   0.04937528
6412.00   13.79326057   0.05071422
6414.00   13.34599304   0.04989645
6416.00   13.27337265   0.04788231
6418.00   13.50431633   0.04197909
6420.00   13.62644577   0.03823347
6422.00   13.65940475   0.03739007
6424.00   13.64289093   0.03799122
6426.00   13.56401634   0.03941159
6428.00   13.41365719   0.04217697
6430.00   13.36304092   0.04208669
6432.00   13.39648533   0.03915233
6434.00   13.38295269   0.03774375
6436.00   13.33630753   0.03735849
6438.00   13.28371048   0.03744581
6440.00   13.23632050   0.03803971
6442.00   13.18803310   0.03904894
6444.00   13.14075089   0.03894509
6446.00   13.08633900   0.03772449
6448.00   13.04970074   0.03718613
6450.00   13.02951241   0.03679755
6452.00   13.01117611   0.03671539
6454.00   12.99742222   0.03688397
6456.00   12.98166466   0.03741409
6458.00   12.93517780   0.03883573
6460.00   12.86338329   0.04213696
6462.00   12.78862572   0.04209916
6464.00   12.68570614   0.03871026
6466.00   12.60780621   0.03649490
6468.00   12.56708622   0.03620216
6470.00   12.53909683   0.03680541
6472.00   12.49720573   0.03782624
6474.00   12.45278358   0.03990945
6476.00   12.40449810   0.03991746
6478.00   12.34073830   0.03753094
6480.00   12.29837704   0.03679910
6482.00   12.28814602   0.03842575
6484.00   12.27545357   0.03978769
6486.00   12.23203945   0.03880247
6488.00   12.17059994   0.03620299
6490.00   12.10633945   0.03536781
6492.00   12.00652218   0.03554421
6494.00   11.96016121   0.03571882
6496.00   11.97447681   0.03638829
6498.00   11.98279095   0.03683012
6500.00   11.95124626   0.03658098
6502.00   11.90217113   0.03597396
6504.00   11.86764336   0.03586445
6506.00   11.84275532   0.03571380
6508.00   11.80503845   0.03631146
6510.00   11.75495911   0.03821790
6512.00   11.70922756   0.03913862
6514.00   11.67315388   0.03835821
6516.00   11.64039230   0.03680735
6518.00   11.60219860   0.03593957
6520.00   11.55838871   0.03508745
6522.00   11.52500916   0.03477751
6524.00   11.50870705   0.03529236
6526.00   11.47539043   0.03536984
6528.00   11.41242504   0.03451236
6530.00   11.34859467   0.03383156
6532.00   11.31801701   0.03465612
6534.00   11.31005287   0.03639457
6536.00   11.29367638   0.03864911
6538.00   11.29354572   0.04368825
6540.00   11.26427269   0.04436995
6542.00   11.19880772   0.03945301
6544.00   11.12972546   0.03405571
6546.00   11.08112240   0.03368232
6548.00   11.04143047   0.03617050
6550.00   10.98549652   0.03704032
6552.00   10.90381241   0.03840123
6554.00   10.85571003   0.03841974
6556.00   10.84652233   0.03656384
6558.00   10.82574940   0.03529973
6560.00   10.75941944   0.03619515
6562.00   10.67855549   0.03792293
6564.00   10.66931820   0.03772683
6566.00   10.75563526   0.03536805
6568.00   10.73837185   0.03529823
6570.00   10.62131691   0.03757447
6572.00   10.56049728   0.03830295
6574.00   10.60770226   0.03603230
6576.00   10.68479347   0.03288853
6578.00   10.68275452   0.03295940
6580.00   10.63737965   0.03505890
6582.00   10.58791256   0.03724527
6584.00   10.49759674   0.04178794
6586.00   10.43965054   0.04319647
6588.00   10.43115711   0.04088703
6590.00   10.42383003   0.03733316
6592.00   10.36024666   0.03500624
6594.00   10.25021648   0.03268437
6596.00   10.24705601   0.03214800
6598.00   10.36380482   0.03347042
6600.00   10.39994526   0.03486599
6602.00   10.37673378   0.03725968
6604.00   10.32826042   0.03898226
6606.00   10.25441647   0.03886213
6608.00   10.15650177   0.03762257
6610.00   10.13715935   0.03764652
6612.00   10.21873188   0.03840731
6614.00   10.20825958   0.03889016
6616.00   10.13546753   0.04002908
6618.00   10.05439186   0.04003712
6620.00   9.96453571   0.03749914
6622.00   9.87647629   0.03368011
6624.00   9.86656570   0.03327796
6626.00   9.96887589   0.03646924
6628.00   9.94047642   0.03631644
6630.00   9.78564358   0.03363059
6632.00   9.70205975   0.03195246
6634.00   9.74419212   0.03195537
6636.00   9.81370449   0.03279903
6638.00   9.78917980   0.03406467
6640.00   9.71081734   0.03631382
6642.00   9.63478470   0.03685965
6644.00   9.50599575   0.03649103
6646.00   9.43769741   0.03558735
6648.00   9.44915771   0.03346738
6650.00   9.47079754   0.03133457
6652.00   9.44129562   0.03070122
6654.00   9.38473988   0.03105780
6656.00   9.36377811   0.03133558
6658.00   9.36901474   0.03135829
6660.00   9.36341476   0.03279440
6662.00   9.37775326   0.03629403
6664.00   9.35370827   0.03882916
6666.00   9.23263836   0.03933604
6668.00   9.05691814   0.03864500
6670.00   9.01059723   0.03684565
6672.00   9.08596992   0.03098579
6674.00   9.08872414   0.02983989
6676.00   9.05851841   0.03307362
6678.00   9.03551483   0.03563546
6680.00   9.03318882   0.03710988
6682.00   9.03697777   0.03783820
6684.00   9.02883530   0.03621367
6686.00   9.03038597   0.03049579
6688.00   8.97952271   0.02917482
6690.00   8.85257339   0.03144190
6692.00   8.77386665   0.03303447
6694.00   8.75765896   0.03405506
6696.00   8.76962090   0.03471355
6698.00   8.78713322   0.03450718
6700.00   8.83007336   0.03332952
6702.00   8.82928276   0.03332126
6704.00   8.80780411   0.03478871
6706.00   8.76319218   0.03466365
6708.00   8.67759895   0.03234839
6710.00   8.59305573   0.02995444
6712.00   8.54394531   0.02955549
6714.00   8.51409721   0.03035107
6716.00   8.48693752   0.03050237
6718.00   8.47926998   0.03077175
6720.00   8.45486355   0.03071723
6722.00   8.42428780   0.03032054
6724.00   8.38132668   0.02987497
6726.00   8.31221199   0.02926663
6728.00   8.23064709   0.02867135
6730.00   8.19744873   0.02943659
6732.00   8.20236874   0.03182012
6734.00   8.20452309   0.03294162
6736.00   8.24118900   0.03424158
6738.00   8.24240780   0.03425817
6740.00   8.18305302   0.03175181
6742.00   8.09759521   0.02829035
6744.00   8.03543091   0.02819061
6746.00   7.97059679   0.03058716
6748.00   7.93343830   0.03211780
6750.00   7.91516066   0.03426131
6752.00   7.91392899   0.03561108
6754.00   7.94131231   0.03620391
6756.00   7.97336197   0.03634205
6758.00   7.98313427   0.03622900
6760.00   7.98509169   0.03584783
6762.00   7.95757198   0.03456214
6764.00   7.88390970   0.03150263
6766.00   7.83843851   0.02958841
6768.00   7.82005787   0.02882205
6770.00   7.80266190   0.02851546
6772.00   7.76815987   0.02836108
6774.00   7.72569227   0.02853183
6776.00   7.70482302   0.02853813
6778.00   7.70325327   0.02854025
6780.00   7.69486952   0.02856855
6782.00   7.69002247   0.02866467
6784.00   7.67848444   0.02869907
6786.00   7.65274763   0.02860137
6788.00   7.62033606   0.02843589
6790.00   7.60099363   0.02834304
6792.00   7.58704948   0.02826707
6794.00   7.57976198   0.02822278
6796.00   7.58710003   0.02821822
6798.00   7.58542013   0.02821860
6800.00   7.56638956   0.02822190
6802.00   7.54382896   0.02822987
6804.00   7.53806782   0.02823784
6806.00   7.54640436   0.02825414
6808.00   7.53948116   0.02824460
6810.00   7.53291702   0.02829194
6812.00   7.50748634   0.02817934
6814.00   7.44581604   0.02739297
6816.00   7.38955069   0.02708283
6818.00   7.38446760   0.02869606
6820.00   7.41537237   0.03163162
6822.00   7.41871452   0.03283719
6824.00   7.42715073   0.03380960
6826.00   7.40392208   0.03341967
6828.00   7.33675575   0.03074734
6830.00   7.27286243   0.02825462
6832.00   7.23799610   0.02805974
6834.00   7.21785402   0.02910488
6836.00   7.20709753   0.02893815
6838.00   7.20926809   0.02806318
6840.00   7.21883678   0.02765519
6842.00   7.25304794   0.02699074
6844.00   7.26950455   0.02719295
6846.00   7.24945545   0.02870500
6848.00   7.21262980   0.03089928
6850.00   7.19323301   0.03302653
6852.00   7.17841101   0.03609466
6854.00   7.16761160   0.03699252
6856.00   7.16899395   0.03639253
6858.00   7.15949965   0.03549134
6860.00   7.11941719   0.03408849
6862.00   7.08703470   0.03246479
6864.00   7.12702370   0.03135635
6866.00   7.24172401   0.03028607
6868.00   7.25096464   0.03054991
6870.00   7.18909073   0.03281287
6872.00   7.12695789   0.03366505
6874.00   7.04216337   0.03322345
6876.00   6.96641636   0.03231958
6878.00   6.93275166   0.03135271
6880.00   6.92618942   0.03003845
6882.00   6.93317556   0.02942135
6884.00   6.98663187   0.02940969
6886.00   6.99523020   0.02928164
6888.00   6.96470213   0.02878142
6890.00   6.92958689   0.02894838
6892.00   6.90547276   0.03061900
6894.00   6.88261986   0.03297033
6896.00   6.85286808   0.03375328
6898.00   6.82081461   0.03404937
6900.00   6.78084326   0.03326002
6902.00   6.72097826   0.03015420
6904.00   6.67859507   0.02819912
6906.00   6.66973591   0.02916818
6908.00   6.67379189   0.03111231
6910.00   6.65630054   0.03128304
6912.00   6.63016987   0.03063947
6914.00   6.59762335   0.02983276
6916.00   6.54158068   0.02803985
6918.00   6.51018333   0.02692777
6920.00   6.51479101   0.02678706
6922.00   6.52839327   0.02708164
6924.00   6.52241421   0.02738778
6926.00   6.50797081   0.02795396
6928.00   6.49406719   0.02823658
6930.00   6.46297312   0.02799742
6932.00   6.46070194   0.02853906
6934.00   6.49953079   0.03021019
6936.00   6.53472996   0.03158922
6938.00   6.53220797   0.03176785
6940.00   6.50819540   0.03123777
6942.00   6.49658251   0.03084883
6944.00   6.48986387   0.02961823
6946.00   6.47458696   0.02977356
6948.00   6.44799709   0.03192972
6950.00   6.42546797   0.03301848
6952.00   6.41224718   0.03149334
6954.00   6.40514421   0.02853657
6956.00   6.40638304   0.02766638
6958.00   6.43229055   0.02837583
6960.00   6.42184639   0.02836178
6962.00   6.36102915   0.02807693
6964.00   6.34008121   0.02817709
6966.00   6.39534712   0.02890746
6968.00   6.47123480   0.02985909
6970.00   6.48181200   0.03057731
6972.00   6.45129585   0.03170479
6974.00   6.42967892   0.03099296
6976.00   6.39253378   0.02742583
6978.00   6.36618948   0.02565355
6980.00   6.35309315   0.02667790
6982.00   6.34397745   0.02826790
6984.00   6.32919788   0.02873100
6986.00   6.31008005   0.02887363
6988.00   6.31464958   0.02863934
6990.00   6.37625265   0.02738319
6992.00   6.36072540   0.02715107
6994.00   6.25381708   0.02811063
6996.00   6.14658260   0.02900553
6998.00   6.08481550   0.02920201
7000.00   6.04453754   0.02906200
7002.00   6.06206417   0.02865010
7004.00   6.18379736   0.02760629
7006.00   6.21419954   0.02697832
7008.00   6.17805910   0.02653688
7010.00   6.14327097   0.02621554
7012.00   6.12830162   0.02580506
7014.00   6.12045383   0.02558827
7016.00   6.12460566   0.02654179
7018.00   6.15533733   0.02891388
7020.00   6.14957523   0.02992842
7022.00   6.10553837   0.03043499
7024.00   6.08267164   0.03062865
7026.00   6.09278965   0.03028144
7028.00   6.11533737   0.02982761
7030.00   6.13291359   0.03021664
7032.00   6.16426086   0.03153476
7034.00   6.14395046   0.03099042
7036.00   6.05832338   0.02786849
7038.00   6.01167727   0.02671817
7040.00   6.00367403   0.02825717
7042.00   6.01121426   0.03016329
7044.00   6.02604723   0.03105833
7046.00   6.05600691   0.03174536
7048.00   6.04878998   0.03097826
7050.00   5.99892378   0.02743158
7052.00   5.97979498   0.02623099
7054.00   5.98224258   0.02705937
7056.00   5.99268007   0.02864097
7058.00   6.01270485   0.03096882
7060.00   6.03939533   0.03369081
7062.00   6.02833033   0.03370918
7064.00   5.97464514   0.03113033
7066.00   5.94764948   0.02941423
7068.00   5.93040323   0.02697514
7070.00   5.91652155   0.02538987
7072.00   5.90544748   0.02567987
7074.00   5.89706707   0.02684197
7076.00   5.88782454   0.02705530
7078.00   5.87758684   0.02694313
7080.00   5.87264156   0.02687757
7082.00   5.87534237   0.02668016
7084.00   5.87325382   0.02653682
7086.00   5.85189342   0.02624625
7088.00   5.84045506   0.02620092
7090.00   5.88697243   0.02708471
7092.00   5.99183035   0.02876668
7094.00   6.01729345   0.02971472
7096.00   6.00957108   0.03053241
7098.00   5.96265030   0.03098757
7100.00   5.83570862   0.03083936
7102.00   5.72469759   0.03075702
7104.00   5.71240807   0.03162688
7106.00   5.76139736   0.03310871
7108.00   5.80408859   0.03197420
7110.00   5.88945293   0.02690561
7112.00   5.93318272   0.02472933
7114.00   5.95009279   0.02545169
7116.00   5.95038033   0.02634488
7118.00   5.93062925   0.02637029
7120.00   5.89601707   0.02620533
7122.00   5.88398933   0.02613124
7124.00   5.89479494   0.02603022
7126.00   5.88100672   0.02595570
7128.00   5.85443735   0.02588905
7130.00   5.82121372   0.02583851
7132.00   5.77275801   0.02579970
7134.00   5.72416592   0.02578112
7136.00   5.71302938   0.02580851
7138.00   5.73240757   0.02589403
7140.00   5.74578190   0.02593348
7142.00   5.77973938   0.02595815
7144.00   5.78909349   0.02597127
7146.00   5.76333761   0.02596166
7148.00   5.72948313   0.02595225
7150.00   5.71469879   0.02595846
7152.00   5.70786810   0.02595323
7154.00   5.70241880   0.02610165
7156.00   5.70452785   0.02646569
7158.00   5.70158529   0.02667475
7160.00   5.69538546   0.02683869
7162.00   5.68644571   0.02684361
7164.00   5.67105818   0.02647167
7166.00   5.65085125   0.02581199
7168.00   5.65366650   0.02587833
7170.00   5.69148207   0.02669712
7172.00   5.69330645   0.02701999
7174.00   5.66505671   0.02707495
7176.00   5.63696957   0.02709275
7178.00   5.61707401   0.02713230
7180.00   5.60095501   0.02715958
7182.00   5.59694099   0.02721874
7184.00   5.60023928   0.02720711
7186.00   5.61713362   0.02744150
7188.00   5.65655184   0.02794580
7190.00   5.68792105   0.02836581
7192.00   5.71637917   0.02882274
7194.00   5.73081684   0.02908603
7196.00   5.69799662   0.02849310
7198.00   5.61450100   0.02663528
7200.00   5.56866646   0.02681960
7202.00   5.53473425   0.02866370
7204.00   5.50669003   0.03008845
7206.00   5.46991301   0.03179552
7208.00   5.45732641   0.03272984
7210.00   5.52044058   0.03131123
7212.00   5.65518522   0.02754080
7214.00   5.65280437   0.02661065
7216.00   5.51663542   0.02770958
7218.00   5.45553684   0.02853975
7220.00   5.43751383   0.03015745
7222.00   5.44597149   0.03095630
7224.00   5.48855114   0.02956021
7226.00   5.55908298   0.02662983
7228.00   5.57949305   0.02607142
7230.00   5.56510830   0.02761617
7232.00   5.55643845   0.02795581
7234.00   5.54097223   0.02775080
7236.00   5.52324915   0.02764538
7238.00   5.50119591   0.02788123
7240.00   5.47873831   0.02821788
7242.00   5.47176933   0.02830271
7244.00   5.48093081   0.02820775
7246.00   5.47958994   0.02818787
7248.00   5.47501898   0.02816217
7250.00   5.46955347   0.02814090
7252.00   5.46441221   0.02822166
7254.00   5.45724344   0.02821700
7256.00   5.44372559   0.02777423
7258.00   5.42235756   0.02684310
7260.00   5.41312313   0.02650779
7262.00   5.41900539   0.02653198
7264.00   5.41142321   0.02662808
7266.00   5.38878298   0.02684078
7268.00   5.36221170   0.02714019
7270.00   5.33810282   0.02743874
7272.00   5.31265402   0.02775116
7274.00   5.29818535   0.02847863
7276.00   5.29131031   0.02951233
7278.00   5.28957510   0.03066309
7280.00   5.29763508   0.03288019
7282.00   5.30503654   0.03378409
7284.00   5.31052876   0.03162917
7286.00   5.31347179   0.02734780
7288.00   5.29180908   0.02622213
7290.00   5.24268293   0.02797708
7292.00   5.20244360   0.02809826
7294.00   5.15421247   0.02773087
7296.00   5.11562109   0.02731422
7298.00   5.08985853   0.02678530
7300.00   5.07439041   0.02630320
7302.00   5.07273769   0.02653951
7304.00   5.09807968   0.02756068
7306.00   5.08658743   0.02788066
7308.00   5.03612518   0.02774498
7310.00   5.01051903   0.02781205
7312.00   5.02023268   0.02818595
7314.00   5.03929043   0.02859772
7316.00   5.04514265   0.02887384
7318.00   5.05147696   0.02922791
7320.00   5.02945662   0.02867215
7322.00   4.96777153   0.02674163
7324.00   4.93044996   0.02567880
7326.00   4.92553043   0.02558283
7328.00   4.91247463   0.02566532
7330.00   4.85461378   0.02535808
7332.00   4.76781559   0.02491643
7334.00   4.73765278   0.02513448
7336.00   4.75737953   0.02593956
7338.00   4.75339603   0.02663439
7340.00   4.74067307   0.02781818
7342.00   4.72494364   0.02833784
7344.00   4.70667362   0.02743364
7346.00   4.68608141   0.02572226
7348.00   4.66844749   0.02527045
7350.00   4.65643311   0.02587076
7352.00   4.63377857   0.02575549
7354.00   4.59481335   0.02514585
7356.00   4.56894493   0.02488082
7358.00   4.56563711   0.02531769
7360.00   4.57117653   0.02591964
7362.00   4.56695938   0.02587843
7364.00   4.56037951   0.02533699
7366.00   4.55153561   0.02518398
7368.00   4.54517126   0.02523204
7370.00   4.52705145   0.02522293
7372.00   4.49578142   0.02515265
7374.00   4.45642662   0.02506747
7376.00   4.40942812   0.02497884
7378.00   4.34974051   0.02486579
7380.00   4.32173777   0.02487233
7382.00   4.33885717   0.02438908
7384.00   4.31290579   0.02518369
7386.00   4.24554443   0.02766154
7388.00   4.16934633   0.02971323
7390.00   4.09537601   0.03033834
7392.00   4.01806068   0.03022227
7394.00   3.98175597   0.03004229
7396.00   3.97017407   0.02964454
7398.00   3.98603845   0.02872637
7400.00   4.06939602   0.02672376
7402.00   4.11215544   0.02510739
7404.00   4.07383919   0.02451946
7406.00   3.98812604   0.02462007
7408.00   3.88918686   0.02530988
7410.00   3.72026277   0.02770605
7412.00   3.64918661   0.02744090
7414.00   3.65070248   0.02452314
7416.00   3.65260363   0.02237888
7418.00   3.64981651   0.02194369
7420.00   3.64952350   0.02220746
7422.00   3.64787340   0.02227427
7424.00   3.65105724   0.02261596
7426.00   3.63335466   0.02263635
7428.00   3.58992147   0.02239906
7430.00   3.56008315   0.02228419
7432.00   3.53675961   0.02212884
7434.00   3.52689028   0.02221302
7436.00   3.54765105   0.02283767
7438.00   3.59722352   0.02383863
7440.00   3.59747100   0.02502661
7442.00   3.56232738   0.02757002
7444.00   3.53057837   0.02777953
7446.00   3.47678447   0.02515655
7448.00   3.44524384   0.02260349
7450.00   3.47553706   0.02246738
7452.00   3.54095268   0.02353569
7454.00   3.53734970   0.02334851
7456.00   3.47060657   0.02218869
7458.00   3.44494081   0.02199253
7460.00   3.42658424   0.02206184
7462.00   3.42894316   0.02287567
7464.00   3.47474170   0.02519587
7466.00   3.53182220   0.02760614
7468.00   3.51322079   0.02725423
7470.00   3.40914822   0.02363453
7472.00   3.39909863   0.02333913
7474.00   3.46631289   0.02598151
7476.00   3.50028086   0.02698427
7478.00   3.48374081   0.02547847
7480.00   3.45472026   0.02354284
7482.00   3.45020556   0.02422925
7484.00   3.45911026   0.02692240
7486.00   3.45166779   0.02681640
7488.00   3.43501544   0.02423205
7490.00   3.41658640   0.02283308
7492.00   3.38364816   0.02274764
7494.00   3.36325574   0.02297203
7496.00   3.39008570   0.02274512
7498.00   3.45263290   0.02236007
7500.00   3.43636894   0.02335847
7502.00   3.32508349   0.02645347
7504.00   3.29710245   0.02716984
7506.00   3.33102822   0.02554962
7508.00   3.38083053   0.02430749
7510.00   3.44246101   0.02521371
7512.00   3.51244760   0.02693926
7514.00   3.51586890   0.02688113
7516.00   3.43736672   0.02531329
7518.00   3.42177916   0.02453083
7520.00   3.43355107   0.02380578
7522.00   3.45269752   0.02332156
7524.00   3.47898746   0.02322172
7526.00   3.51036358   0.02332138
7528.00   3.53452396   0.02324891
7530.00   3.55768657   0.02312515
7532.00   3.57347631   0.02306408
7534.00   3.58130884   0.02305005
7536.00   3.58874106   0.02302611
7538.00   3.59648442   0.02262994
7540.00   3.60224962   0.02261825
7542.00   3.60157061   0.02406552
7544.00   3.59191656   0.02659803
7546.00   3.60914993   0.02790160
7548.00   3.65901923   0.02941006
7550.00   3.68707943   0.02932424
7552.00   3.69514298   0.02694772
7554.00   3.69925427   0.02433401
7556.00   3.70258164   0.02332585
7558.00   3.70294690   0.02320074
7560.00   3.74344039   0.02329491
7562.00   3.83788061   0.02426142
7564.00   3.89208460   0.02468702
7566.00   3.92507434   0.02487912
7568.00   3.94715619   0.02497155
7570.00   3.96363449   0.02500862
7572.00   3.96949100   0.02495610
7574.00   3.95124364   0.02475516
7576.00   3.89017773   0.02413018
7578.00   3.87301755   0.02415266
7580.00   3.88231611   0.02478543
7582.00   3.89407873   0.02521955
7584.00   3.90089965   0.02507938
7586.00   3.91449761   0.02501186
7588.00   3.95350051   0.02585869
7590.00   4.02470779   0.02661744
7592.00   4.05393744   0.03021876
7594.00   4.09004593   0.03643438
7596.00   4.05621529   0.04072435
7598.00   3.93230081   0.04356835
7600.00   3.77590656   0.04601282
7602.00   3.60622978   0.04790638
7604.00   3.37875271   0.04868444
7606.00   3.46810412   0.05553173
7608.00   3.99055362   0.07108672
7610.00   4.18484116   0.07446411
7612.00   4.05665302   0.06717838
7614.00   3.93419147   0.05742685
7616.00   4.01688433   0.05074460
7618.00   4.19093704   0.04448226
7620.00   4.21543980   0.03954309
7622.00   4.15235043   0.03691437
7624.00   4.07731009   0.03468166
7626.00   3.88594770   0.03379216
7628.00   3.80423141   0.03388138
7630.00   3.94479847   0.03520938
7632.00   4.18826914   0.03720031
7634.00   4.30405188   0.03813374
7636.00   4.38720894   0.03897455
7638.00   4.40670156   0.03868696
7640.00   4.32101440   0.03677728
7642.00   4.27663708   0.03546076
7644.00   4.29550123   0.03492234
7646.00   4.33581448   0.03497663
7648.00   4.36168432   0.03590663
7650.00   4.38647175   0.03789643
7652.00   4.41947985   0.03874100
7654.00   4.49269533   0.03988760
7656.00   4.49946785   0.03920219
7658.00   4.41796637   0.03560115
7660.00   4.32479906   0.03140248
7662.00   4.28011656   0.02950084
7664.00   4.25575829   0.02903697
7666.00   4.24627638   0.02813619
7668.00   4.24365711   0.02670043
7670.00   4.27954388   0.02717270
7672.00   4.38590193   0.03034646
7674.00   4.46558380   0.03253091
7676.00   4.46609068   0.03228178
7678.00   4.42070341   0.03067937
7680.00   4.37469816   0.02916698
7682.00   4.27950096   0.02548609
7684.00   4.24411392   0.02511366
7686.00   4.24679422   0.02827496
7688.00   4.26175451   0.03019935
7690.00   4.28939152   0.03005017
7692.00   4.32530785   0.02898455
7694.00   4.34806395   0.02791981
7696.00   4.37874413   0.02589316
7698.00   4.36175728   0.02528043
7700.00   4.27389431   0.02581885
7702.00   4.23311186   0.02635611
7704.00   4.24971008   0.02697378
7706.00   4.29480410   0.02757858
7708.00   4.35602522   0.02791519
7710.00   4.45504665   0.02814651
7712.00   4.47529554   0.02796677
7714.00   4.43549109   0.02640926
7716.00   4.39434099   0.02674395
7718.00   4.31884003   0.02956808
7720.00   4.26653481   0.03201732
7722.00   4.29377937   0.03262207
7724.00   4.37546444   0.03228893
7726.00   4.41886330   0.03122647
7728.00   4.45600510   0.02748509
7730.00   4.48586082   0.02671052
7732.00   4.51145744   0.02925556
7734.00   4.52558613   0.03111035
7736.00   4.52943850   0.03099135
7738.00   4.52017021   0.02991761
7740.00   4.47526455   0.02867759
7742.00   4.35165834   0.02565585
7744.00   4.32976055   0.02517116
7746.00   4.38968420   0.02711986
7748.00   4.43724251   0.02843352
7750.00   4.45357800   0.02872791
7752.00   4.46206474   0.02859768
7754.00   4.47901726   0.02825321
7756.00   4.49349880   0.02740139
7758.00   4.52707720   0.02698641
7760.00   4.59184790   0.02639780
7762.00   4.63179493   0.02660903
7764.00   4.63811541   0.02801167
7766.00   4.63736057   0.02951524
7768.00   4.65719366   0.03026159
7770.00   4.69096041   0.03079901
7772.00   4.68807268   0.03010771
7774.00   4.65286684   0.02726339
7776.00   4.62389517   0.02587042
7778.00   4.57167292   0.02595286
7780.00   4.55154896   0.02639063
7782.00   4.61770058   0.02663354
7784.00   4.74122906   0.02696723
7786.00   4.78507519   0.02720982
7788.00   4.79670334   0.02746900
7790.00   4.77692652   0.02760239
7792.00   4.67960215   0.02754702
7794.00   4.62636566   0.02757040
7796.00   4.68393564   0.02781330
7798.00   4.78682613   0.02813516
7800.00   4.79312754   0.02824962
7802.00   4.72726536   0.02821159
7804.00   4.69769764   0.02822723
7806.00   4.66229200   0.02831413
7808.00   4.64808035   0.02824559
7810.00   4.65495205   0.02781627
7812.00   4.68410063   0.02738792
7814.00   4.75043011   0.02761924
7816.00   4.87028599   0.02844189
7818.00   4.92000914   0.02870267
7820.00   4.93085146   0.02869510
7822.00   4.92645407   0.02865913
7824.00   4.89353228   0.02846744
7826.00   4.85630798   0.02834823
7828.00   4.83977270   0.02863798
7830.00   4.83222866   0.02925434
7832.00   4.83524561   0.02919940
7834.00   4.85849094   0.02825324
7836.00   4.86946011   0.02817010
7838.00   4.87002230   0.02862321
7840.00   4.87126541   0.02957094
7842.00   4.88909054   0.03149881
7844.00   4.91179419   0.03385014
7846.00   4.86805964   0.03360418
7848.00   4.72964287   0.02969872
7850.00   4.67567158   0.02916935
7852.00   4.66023493   0.03076631
7854.00   4.67433119   0.03283600
7856.00   4.72149515   0.03554121
7858.00   4.79512596   0.03821450
7860.00   4.87513494   0.03873359
7862.00   5.00026321   0.03758959
7864.00   5.04220390   0.03663670
7866.00   5.02893257   0.03516717
7868.00   4.99280739   0.03343925
7870.00   4.91466522   0.03092062
7872.00   4.83111191   0.02845431
7874.00   4.80278444   0.02793807
7876.00   4.80697584   0.02922127
7878.00   4.82524157   0.02914232
7880.00   4.89448643   0.02834698
7882.00   4.91946554   0.02795010
7884.00   4.89577770   0.02795918
7886.00   4.86128092   0.02806212
7888.00   4.84328842   0.02810786
7890.00   4.82962370   0.02818524
7892.00   4.79913330   0.02797439
7894.00   4.73062944   0.02713246
7896.00   4.71581888   0.02709801
7898.00   4.75100946   0.02744734
7900.00   4.79439402   0.02844935
7902.00   4.83375216   0.03071466
7904.00   4.87449265   0.03340624
7906.00   4.89064884   0.03369191
7908.00   4.88505077   0.03155769
7910.00   4.87994003   0.03083053
7912.00   4.88334513   0.03052591
7914.00   4.85493946   0.03033019
7916.00   4.75961494   0.03033514
7918.00   4.65029907   0.03035188
7920.00   4.63641119   0.02975046
7922.00   4.69092512   0.02838440
7924.00   4.74146128   0.02790298
7926.00   4.84398079   0.02805387
7928.00   4.89938831   0.02816572
7930.00   4.89336443   0.02827750
7932.00   4.86554003   0.02837754
7934.00   4.85047817   0.02835202
7936.00   4.83127356   0.02823296
7938.00   4.82228422   0.02815850
7940.00   4.84094810   0.02812502
7942.00   4.81829643   0.02800356
7944.00   4.72475576   0.02772279
7946.00   4.65577745   0.02749507
7948.00   4.69025660   0.02749811
7950.00   4.79007912   0.02764706
7952.00   4.82341957   0.02767633
7954.00   4.83232069   0.02753926
7956.00   4.82793999   0.02768940
7958.00   4.79709864   0.02813468
7960.00   4.76719570   0.02855345
7962.00   4.75216913   0.02888255
7964.00   4.74029493   0.02914457
7966.00   4.70950985   0.02913194
7968.00   4.66489744   0.02862823
7970.00   4.61759758   0.02870034
7972.00   4.53780174   0.02936402
7974.00   4.50016499   0.02966459
7976.00   4.53336573   0.02926016
7978.00   4.59151316   0.02870409
7980.00   4.60676432   0.02885438
7982.00   4.59993315   0.02949090
7984.00   4.60435247   0.02995254
7986.00   4.61882830   0.03078829
7988.00   4.61559677   0.03096556
7990.00   4.58034372   0.03017672
7992.00   4.54884672   0.02925922
7994.00   4.56554747   0.02901421
7996.00   4.62135077   0.02904861
7998.00   4.60383320   0.02986027
8000.00   4.51482344   0.03252972
8002.00   4.46611452   0.03289044
8004.00   4.44710207   0.03072940
8006.00   4.43417645   0.02839024
8008.00   4.41052151   0.02744098
8010.00   4.38610649   0.02717655
8012.00   4.40612602   0.02742777
8014.00   4.49505186   0.02900912
8016.00   4.51887465   0.02934377
8018.00   4.50590134   0.02868511
8020.00   4.47489405   0.02823581
8022.00   4.41969442   0.02847583
8024.00   4.35224867   0.02896295
8026.00   4.32230759   0.02909452
8028.00   4.30863476   0.02905164
8030.00   4.32088375   0.02903068
8032.00   4.39401579   0.02909833
8034.00   4.41921663   0.02889201
8036.00   4.37627411   0.02823156
8038.00   4.30291748   0.02742550
8040.00   4.23227453   0.02693694
8042.00   4.13806963   0.02658763
8044.00   4.09422874   0.02637132
8046.00   4.10197687   0.02640571
8048.00   4.08593655   0.02635481
8050.00   4.05064487   0.02613119
8052.00   4.00479078   0.02601398
8054.00   3.93940234   0.02609717
8056.00   3.85120511   0.02624808
8058.00   3.85221386   0.02773267
8060.00   3.96451187   0.03161509
8062.00   3.99646211   0.03249123
8064.00   3.96940064   0.03065002
8066.00   3.92898417   0.02853617
8068.00   3.89072371   0.02745591
8070.00   3.84659982   0.02673864
8072.00   3.81382489   0.02626091
8074.00   3.77086568   0.02636137
8076.00   3.76947331   0.02613665
8078.00   3.82216549   0.02559802
8080.00   3.85451722   0.02540861
8082.00   3.84545588   0.02595428
8084.00   3.81689000   0.02671746
8086.00   3.78943253   0.02672902
8088.00   3.74767685   0.02609381
8090.00   3.72370934   0.02600328
8092.00   3.72153807   0.02619052
8094.00   3.70065856   0.02637467
8096.00   3.65110493   0.02653859
8098.00   3.59544301   0.02673414
8100.00   3.55995560   0.02704305
8102.00   3.53807116   0.02754577
8104.00   3.49699950   0.02740820
8106.00   3.45840311   0.02669806
8108.00   3.38799334   0.02600880
8110.00   3.26264429   0.02508017
8112.00   3.14739704   0.02429941
8114.00   3.09429550   0.02410407
8116.00   3.07903886   0.02432456
8118.00   3.05870795   0.02433351
8120.00   3.06761169   0.02447142
8122.00   3.04179358   0.02432727
8124.00   2.98846889   0.02370109
8126.00   2.92691350   0.02333331
8128.00   2.85631371   0.02366926
8130.00   2.78111267   0.02435179
8132.00   2.74380112   0.02463527
8134.00   2.75248575   0.02446782
8136.00   2.72459173   0.02500779
8138.00   2.67064548   0.02622819
8140.00   2.62963939   0.02714022
8142.00   2.60838890   0.02782351
8144.00   2.59918737   0.02812163
8146.00   2.60349536   0.02725792
8148.00   2.64477253   0.02483795
8150.00   2.60763431   0.02369812
8152.00   2.48940325   0.02321576
8154.00   2.40477633   0.02289896
8156.00   2.35043883   0.02273962
8158.00   2.31788135   0.02284581
8160.00   2.31725574   0.02334596
8162.00   2.35338664   0.02426535
8164.00   2.34462023   0.02466347
8166.00   2.30405807   0.02483999
8168.00   2.27457547   0.02487422
8170.00   2.24514890   0.02445301
8172.00   2.22505021   0.02429703
8174.00   2.22728133   0.02504537
8176.00   2.24503660   0.02631194
8178.00   2.23588252   0.02683291
8180.00   2.21184182   0.02709484
8182.00   2.18190575   0.02704194
8184.00   2.13274837   0.02637793
8186.00   2.09360099   0.02590893
8188.00   2.07608294   0.02596326
8190.00   2.07063270   0.02629000
8192.00   2.06652880   0.02665922
8194.00   2.08132029   0.02758788
8196.00   2.06397438   0.02742387
8198.00   2.00088716   0.02618366
8200.00   1.97437453   0.02516477
8202.00   2.00867915   0.02446915
8204.00   2.06267047   0.02404880
8206.00   2.08508849   0.02427389
8208.00   2.09901786   0.02539089
8210.00   2.09262466   0.02518155
8212.00   2.07073593   0.02379215
8214.00   2.03004837   0.02280509
8216.00   1.94485223   0.02211465
8218.00   1.87240851   0.02172346
8220.00   1.87768877   0.02188018
8222.00   1.93948865   0.02255857
8224.00   1.95354700   0.02268931
8226.00   1.94514513   0.02242160
8228.00   1.94430435   0.02243214
8230.00   1.92957890   0.02236439
8232.00   1.93975282   0.02277738
8234.00   2.01502037   0.02420422
8236.00   2.12844443   0.02614103
8238.00   2.15407896   0.02696680
8240.00   2.11383057   0.02790377
8242.00   2.08352470   0.02706585
8244.00   2.02482796   0.02342887
8246.00   1.98536825   0.02033750
8248.00   1.99112940   0.01967978
8250.00   2.01169896   0.02028667
8252.00   1.98474848   0.02053296
8254.00   1.91997719   0.02098690
8256.00   1.87513709   0.02179833
8258.00   1.81016362   0.02370501
8260.00   1.79012978   0.02428441
8262.00   1.84336841   0.02287003
8264.00   1.91295791   0.02083211
8266.00   1.92270088   0.02028057
8268.00   1.89443743   0.02059643
8270.00   1.89296627   0.02076711
8272.00   1.89811516   0.02108308
8274.00   1.90812969   0.02162686
8276.00   1.92870963   0.02258004
8278.00   1.94733071   0.02344035
8280.00   1.95485699   0.02384760
8282.00   1.95630765   0.02400045
8284.00   1.93994546   0.02397928
8286.00   1.87983441   0.02352131
8288.00   1.87258923   0.02338582
8290.00   1.91493964   0.02348773
8292.00   1.96184754   0.02363221
8294.00   2.00175166   0.02381211
8296.00   2.03871369   0.02400237
8298.00   2.03333330   0.02381862
8300.00   1.97829056   0.02326978
8302.00   1.94653642   0.02276685
8304.00   1.90094388   0.02195519
8306.00   1.88493299   0.02145477
8308.00   1.92006671   0.02149056
8310.00   1.97664034   0.02181778
8312.00   2.00133228   0.02213822
8314.00   2.00867558   0.02271650
8316.00   2.02726245   0.02285486
8318.00   2.05444121   0.02246534
8320.00   2.07200909   0.02246044
8322.00   2.07349873   0.02304420
8324.00   2.07394576   0.02368973
8326.00   2.08996773   0.02390583
8328.00   2.11486077   0.02391266
8330.00   2.14460278   0.02375735
8332.00   2.18671274   0.02283113
8334.00   2.22183633   0.02296510
8336.00   2.24735332   0.02437467
8338.00   2.27644682   0.02576841
8340.00   2.31922078   0.02646503
8342.00   2.37082076   0.02686649
8344.00   2.41678572   0.02705414
8346.00   2.47330284   0.02703238
8348.00   2.50366592   0.02672333
8350.00   2.50145602   0.02592021
8352.00   2.50640583   0.02516336
8354.00   2.53658128   0.02464646
8356.00   2.57769179   0.02427215
8358.00   2.60700917   0.02413889
8360.00   2.60613680   0.02324028
8362.00   2.67181468   0.02507773
8364.00   2.82729506   0.03047567
8366.00   2.92584419   0.03278068
8368.00   2.92026782   0.03085797
8370.00   2.88316417   0.02713705
8372.00   2.91769528   0.02571175
8374.00   3.00781679   0.02536550
8376.00   3.02472711   0.02503776
8378.00   2.97559285   0.02539070
8380.00   2.95975900   0.02550424
8382.00   2.97871733   0.02533081
8384.00   3.01246166   0.02513189
8386.00   3.05294061   0.02506065
8388.00   3.10745287   0.02500642
8390.00   3.13957930   0.02539034
8392.00   3.14567828   0.02616843
8394.00   3.17525530   0.02697489
8396.00   3.22698569   0.02816962
8398.00   3.28247952   0.02899734
8400.00   3.33255887   0.02895854
8402.00   3.38214779   0.02835801
8404.00   3.43061781   0.02796052
8406.00   3.48658419   0.02728603
8408.00   3.52218676   0.02702364
8410.00   3.52266264   0.02659399
8412.00   3.54691172   0.02708960
8414.00   3.62861657   0.02944278
8416.00   3.73153543   0.03221292
8418.00   3.77582192   0.03251781
8420.00   3.78172898   0.03082474
8422.00   3.78771758   0.03000007
8424.00   3.75140691   0.02796055
8426.00   3.76097941   0.02819122
8428.00   3.85485649   0.03245118
8430.00   3.96140194   0.03664799
8432.00   3.97947359   0.03668089
8434.00   3.93880010   0.03384589
8436.00   3.90977979   0.03186773
8438.00   3.83294344   0.02846051
8440.00   3.82123971   0.02661830
8442.00   3.88077807   0.02705846
8444.00   3.97029734   0.02810626
8446.00   4.07002163   0.02854203
8448.00   4.19558525   0.02896166
8450.00   4.25621319   0.02914462
8452.00   4.25597763   0.02884869
8454.00   4.27942467   0.02910393
8456.00   4.31228209   0.02946238
8458.00   4.34707451   0.03048353
8460.00   4.38812923   0.03292254
8462.00   4.43085241   0.03591030
8464.00   4.43551064   0.03637771
8466.00   4.38835716   0.03501520
8468.00   4.38333035   0.03358874
8470.00   4.40392351   0.03006680
8472.00   4.42276955   0.02821471
8474.00   4.43123007   0.03024757
8476.00   4.43862104   0.03355091
8478.00   4.45715570   0.03452608
8480.00   4.48890114   0.03483465
8482.00   4.50484180   0.03398164
8484.00   4.50703526   0.03051974
8486.00   4.51543999   0.02866433
8488.00   4.52725601   0.02946815
8490.00   4.54695606   0.03114059
8492.00   4.59167004   0.03224419
8494.00   4.67118883   0.03367017
8496.00   4.66758490   0.03350567
8498.00   4.55741072   0.02932653
8500.00   4.53059816   0.03045071
8502.00   4.59570932   0.03744611
8504.00   4.67210054   0.04379381
8506.00   4.71675873   0.04786870
8508.00   4.75361776   0.05132531
8510.00   4.70929813   0.04869675
8512.00   4.50402498   0.03469176
8514.00   4.47847033   0.02721714
8516.00   4.62256193   0.02822545
8518.00   4.76251698   0.03012350
8520.00   4.83730221   0.02986298
8522.00   4.88283205   0.02950173
8524.00   4.87429857   0.03042605
8526.00   4.77772045   0.03262994
8528.00   4.74262762   0.03404616
8530.00   4.72772694   0.03611152
8532.00   4.72458076   0.03661356
8534.00   4.73379040   0.03422024
8536.00   4.75343132   0.03073819
8538.00   4.77826357   0.03067432
8540.00   4.82144499   0.03344813
8542.00   4.83028650   0.03385223
8544.00   4.81912184   0.03320504
8546.00   4.79400873   0.03252055
8548.00   4.74811554   0.03149961
8550.00   4.69501305   0.03061135
8552.00   4.64401293   0.03067278
8554.00   4.58029556   0.03145439
8556.00   4.59558916   0.03192538
8558.00   4.69278479   0.03265412
8560.00   4.76866484   0.03291020
8562.00   4.85736036   0.03240874
8564.00   4.91784382   0.03214113
8566.00   4.90440369   0.03287004
8568.00   4.84049082   0.03416276
8570.00   4.84529114   0.03497088
8572.00   4.89136791   0.03641009
8574.00   4.93283939   0.03604927
8576.00   5.00695992   0.03336975
8578.00   5.04573488   0.03106982
8580.00   5.00778818   0.03052320
8582.00   4.93363619   0.03083474
8584.00   4.91932726   0.03087539
8586.00   4.95880556   0.03122662
8588.00   4.94094467   0.03128127
8590.00   4.87768698   0.03117133
8592.00   4.82987404   0.03104207
8594.00   4.80571032   0.03075383
8596.00   4.79306793   0.03056739
8598.00   4.78611374   0.03094332
8600.00   4.78741789   0.03148122
8602.00   4.79592609   0.03321329
8604.00   4.81297112   0.03744147
8606.00   4.83553410   0.03867887
8608.00   4.87546253   0.03591811
8610.00   4.90739107   0.03275942
8612.00   4.90382051   0.03368554
8614.00   4.87524128   0.03713107
8616.00   4.84646225   0.03711779
8618.00   4.77488518   0.03397012
8620.00   4.76981354   0.03299822
8622.00   4.84116697   0.03425470
8624.00   4.91292763   0.03535790
8626.00   4.94437695   0.03506139
8628.00   4.95863724   0.03411533
8630.00   4.97290850   0.03395749
8632.00   4.98747873   0.03447403
8634.00   4.98108816   0.03437275
8636.00   4.94106817   0.03378166
8638.00   4.91715765   0.03328708
8640.00   4.94008398   0.03293279
8642.00   4.97310066   0.03277150
8644.00   4.93230438   0.03335584
8646.00   4.80502081   0.03507515
8648.00   4.77282715   0.03534729
8650.00   4.80879545   0.03426960
8652.00   4.83101702   0.03389613
8654.00   4.84627676   0.03486126
8656.00   4.84292936   0.03589808
8658.00   4.77841139   0.03549832
8660.00   4.64558744   0.03393324
8662.00   4.60087490   0.03335079
8664.00   4.61339712   0.03322426
8666.00   4.62450218   0.03313959
8668.00   4.63904619   0.03324044
8670.00   4.66231918   0.03331769
8672.00   4.69590712   0.03311930
8674.00   4.73949909   0.03273620
8676.00   4.78490067   0.03266133
8678.00   4.84876347   0.03245316
8680.00   4.88629246   0.03300350
8682.00   4.90754652   0.03468738
8684.00   4.91144228   0.03593456
8686.00   4.89741468   0.03612835
8688.00   4.86554861   0.03570804
8690.00   4.81225014   0.03489954
8692.00   4.69793558   0.03290597
8694.00   4.66086769   0.03196324
8696.00   4.70133257   0.03158469
8698.00   4.70746422   0.03146672
8700.00   4.63846779   0.03156131
8702.00   4.54575014   0.03190590
8704.00   4.50530100   0.03250788
8706.00   4.48384237   0.03372496
8708.00   4.49758482   0.03385793
8710.00   4.57064772   0.03308703
8712.00   4.61735201   0.03245097
8714.00   4.62622976   0.03187600
8716.00   4.62842560   0.03143537
8718.00   4.65223980   0.03143274
8720.00   4.68702650   0.03183009
8722.00   4.72050381   0.03195059
8724.00   4.77276134   0.03171503
8726.00   4.79368782   0.03205645
8728.00   4.78724098   0.03322436
8730.00   4.76186228   0.03423088
8732.00   4.71548176   0.03447793
8734.00   4.64812136   0.03429436
8736.00   4.60715103   0.03379245
8738.00   4.57958698   0.03221321
8740.00   4.55463934   0.03182821
8742.00   4.52686357   0.03216069
8744.00   4.51712704   0.03311132
8746.00   4.54827595   0.03500461
8748.00   4.59676504   0.03727122
8750.00   4.58076620   0.03804079
8752.00   4.49398518   0.03791457
8754.00   4.46713781   0.03753285
8756.00   4.46536589   0.03624039
8758.00   4.47709894   0.03527031
8760.00   4.51216078   0.03458492
8762.00   4.55230522   0.03442511
8764.00   4.55721331   0.03581752
8766.00   4.54054689   0.03901973
8768.00   4.51483727   0.03992005
8770.00   4.48190880   0.03983452
8772.00   4.42457867   0.03900282
8774.00   4.32198286   0.03669024
8776.00   4.22164774   0.03416564
8778.00   4.17776299   0.03333387
8780.00   4.17186213   0.03367685
8782.00   4.14665794   0.03327274
8784.00   4.12902069   0.03257576
8786.00   4.09372282   0.03213014
8788.00   4.03915691   0.03195550
8790.00   3.98009038   0.03179210
8792.00   3.92592645   0.03149322
8794.00   3.87149882   0.03113528
8796.00   3.80653715   0.03076077
8798.00   3.68746495   0.02933435
8800.00   3.67064857   0.03022994
8802.00   3.74482489   0.03340906
8804.00   3.83165908   0.03607418
8806.00   3.92301559   0.03807948
8808.00   4.01558018   0.03946871
8810.00   4.04289103   0.03854647
8812.00   4.00606489   0.03401765
8814.00   3.99781442   0.03276229
8816.00   3.99812555   0.03368996
8818.00   3.98410296   0.03453560
8820.00   3.95627928   0.03519123
8822.00   3.91324496   0.03584165
8824.00   3.84236073   0.03632890
8826.00   3.73199344   0.03680580
8828.00   3.67894554   0.03680760
8830.00   3.65935826   0.03634031
8832.00   3.65241337   0.03583349
8834.00   3.67907500   0.03529822
8836.00   3.69748783   0.03459464
8838.00   3.65941262   0.03348590
8840.00   3.58120799   0.03193932
8842.00   3.54922867   0.03135751
8844.00   3.53564501   0.03145116
8846.00   3.53696847   0.03178854
8848.00   3.56123209   0.03279918
8850.00   3.59009433   0.03357810
8852.00   3.61851168   0.03359183
8854.00   3.64808321   0.03320322
8856.00   3.65300083   0.03319886
8858.00   3.65704751   0.03306693
8860.00   3.61125684   0.03358402
8862.00   3.48633361   0.03512582
8864.00   3.39953637   0.03598224
8866.00   3.38566470   0.03560777
8868.00   3.40940380   0.03465604
8870.00   3.43638587   0.03409817
8872.00   3.49490333   0.03342644
8874.00   3.52103782   0.03322099
8876.00   3.52494574   0.03268614
8878.00   3.53407001   0.03364830
8880.00   3.55680275   0.03739372
8882.00   3.57503295   0.04068100
8884.00   3.56449008   0.04000018
8886.00   3.52718687   0.03604666
8888.00   3.51957965   0.03433542
8890.00   3.53624177   0.03342783
8892.00   3.53782988   0.03264930
8894.00   3.52757430   0.03198087
8896.00   3.51033044   0.03173874
8898.00   3.48243213   0.03206280
8900.00   3.44381690   0.03285217
8902.00   3.44113541   0.03460197
8904.00   3.49067712   0.03886668
8906.00   3.48796892   0.03952130
8908.00   3.44257665   0.03650257
8910.00   3.39051914   0.03369981
8912.00   3.34015536   0.03335529
8914.00   3.28874373   0.03415333
8916.00   3.26422381   0.03449444
8918.00   3.24460721   0.03511871
8920.00   3.27075124   0.03545962
8922.00   3.36295557   0.03589320
8924.00   3.43113780   0.03585453
8926.00   3.46087670   0.03506963
8928.00   3.46655035   0.03390071
8930.00   3.44219661   0.03297655
8932.00   3.36278892   0.03178543
8934.00   3.35725594   0.03157903
8936.00   3.43162227   0.03253356
8938.00   3.44936967   0.03302350
8940.00   3.38622260   0.03299483
8942.00   3.30973887   0.03279881
8944.00   3.28620982   0.03242282
8946.00   3.29193401   0.03149961
8948.00   3.28061295   0.03305964
8950.00   3.24858356   0.03779492
8952.00   3.25472212   0.03955689
8954.00   3.32068729   0.03894553
8956.00   3.37173581   0.03765269
8958.00   3.35029793   0.03645274
8960.00   3.28569126   0.03489856
8962.00   3.26365113   0.03400995
8964.00   3.25697684   0.03366045
8966.00   3.25741363   0.03324182
8968.00   3.27819729   0.03284448
8970.00   3.28988075   0.03264332
8972.00   3.27659249   0.03282214
8974.00   3.25296426   0.03317642
8976.00   3.24974966   0.03306074
8978.00   3.25789452   0.03231686
8980.00   3.26857567   0.03241411
8982.00   3.28884029   0.03300435
8984.00   3.30621338   0.03380483
8986.00   3.30770183   0.03453476
8988.00   3.31628346   0.03565953
8990.00   3.37588906   0.03812473
8992.00   3.49024701   0.04224637
8994.00   3.54458690   0.04311211
8996.00   3.59214973   0.04147074
8998.00   3.58135700   0.04024410
9000.00   3.47594976   0.03909308
9002.00   3.36532640   0.03822593
9004.00   3.33747506   0.03834592
9006.00   3.35547566   0.03931725
9008.00   3.38137841   0.03915061
9010.00   3.46974802   0.03831610
9012.00   3.48720860   0.03738689
9014.00   3.43583703   0.03592260
9016.00   3.37251711   0.03466890
9018.00   3.32008505   0.03423398
9020.00   3.26693964   0.03430792
9022.00   3.24569201   0.03409343
9024.00   3.25805378   0.03385469
9026.00   3.25993156   0.03364786
9028.00   3.26942253   0.03348696
9030.00   3.26980948   0.03329487
9032.00   3.25869107   0.03305351
9034.00   3.23649812   0.03277364
9036.00   3.19174051   0.03242618
9038.00   3.09990263   0.03181762
9040.00   3.07761359   0.03176358
9042.00   3.11272502   0.03222162
9044.00   3.13795710   0.03260333
9046.00   3.15587234   0.03295290
9048.00   3.16239095   0.03319911
9050.00   3.13222575   0.03308535
9052.00   3.05991435   0.03261204
9054.00   3.04447389   0.03242869
9056.00   3.05342269   0.03215495
9058.00   3.08939934   0.03232708
9060.00   3.16981196   0.03300564
9062.00   3.25440359   0.03387349
9064.00   3.31714177   0.03484491
9066.00   3.37477994   0.03601551
9068.00   3.35290170   0.03616779
9070.00   3.21816659   0.03528365
9072.00   3.15895772   0.03479337
9074.00   3.14559793   0.03428530
9076.00   3.15159726   0.03404322
9078.00   3.18309045   0.03440886
9080.00   3.23040867   0.03509817
9082.00   3.20320153   0.03502826
9084.00   3.07955050   0.03417246
9086.00   3.04335237   0.03393122
9088.00   3.04864025   0.03386252
9090.00   3.07519245   0.03408316
9092.00   3.13795924   0.03482018
9094.00   3.21000147   0.03569361
9096.00   3.21365690   0.03587541
9098.00   3.15627146   0.03552213
9100.00   3.13958573   0.03542830
9102.00   3.14169812   0.03522583
9104.00   3.13486242   0.03527756
9106.00   3.12008071   0.03585989
9108.00   3.09762144   0.03636717
9110.00   3.06238103   0.03606107
9112.00   3.01386738   0.03517463
9114.00   2.97212481   0.03426583
9116.00   2.91546178   0.03249605
9118.00   2.89110160   0.03182262
9120.00   2.90223598   0.03240247
9122.00   2.92491341   0.03330231
9124.00   2.95122623   0.03407589
9126.00   2.98657632   0.03496057
9128.00   2.97269750   0.03512373
9130.00   2.87954783   0.03412337
9132.00   2.87062144   0.03437489
9134.00   2.93533897   0.03600465
9136.00   3.00083923   0.03711285
9138.00   3.05039740   0.03700246
9140.00   3.09004354   0.03622805
9142.00   3.07294273   0.03537921
9144.00   2.98018122   0.03320146
9146.00   2.94065094   0.03328204
9148.00   2.91667056   0.03514712
9150.00   2.90625095   0.03705313
9152.00   2.91521621   0.03944350
9154.00   2.93319368   0.04138277
9156.00   2.93663383   0.04057072
9158.00   2.92504859   0.03670844
9160.00   2.94763422   0.03537814
9162.00   3.01421666   0.03551203
9164.00   3.04953098   0.03550848
9166.00   3.05589199   0.03495433
9168.00   3.04013634   0.03498629
9170.00   2.99392486   0.03715032
9172.00   2.91114306   0.04107669
9174.00   2.88503218   0.04116493
9176.00   2.87489367   0.03745621
9178.00   2.91229415   0.03573912
9180.00   3.03915215   0.03579385
9182.00   3.14037466   0.03613513
9184.00   3.13230777   0.03611860
9186.00   3.06062984   0.03608257
9188.00   3.03787112   0.03557368
9190.00   3.03988123   0.03418220
9192.00   3.01643443   0.03371697
9194.00   2.95446515   0.03408322
9196.00   2.92322946   0.03435708
9198.00   2.95907354   0.03419910
9200.00   3.02520514   0.03390840
9202.00   3.04399490   0.03387338
9204.00   3.02047276   0.03392357
9206.00   3.04760003   0.03415694
9208.00   3.11859465   0.03462137
9210.00   3.17264009   0.03508050
9212.00   3.20444202   0.03551925
9214.00   3.22250080   0.03596151
9216.00   3.22399521   0.03640420
9218.00   3.20012903   0.03688182
9220.00   3.20740747   0.03720621
9222.00   3.25266147   0.03730392
9224.00   3.26080823   0.03759083
9226.00   3.24249840   0.03838827
9228.00   3.19140744   0.03886880
9230.00   3.07551980   0.03816053
9232.00   2.89406848   0.03649643
9234.00   2.85646081   0.03562816
9236.00   2.94162369   0.03487067
9238.00   2.99295211   0.03462540
9240.00   3.05244780   0.03513836
9242.00   3.09341979   0.03561792
9244.00   3.08856583   0.03565162
9246.00   3.05660319   0.03549124
9248.00   3.06593370   0.03539115
9250.00   3.11863995   0.03428597
9252.00   3.12603116   0.03543989
9254.00   3.09598470   0.03951485
9256.00   3.07438207   0.04166171
9258.00   3.07571840   0.04054965
9260.00   3.08507347   0.03789895
9262.00   3.08483315   0.03654715
9264.00   3.07956696   0.03532980
9266.00   3.07853699   0.03475872
9268.00   3.07185984   0.03494499
9270.00   3.08005810   0.03522022
9272.00   3.10431790   0.03550933
9274.00   3.14136815   0.03598447
9276.00   3.19673729   0.03684495
9278.00   3.28369308   0.03815678
9280.00   3.29790211   0.03873077
9282.00   3.24857068   0.03781817
9284.00   3.21072102   0.03898310
9286.00   3.15714335   0.04301276
9288.00   3.12761140   0.04635829
9290.00   3.17108941   0.04689900
9292.00   3.26883960   0.04582898
9294.00   3.29905725   0.04495949
9296.00   3.30192447   0.04260739
9298.00   3.28144956   0.04210412
9300.00   3.20324254   0.04291617
9302.00   3.15317249   0.04459098
9304.00   3.17248034   0.04714099
9306.00   3.23307729   0.05027791
9308.00   3.30299544   0.05282610
9310.00   3.47159219   0.05566648
9312.00   3.47174740   0.05737513
9314.00   3.31913471   0.05842129
9316.00   3.18955684   0.05894516
9318.00   3.11126614   0.05857846
9320.00   3.05713534   0.05797151
9322.00   3.03623939   0.05879900
9324.00   3.06741977   0.06129191
9326.00   3.04610467   0.06111683
9328.00   2.96009803   0.05875705
9330.00   2.94150281   0.05668255
9332.00   3.01706386   0.05413848
9334.00   3.11563039   0.05244057
9336.00   3.17791486   0.05418180
9338.00   3.24430752   0.05882540
9340.00   3.19685602   0.05992089
9342.00   2.96263480   0.05922070
9344.00   2.89027596   0.05824653
9346.00   2.97843575   0.05629172
9348.00   3.09680009   0.05433891
9350.00   3.19108510   0.05323229
9352.00   3.29050612   0.05259285
9354.00   3.25273848   0.05209614
9356.00   3.03465462   0.05115208
9358.00   2.93992066   0.05210759
9360.00   2.92052650   0.05524409
9362.00   2.90601921   0.05796685
9364.00   2.87819171   0.05937174
9366.00   2.84741116   0.06034029
9368.00   2.79633927   0.06199932
9370.00   2.70390534   0.06341136
9372.00   2.67166615   0.06635462
9374.00   2.67676020   0.07248187
9376.00   2.69776726   0.07503638
9378.00   2.73293352   0.07281259
9380.00   2.78419137   0.06805833
9382.00   2.85270405   0.06334371
9384.00   2.95250535   0.05639813
9386.00   3.00725389   0.05180832
9388.00   3.05095363   0.04918917
9390.00   3.05349970   0.04668107
9392.00   2.99091315   0.04406067
9394.00   2.92115569   0.04233813
9396.00   2.90092015   0.04260135
9398.00   2.90518332   0.04455826
9400.00   2.92458749   0.04632164
9402.00   2.97711945   0.04968962
9404.00   3.01553035   0.05071351
9406.00   3.06432271   0.04942800
9408.00   3.08490443   0.04780976
9410.00   3.03796577   0.04675488
9412.00   2.94811320   0.04582142
9414.00   2.92978287   0.04622400
9416.00   2.97013521   0.04847774
9418.00   2.97760868   0.04933942
9420.00   2.98533702   0.04946430
9422.00   2.97018814   0.04953124
9424.00   2.90243936   0.04950945
9426.00   2.82090259   0.04955955
9428.00   2.83194780   0.05050468
9430.00   2.91729212   0.05131464
9432.00   2.98847055   0.05464250
9434.00   3.17052269   0.05950371
9436.00   3.18040466   0.06516480
9438.00   2.89481306   0.07432883
9440.00   2.55315351   0.08102060
9442.00   2.47939587   0.07696179
9444.00   2.56708264   0.06086722
9446.00   2.64139843   0.05423392
9448.00   2.82433844   0.05414293
9450.00   2.91339326   0.05350211
9452.00   2.92543197   0.05312589
9454.00   2.87613440   0.05318002
9456.00   2.72954416   0.05334755
9458.00   2.48190355   0.05380906
9460.00   2.47872233   0.05403702
9462.00   2.70864129   0.05422851
9464.00   2.83344769   0.05432510
9466.00   2.94114757   0.05368619
9468.00   2.98968863   0.05396456
9470.00   2.91895103   0.05628071
9472.00   2.77784395   0.05963829
9474.00   2.77898741   0.06172930
9476.00   2.94198537   0.06434053
9478.00   2.94289732   0.06449204
9480.00   2.80053663   0.06240129
9482.00   2.71963310   0.05983589
9484.00   2.77907801   0.05668778
9486.00   2.88134575   0.05324524
9488.00   2.87235117   0.05159728
9490.00   2.79478812   0.05172747
9492.00   2.72438097   0.05088311
9494.00   2.58479834   0.04861405
9496.00   2.53161621   0.04869758
9498.00   2.59481263   0.05182936
9500.00   2.70148683   0.05595651
9502.00   2.79291916   0.06006785
9504.00   2.92089701   0.06567372
9506.00   2.89216805   0.06422731
9508.00   2.68651271   0.05261965
9510.00   2.56086445   0.04717702
9512.00   2.48677111   0.05025851
9514.00   2.44310784   0.05404821
9516.00   2.42923427   0.05401351
9518.00   2.44605160   0.05245523
9520.00   2.47233367   0.05294319
9522.00   2.53054833   0.05542912
9524.00   2.57111168   0.05597534
9526.00   2.62330818   0.05500342
9528.00   2.64132428   0.05389470
9530.00   2.58766866   0.05311283
9532.00   2.49708223   0.05239040
9534.00   2.47577143   0.05196682
9536.00   2.48755479   0.05211354
9538.00   2.52264690   0.05158696
9540.00   2.60970974   0.05022443
9542.00   2.67661333   0.04947060
9544.00   2.70993924   0.04979832
9546.00   2.72653055   0.05056309
9548.00   2.74074054   0.05098796
9550.00   2.76391435   0.05158819
9552.00   2.71211362   0.05136309
9554.00   2.54550147   0.04979979
9556.00   2.46105671   0.04932326
9558.00   2.47385693   0.05002601
9560.00   2.52220964   0.05137561
9562.00   2.56648612   0.05331350
9564.00   2.63366580   0.05610500
9566.00   2.63807607   0.05676438
9568.00   2.58866262   0.05575266
9570.00   2.54594898   0.05492684
9572.00   2.48970580   0.05399316
9574.00   2.44361615   0.05286294
9576.00   2.44070411   0.05133328
9578.00   2.46258616   0.04948325
9580.00   2.38735104   0.04888024
9582.00   2.16336203   0.04950202
9584.00   2.10208082   0.04976183
9586.00   2.17291975   0.05000156
9588.00   2.24507380   0.05039178
9590.00   2.28684115   0.05135217
9592.00   2.31680322   0.05231717
9594.00   2.30315113   0.05145115
9596.00   2.21553540   0.04820523
9598.00   2.21578884   0.04700823
9600.00   2.28974986   0.04664992
9602.00   2.33858609   0.04701364
9604.00   2.34424782   0.04866175
9606.00   2.33752346   0.05044375
9608.00   2.34955311   0.05047876
9610.00   2.37549853   0.04920632
9612.00   2.37083507   0.04864592
9614.00   2.34086180   0.04764338
9616.00   2.31222820   0.04777240
9618.00   2.28999543   0.04957876
9620.00   2.25693846   0.05140268
9622.00   2.19237757   0.05185486
9624.00   2.10054636   0.05153684
9626.00   2.05079532   0.05168619
9628.00   1.98698485   0.05216634
9630.00   2.01448107   0.05209078
9632.00   2.17413735   0.05164979
9634.00   2.31224036   0.05079390
9636.00   2.34862900   0.04924418
9638.00   2.32977986   0.04714870
9640.00   2.28269410   0.04595964
9642.00   2.14530253   0.04465795
9644.00   2.09345102   0.04510692
9646.00   2.07879448   0.04773568
9648.00   2.10018229   0.04978364
9650.00   2.17753053   0.05094110
9652.00   2.28048253   0.05144468
9654.00   2.32564092   0.05037182
9656.00   2.35654616   0.04646589
9658.00   2.32492089   0.04601464
9660.00   2.19710159   0.04829562
9662.00   2.11379337   0.04998335
9664.00   2.09163618   0.05137974
9666.00   2.09230757   0.05215143
9668.00   2.08612514   0.05103523
9670.00   2.08669662   0.04783163
9672.00   2.08716440   0.04673275
9674.00   2.08606172   0.04697773
9676.00   2.09468389   0.04702871
9678.00   2.11537337   0.04670695
9680.00   2.13934159   0.04689015
9682.00   2.16053367   0.04840004
9684.00   2.18201256   0.05082997
9686.00   2.20126581   0.05215476
9688.00   2.23081541   0.05372042
9690.00   2.23285890   0.05356245
9692.00   2.19407129   0.05075134
9694.00   2.16999602   0.04864068
9696.00   2.19662571   0.04935594
9698.00   2.24589539   0.05141768
9700.00   2.24241543   0.05209368
9702.00   2.20829892   0.05260363
9704.00   2.16137719   0.05225942
9706.00   2.07027531   0.05077877
9708.00   2.00734091   0.04943602
9710.00   1.98845220   0.04824787
9712.00   1.99580228   0.04738806
9714.00   2.02267575   0.04793537
9716.00   2.10876298   0.05032334
9718.00   2.08283329   0.05044420
9720.00   1.91837752   0.04765255
9722.00   1.85055423   0.04764025
9724.00   1.89003551   0.05083836
9726.00   1.98869801   0.05535087
9728.00   2.14284873   0.06089856
9730.00   2.39390659   0.06859659
9732.00   2.42090654   0.06743428
9734.00   2.25077629   0.05500468
9736.00   2.12631345   0.04824265
9738.00   1.97341824   0.04787933
9740.00   1.87700319   0.04978802
9742.00   1.92606819   0.05216827
9744.00   2.07701349   0.05575972
9746.00   2.15346980   0.05742995
9748.00   2.24819398   0.05927233
9750.00   2.25668359   0.05836607
9752.00   2.16441321   0.05304125
9754.00   2.07647634   0.04887757
9756.00   2.03555369   0.04950535
9758.00   2.00843859   0.05223149
9760.00   1.95544982   0.05223826
9762.00   1.86720777   0.05081099
9764.00   1.83203185   0.04982751
9766.00   1.82237601   0.04834044
9768.00   1.84138215   0.04740141
9770.00   1.91863894   0.04745776
9772.00   2.00112915   0.04784230
9774.00   1.98098433   0.04751286
9776.00   1.86319220   0.04650946
9778.00   1.84866154   0.04677736
9780.00   1.91123283   0.04769718
9782.00   1.93990982   0.04923826
9784.00   1.93103158   0.05184276
9786.00   1.91300821   0.05434312
9788.00   1.90269053   0.05568909
9790.00   1.89053619   0.05639934
9792.00   1.89639950   0.05701299
9794.00   1.92679632   0.05699189
9796.00   1.94022655   0.05752235
9798.00   1.95376241   0.05932441
9800.00   1.94428766   0.06005029
9802.00   1.88451111   0.05779120
9804.00   1.79147148   0.05346440
9806.00   1.75635946   0.05202827
9808.00   1.74726820   0.05211816
9810.00   1.76361096   0.05301737
9812.00   1.83806789   0.05649628
9814.00   1.88338768   0.05808058
9816.00   1.86148536   0.05578622
9818.00   1.81108475   0.05165790
9820.00   1.79715872   0.05054676
9822.00   1.78384054   0.05148270
9824.00   1.81595290   0.05161804
9826.00   1.91165662   0.05098882
9828.00   1.97954524   0.05197852
9830.00   2.02154756   0.05626567
9832.00   2.03411388   0.06013999
9834.00   1.98341858   0.05880542
9836.00   1.85618114   0.05261894
9838.00   1.81674278   0.05064537
9840.00   1.82990837   0.05050180
9842.00   1.84329355   0.05139465
9844.00   1.86799693   0.05379144
9846.00   1.89256954   0.05659454
9848.00   1.90847051   0.05943986
9850.00   1.92283762   0.06275301
9852.00   1.88688672   0.06195508
9854.00   1.75532389   0.05562867
9856.00   1.72656965   0.05275426
9858.00   1.79508650   0.05173881
9860.00   1.87023544   0.05273471
9862.00   1.91982663   0.05655015
9864.00   1.96020329   0.06194723
9866.00   1.95051551   0.06480289
9868.00   1.90685368   0.06603632
9870.00   1.82436311   0.06831315
9872.00   1.63948786   0.07218945
9874.00   1.53023112   0.07392820
9876.00   1.56108582   0.07245308
9878.00   1.65542901   0.06907871
9880.00   1.70289648   0.06555288
9882.00   1.76289809   0.05962595
9884.00   1.76291835   0.05725110
9886.00   1.65830886   0.05738870
9888.00   1.64517272   0.05869228
9890.00   1.78109276   0.06231002
9892.00   1.93565345   0.06567219
9894.00   1.95646310   0.06548356
9896.00   1.88958859   0.06270632
9898.00   1.87450612   0.06113269
9900.00   1.86654687   0.05862822
9902.00   1.86439955   0.05799988
9904.00   1.85719347   0.05937803
9906.00   1.87078607   0.06157644
9908.00   1.94833684   0.06405702
9910.00   2.07453680   0.06704725
9912.00   2.04432273   0.06916723
9914.00   1.81123924   0.07118662
9916.00   1.75548482   0.07232767
9918.00   1.86450684   0.07339688
9920.00   1.94214392   0.07290124
9922.00   1.90062547   0.06917168
9924.00   1.80460310   0.06339732
9926.00   1.74409115   0.06164189
9928.00   1.67366469   0.06357238
9930.00   1.63732839   0.06351878
9932.00   1.65399110   0.05926759
9934.00   1.63420200   0.06173348
9936.00   1.51752198   0.07563003
9938.00   1.40000391   0.08943918
9940.00   1.46236193   0.09187790
9942.00   1.68908322   0.08681918
9944.00   1.80552626   0.08470356
9946.00   1.94194388   0.08143104
9948.00   1.96527719   0.07940404
9950.00   1.79113281   0.07881887
9952.00   1.61761498   0.07913559
9954.00   1.67923987   0.08023413
9956.00   1.90870821   0.08245865
9958.00   1.97008634   0.08282848
9960.00   1.95315862   0.08231498
9962.00   1.92239332   0.08100263
9964.00   1.85794258   0.07776036
9966.00   1.78120649   0.07508192
9968.00   1.69546628   0.07524276
9970.00   1.59939158   0.07709642
9972.00   1.58293021   0.07692222
9974.00   1.65102386   0.07582703
9976.00   1.68383121   0.07441402
9978.00   1.71978486   0.07209361
9980.00   1.73788035   0.06988946
9982.00   1.72201216   0.06808965
9984.00   1.68935072   0.06657831
9986.00   1.68398821   0.06577139
9988.00   1.70225072   0.06576211
9990.00   1.69540155   0.06573844
9992.00   1.69277251   0.06605323
9994.00   1.65258884   0.06639905
9996.00   1.54103291   0.06611302
9998.00   1.41935420   0.06641610
10000.00   1.38472474   0.06939714
10002.00   1.40215790   0.07434456
10004.00   1.44509137   0.07885506
10006.00   1.56008971   0.08455293
10008.00   1.63159478   0.08857146
10010.00   1.66527843   0.09144236
10012.00   1.67387807   0.09315985
10014.00   1.65550828   0.09334858
10016.00   1.60720515   0.09211733
10018.00   1.57674086   0.09077293
10020.00   1.53378808   0.08760251
10022.00   1.52428222   0.08655228
10024.00   1.54196370   0.08831072
10026.00   1.58003700   0.08937047
10028.00   1.65254986   0.08781069
10030.00   1.74723184   0.08471084
10032.00   1.75600743   0.08174902
10034.00   1.66425717   0.07686073
10036.00   1.64931381   0.07468709
10038.00   1.69819486   0.07350726
10040.00   1.71364653   0.07502437
10042.00   1.63876045   0.08119699
10044.00   1.54339170   0.08846666
10046.00   1.57756329   0.08999570
10048.00   1.72720170   0.08681052
10050.00   1.81263113   0.08701542
10052.00   1.97680926   0.08763749
10054.00   1.96396875   0.09009540
10056.00   1.64655960   0.09613529
10058.00   1.28372180   0.10168204
10060.00   1.22033095   0.10170567
10062.00   1.34653556   0.09761984
10064.00   1.43054044   0.09507567
10066.00   1.62170279   0.09192407
10068.00   1.68934596   0.08908182
10070.00   1.64581180   0.08354252
10072.00   1.53067577   0.08195019
10074.00   1.32075298   0.09175431
10076.00   1.00899100   0.10781874
10078.00   0.97419196   0.11462741
10080.00   1.16709149   0.12043694
10082.00   1.33149636   0.11931159
10084.00   1.58060944   0.10815596
10086.00   1.76924372   0.09664854
10088.00   1.82066751   0.09104169
10090.00   1.78641248   0.08840327
10092.00   1.73086178   0.08574146
10094.00   1.53690386   0.08337567
10096.00   1.52321231   0.08445458
10098.00   1.66142225   0.09037347
10100.00   1.76981699   0.09422928
10102.00   1.83421659   0.09448651
10104.00   1.85548306   0.09343690
10106.00   1.74888742   0.09361138
10108.00   1.45124590   0.09322092
10110.00   1.40417290   0.09588099
10112.00   1.53598177   0.10225660
10114.00   1.65502334   0.10636477
10116.00   1.82329822   0.10689756
10118.00   1.93256557   0.10777916
10120.00   1.78718042   0.11378099
10122.00   1.40899420   0.12376749
10124.00   1.30104029   0.12581579
10126.00   1.36772525   0.12338340
10128.00   1.39629650   0.11886552
10130.00   1.43244708   0.10857016
10132.00   1.44648767   0.09882790
10134.00   1.36789119   0.09655008
10136.00   1.22784805   0.09914994
10138.00   1.35737455   0.09999916
10140.00   1.82504570   0.10202770
10142.00   2.03138947   0.10305404
10144.00   2.11262751   0.10337154
10146.00   2.09299183   0.10365024
10148.00   1.92208505   0.10419553
10150.00   1.66524720   0.10474770
10152.00   1.60014594   0.10477311
10154.00   1.61608696   0.10257690
10156.00   1.74251211   0.10504944
10158.00   2.09607339   0.11225884
10160.00   2.32282543   0.11737851
10162.00   2.36407614   0.11958739
10164.00   2.30062437   0.12058574
10166.00   2.17550445   0.12155257
10168.00   1.93278241   0.12189519
10170.00   1.77115929   0.12231496
10172.00   1.55847788   0.12347448
10174.00   1.50434673   0.12273218
10176.00   1.66622114   0.11855347
10178.00   1.88252103   0.11450163
10180.00   2.02999592   0.11473506
10182.00   2.19170213   0.11778009
10184.00   2.08756995   0.12003396
10186.00   1.60662401   0.12406594
10188.00   1.39353812   0.12540373
10190.00   1.39370179   0.12403079
10192.00   1.45333600   0.12213837
10194.00   1.49746132   0.12027271
10196.00   1.56746602   0.11821222
10198.00   1.70029676   0.12031844
10200.00   1.97945380   0.12760678
10202.00   2.08425236   0.13098094
10204.00   2.11138248   0.13285589
10206.00   2.02891922   0.13364832
10208.00   1.75399888   0.13280421
10210.00   1.39810061   0.13117115
10212.00   1.29934633   0.13178858
10214.00   1.39640641   0.13455322
10216.00   1.42681849   0.13527079
10218.00   1.44615912   0.13522789
10220.00   1.52321649   0.13443220
10222.00   1.71572924   0.13214238
10224.00   1.91392529   0.12970352
10226.00   1.95303500   0.12967815
10228.00   1.88897061   0.13186958
10230.00   1.79570174   0.13125479
10232.00   1.52054548   0.12687069
10234.00   1.45731688   0.12643802
10236.00   1.65244389   0.13247511
10238.00   1.90171027   0.13717474
10240.00   2.06815004   0.13282900
10242.00   2.22647381   0.12118792
10244.00   2.22601891   0.12398479
10246.00   2.00412416   0.13977715
10248.00   1.92462754   0.14781874
10250.00   1.91697848   0.15559700
10252.00   1.96920621   0.15688761
10254.00   2.12840104   0.14452933
10256.00   2.35083723   0.12122381
10258.00   2.35128284   0.11390832
10260.00   2.07431364   0.11971767
10262.00   2.05048871   0.12287445
10264.00   2.20883989   0.12937534
10266.00   2.32997227   0.13454446
10268.00   2.36264539   0.13787942
10270.00   2.35516763   0.13990228
10272.00   2.32285786   0.13931280
10274.00   2.20323038   0.13318767
10276.00   2.24120688   0.13627642
10278.00   2.45408130   0.14487043
10280.00   2.57127833   0.15515663
10282.00   2.57532072   0.16835897
10284.00   2.51904845   0.18117228
10286.00   2.41687536   0.19066620
10288.00   2.23286319   0.20018102
10290.00   2.17704391   0.19862410
10292.00   2.16518831   0.18367000
10294.00   2.24811244   0.17259847
10296.00   2.43845129   0.16310805
10298.00   2.69002247   0.15582223
10300.00   3.00788236   0.15299165
10302.00   3.39998603   0.15406938
10304.00   3.54983139   0.15445489
10306.00   3.53899169   0.15603144
10308.00   3.45402169   0.15775207
10310.00   3.15394402   0.15927272
10312.00   2.95131326   0.16205586
10314.00   2.99450874   0.16619150
10316.00   3.17655110   0.17168213
10318.00   3.35829663   0.18048309
10320.00   3.70426226   0.19883332
10322.00   3.81599092   0.20056875
10324.00   3.81416249   0.18851262
10326.00   3.69210935   0.17717399
10328.00   3.36091232   0.16674525
10330.00   2.97277474   0.15919611
10332.00   2.84111834   0.16657412
10334.00   2.80746341   0.19049737
10336.00   3.03574181   0.19408889
10338.00   3.85639858   0.18433794
10340.00   4.13451910   0.17697072
10342.00   3.65979052   0.17131694
10344.00   3.03288579   0.16715565
10346.00   2.80512500   0.16641682
10348.00   2.73023462   0.16854747
10350.00   2.82088733   0.17177337
10352.00   3.22350550   0.17901386
10354.00   3.46495819   0.18247519
10356.00   3.61936045   0.18089104
10358.00   3.69982362   0.18088847
10360.00   3.67799687   0.18616122
10362.00   3.56895518   0.19446000
10364.00   3.52392411   0.20636357
10366.00   3.29195952   0.23288192
10368.00   3.52763629   0.23439126
10370.00   4.42556906   0.21039318
10372.00   5.03343105   0.18782616
10374.00   4.95259571   0.18155929
10376.00   4.52783394   0.18222450
10378.00   4.25485802   0.17642017
10380.00   3.74705029   0.16541789
10382.00   3.76577234   0.16238961
10384.00   4.40181732   0.16791369
10386.00   4.74514532   0.16997248
10388.00   4.59502316   0.16517612
10390.00   4.28542805   0.15931304
10392.00   4.17304516   0.16091098
10394.00   4.10731411   0.16839235
10396.00   4.11501837   0.17101346
10398.00   4.32360792   0.17129669
10400.00   4.32216930   0.17219165
10402.00   4.02637386   0.17369317
10404.00   3.70931482   0.17516923
10406.00   3.58821273   0.17670371
10408.00   3.55247426   0.17863877
10410.00   3.72543693   0.17636518
10412.00   4.25925398   0.16319346
10414.00   4.53802061   0.16479234
10416.00   4.66023636   0.18428454
10418.00   4.67748833   0.19925721
10420.00   4.54653597   0.20114774
10422.00   4.30539513   0.19618785
10424.00   4.32451916   0.18859333
10426.00   4.63210440   0.16933492
10428.00   4.69495773   0.16063157
10430.00   4.57631922   0.15896249
10432.00   4.50011063   0.16032937
10434.00   4.51011276   0.16442557
10436.00   4.57849741   0.17073396
10438.00   4.76041889   0.17625353
10440.00   5.16510487   0.18402824
10442.00   5.25663519   0.18610588
10444.00   5.08613729   0.18320911
10446.00   4.97879982   0.18076000
10448.00   4.99372864   0.17939363
10450.00   5.00645971   0.17777063
10452.00   4.87823343   0.17461210
10454.00   4.62731743   0.16960658
10456.00   4.51028824   0.16769731
10458.00   4.41498947   0.16695820
10460.00   4.43347216   0.16869631
10462.00   4.63518381   0.17447433
10464.00   4.83471394   0.17999271
10466.00   4.88013172   0.18230802
10468.00   4.84197474   0.18304999
10470.00   4.77617598   0.18101324
10472.00   4.67324495   0.17071442
10474.00   4.50264502   0.17077877
10476.00   4.17562866   0.18084687
10478.00   3.93520427   0.19095461
10480.00   3.89515805   0.19934814
10482.00   3.98319530   0.20658475
10484.00   4.14860439   0.20382185
10486.00   4.61044884   0.18718196
10488.00   4.68871737   0.17926057
10490.00   4.43342543   0.17362483
10492.00   4.25856256   0.17091252
10494.00   4.27751207   0.17265816
10496.00   4.35694218   0.17655952
10498.00   4.35418653   0.17754771
10500.00   4.34012747   0.17724302
10502.00   4.24657822   0.17744532
10504.00   3.99931145   0.17716107
10506.00   3.87928104   0.17768127
10508.00   3.93159151   0.17918979
10510.00   4.03576040   0.18114991
10512.00   4.08021545   0.18317072
10514.00   4.11366653   0.18555909
10516.00   4.13511848   0.18717600
10518.00   4.12765074   0.18838726
10520.00   4.14501858   0.18925942
10522.00   4.19506645   0.18873449
10524.00   4.23967028   0.18931083
10526.00   4.22149229   0.19193627
10528.00   4.16498518   0.19595160
10530.00   4.33852386   0.20690432
10532.00   4.92749405   0.23272240
10534.00   5.02164316   0.23764853
10536.00   4.66947651   0.22479023
10538.00   4.31674671   0.21060434
10540.00   4.10094738   0.20039223
10542.00   3.93865943   0.19175486
10544.00   3.89624381   0.19190367
10546.00   3.98454094   0.20232321
10548.00   4.07558346   0.20826784
10550.00   4.28951168   0.21655275
10552.00   4.39556599   0.22038421
10554.00   4.31842041   0.21737739
10556.00   4.17505836   0.21158229
10558.00   4.12570667   0.20925495
10560.00   4.11443806   0.20807403
10562.00   4.09792519   0.20736879
10564.00   4.16759682   0.20827468
10566.00   4.09008884   0.20805253
10568.00   3.75575852   0.20576639
10570.00   3.44096851   0.20387368
10572.00   3.44750929   0.20469590
10574.00   3.67793727   0.20710517
10576.00   3.74088907   0.21175924
10578.00   3.70492339   0.22132584
10580.00   3.76192856   0.22604597
10582.00   3.91440034   0.22686543
10584.00   4.07191372   0.22637390
10586.00   4.18990183   0.22525112
10588.00   4.29209661   0.22317928
10590.00   4.36257219   0.22382848
10592.00   4.46785784   0.22842996
10594.00   4.40560722   0.22856763
10596.00   4.09841824   0.22391666
10598.00   3.89514756   0.22122051
10600.00   3.92072678   0.22306779
10602.00   4.06426239   0.22714685
10604.00   4.20549345   0.23080851
10606.00   4.49432802   0.23686738
10608.00   4.52075052   0.23806034
10610.00   4.41424751   0.23017053
10612.00   4.15927505   0.23177215
10614.00   3.55859590   0.25156343
10616.00   2.98612785   0.27098179
10618.00   3.09030485   0.26792753
10620.00   3.74654794   0.24615166
10622.00   4.11294079   0.23810068
10624.00   4.57506037   0.23550762
10626.00   4.77344751   0.23386057
10628.00   4.59778261   0.23420872
10630.00   4.38426542   0.23541632
10632.00   4.43081188   0.23619790
10634.00   4.61309624   0.23720568
10636.00   4.69692564   0.23773243
10638.00   4.71285439   0.23749283
10640.00   4.81495619   0.23817199
10642.00   5.08609200   0.24128968
10644.00   5.23891258   0.24213615
10646.00   5.09708118   0.23718052
10648.00   4.77614975   0.22866392
10650.00   4.52999544   0.22501454
10652.00   4.08914423   0.21808520
10654.00   4.05480671   0.22564910
10656.00   4.43918133   0.25451311
10658.00   4.74392843   0.26821870
10660.00   4.82514620   0.25585741
10662.00   4.83212948   0.23150186
10664.00   4.92050838   0.22316977
10666.00   5.06598759   0.22398086
10668.00   5.11475611   0.22183919
10670.00   5.11057281   0.22149268
10672.00   5.06340504   0.22003800
10674.00   4.92759657   0.21667629
10676.00   4.79409361   0.21308930
10678.00   4.81403780   0.21135078
10680.00   4.97829628   0.21092245
10682.00   4.90176868   0.20969984
10684.00   4.54125595   0.20925058
10686.00   4.41435766   0.20681487
10688.00   4.56416321   0.20175475
10690.00   4.72346735   0.19618101
10692.00   4.67323828   0.19143912
10694.00   4.50809956   0.18681467
10696.00   4.60640383   0.18452160
10698.00   5.06636095   0.18612726
10700.00   5.14866114   0.18439670
10702.00   4.87682867   0.17957965
10704.00   4.62565327   0.17505246
10706.00   4.57043123   0.17256823
10708.00   4.58353567   0.17094590
10710.00   4.46779060   0.16814980
10712.00   4.10043621   0.16414738
10714.00   4.15980864   0.16151501
10716.00   4.72228098   0.16081822
10718.00   5.01429844   0.15848801
10720.00   4.77710581   0.15260994
10722.00   4.37172794   0.14567535
10724.00   4.31141996   0.14272663
10726.00   4.44845486   0.14294289
10728.00   4.51719522   0.14180675
10730.00   4.68747044   0.14129113
10732.00   4.70009947   0.13971801
10734.00   4.46518898   0.13619517
10736.00   4.20601559   0.13267109
10738.00   4.15555096   0.13178793
10740.00   4.21955729   0.13303652
10742.00   4.32105541   0.13133396
10744.00   4.61392832   0.12719105
10746.00   4.69434547   0.12395965
10748.00   4.53564596   0.12120699
10750.00   4.36279154   0.11873061
10752.00   4.30901575   0.11651923
10754.00   4.30489302   0.11460336
10756.00   4.31758928   0.11308443
10758.00   4.41196299   0.11215509
10760.00   4.41179752   0.11114488
10762.00   4.31688976   0.11053452
10764.00   4.24449396   0.10951173
10766.00   4.24491072   0.10702398
10768.00   4.27457237   0.10421506
10770.00   4.26460314   0.10510870
10772.00   4.22970629   0.11032861
10774.00   4.21100330   0.11170323
10776.00   4.14823437   0.11179743
10778.00   4.17750978   0.11051984
10780.00   4.36597252   0.10652789
10782.00   4.59664202   0.10201412
10784.00   4.70162821   0.10191143
10786.00   4.77164888   0.10603753
10788.00   4.68593788   0.10493488
10790.00   4.39896393   0.09838955
10792.00   4.16318941   0.09565303
10794.00   3.93152738   0.09896399
10796.00   3.75535941   0.10196951
10798.00   3.69651532   0.09808957
10800.00   3.71699977   0.08826103
10802.00   3.92816591   0.09118891
10804.00   4.50006962   0.10713948
10806.00   4.77341080   0.11301431
10808.00   4.86247253   0.11356349
10810.00   4.79704714   0.11070000
10812.00   4.51496220   0.10278482
10814.00   4.06501341   0.08984552
10816.00   3.86272144   0.08580890
10818.00   3.83582187   0.09133522
10820.00   3.73471856   0.09095102
10822.00   3.57656622   0.08715316
10824.00   3.49843168   0.08443241
10826.00   3.58168340   0.08469545
10828.00   3.72899270   0.08613431
10830.00   3.72473931   0.08614483
10832.00   3.57182932   0.08638769
10834.00   3.59391212   0.08413188
10836.00   3.81971931   0.07892600
10838.00   3.88100553   0.07373092
10840.00   3.65354729   0.06793821
10842.00   3.38710237   0.06259912
10844.00   3.40796804   0.06065761
10846.00   3.63929415   0.06147830
10848.00   3.70211840   0.06387492
10850.00   3.70842552   0.07163431
10852.00   3.68657351   0.07335713
10854.00   3.61138463   0.06815833
10856.00   3.53230906   0.06148896
10858.00   3.49471188   0.05809063
10860.00   3.47809172   0.05595518
10862.00   3.45780444   0.05735812
10864.00   3.43477845   0.06506711
10866.00   3.43291569   0.06683210
10868.00   3.49311519   0.06405018
10870.00   3.49830866   0.06059953
10872.00   3.37653804   0.05782346
10874.00   3.17951798   0.05508856
10876.00   3.02899671   0.05484460
