# File created by shivutils (I.Shivvers)
# wl(A)   flm    er(optional)
3446.00   7.16622925   0.26259363
3448.00   7.05433655   0.26108006
3450.00   7.24827623   0.26132566
3452.00   7.33403778   0.26531196
3454.00   7.26918936   0.26514992
3456.00   6.93143606   0.25997522
3458.00   7.13743162   0.26337054
3460.00   6.91517258   0.26109684
3462.00   7.47206879   0.26908451
3464.00   7.73514128   0.27495748
3466.00   7.47794008   0.27314800
3468.00   7.32823658   0.27425578
3470.00   7.34621763   0.27282086
3472.00   7.88575077   0.27971616
3474.00   7.59554577   0.27044657
3476.00   7.83010435   0.27671570
3478.00   8.28739738   0.28715080
3480.00   8.36598110   0.28800681
3482.00   8.50572872   0.29332188
3484.00   8.86027050   0.29512122
3486.00   9.18659115   0.30172068
3488.00   8.73888683   0.29436988
3490.00   9.27483082   0.29977879
3492.00   9.42476082   0.30139211
3494.00   9.97293854   0.30686694
3496.00   10.37752533   0.30989462
3498.00   10.19592381   0.31275731
3500.00   10.64808273   0.31851545
3502.00   10.28209782   0.31531969
3504.00   10.76863480   0.31860167
3506.00   11.30214596   0.32416919
3508.00   11.27340031   0.32352275
3510.00   11.22833920   0.32289651
3512.00   10.98552704   0.31755918
3514.00   11.11980343   0.32032090
3516.00   11.37475586   0.32252449
3518.00   10.85714626   0.31603137
3520.00   10.40936279   0.31259075
3522.00   10.84325790   0.31387451
3524.00   11.02003670   0.31218666
3526.00   11.45917892   0.31761131
3528.00   11.97701073   0.32449383
3530.00   12.46569633   0.33050686
3532.00   12.48501778   0.32746419
3534.00   12.43889809   0.32773888
3536.00   12.80502415   0.33278525
3538.00   13.33686829   0.33358231
3540.00   12.80553532   0.33169881
3542.00   12.83978367   0.33112133
3544.00   13.03909588   0.33343101
3546.00   13.41845036   0.33636123
3548.00   12.44421864   0.32497326
3550.00   13.43760967   0.33219710
3552.00   13.40823078   0.33139670
3554.00   13.34678841   0.32773069
3556.00   13.38757038   0.32861349
3558.00   13.38980961   0.32525143
3560.00   13.71682262   0.32861716
3562.00   13.54396057   0.32623276
3564.00   14.08044338   0.32735306
3566.00   14.13788795   0.32454467
3568.00   14.01140499   0.32158938
3570.00   14.47889709   0.32406291
3572.00   14.17342377   0.32064971
3574.00   14.52600861   0.32409573
3576.00   14.61074448   0.32469526
3578.00   13.64537430   0.31335202
3580.00   14.41573429   0.31650141
3582.00   13.95737648   0.30997545
3584.00   13.36951351   0.30373600
3586.00   13.21909046   0.30046716
3588.00   13.68420982   0.30477193
3590.00   13.21843052   0.30171442
3592.00   13.74995422   0.30586568
3594.00   13.37312984   0.29964349
3596.00   13.73032475   0.30386657
3598.00   13.08087730   0.29593742
3600.00   13.35812855   0.29532748
3602.00   13.68428993   0.29604810
3604.00   13.22640610   0.29178485
3606.00   13.19152164   0.28980067
3608.00   13.13505459   0.28819948
3610.00   13.49131298   0.28945154
3612.00   13.34104729   0.28833270
3614.00   14.10243225   0.29505056
3616.00   14.34260845   0.29475898
3618.00   14.19640636   0.28956860
3620.00   15.08422375   0.29707476
3622.00   14.62896156   0.29288772
3624.00   14.83861446   0.29442039
3626.00   15.47070122   0.29922047
3628.00   14.95789623   0.29512367
3630.00   16.39087486   0.30118150
3632.00   16.04494476   0.29760316
3634.00   17.08396339   0.30378085
3636.00   17.67457008   0.30654335
3638.00   18.26255417   0.31075668
3640.00   18.45478821   0.31286207
3642.00   19.03931046   0.31480142
3644.00   18.42958641   0.30890864
3646.00   19.32094383   0.31455827
3648.00   19.69532776   0.32139868
3650.00   20.18115616   0.32656991
3652.00   20.39327049   0.32532617
3654.00   21.12931824   0.32693729
3656.00   20.94755363   0.32161635
3658.00   21.35989189   0.32107073
3660.00   21.85762978   0.32394025
3662.00   23.14506721   0.33135211
3664.00   23.42466927   0.33046573
3666.00   23.24170876   0.32510105
3668.00   24.09503365   0.32798922
3670.00   23.63145256   0.32440037
3672.00   23.79345703   0.32483932
3674.00   23.40125465   0.32045057
3676.00   23.59846306   0.31958467
3678.00   23.29603577   0.31575200
3680.00   22.76987267   0.31117499
3682.00   21.88545227   0.30474445
3684.00   21.65909958   0.30226371
3686.00   21.46269798   0.29915860
3688.00   19.97219849   0.28948870
3690.00   19.38940811   0.28577584
3692.00   19.06193161   0.28303844
3694.00   19.28322601   0.28281158
3696.00   19.26808167   0.28117639
3698.00   18.69174004   0.27671272
3700.00   17.75732803   0.27007225
3702.00   18.05658913   0.27082041
3704.00   17.60535431   0.26593575
3706.00   16.53702927   0.25723934
3708.00   17.20071602   0.26031137
3710.00   17.64890289   0.26372895
3712.00   17.57853889   0.26382869
3714.00   17.49153709   0.26270553
3716.00   17.30247307   0.25931013
3718.00   16.67401314   0.25323525
3720.00   16.58371735   0.24996348
3722.00   16.35060501   0.24815917
3724.00   17.09475517   0.25236434
3726.00   16.62936592   0.25031033
3728.00   16.56538010   0.24954066
3730.00   16.36408997   0.24702515
3732.00   16.46046066   0.24508883
3734.00   16.30496597   0.24153216
3736.00   16.11518097   0.23944151
3738.00   15.69917393   0.23826207
3740.00   15.70206165   0.23907559
3742.00   16.17546654   0.24061242
3744.00   16.36433792   0.23962055
3746.00   15.93899250   0.23433693
3748.00   15.08295345   0.22857302
3750.00   14.68020630   0.22560272
3752.00   14.38296509   0.22500178
3754.00   14.51654625   0.22665562
3756.00   14.21164036   0.22229220
3758.00   13.81063175   0.21821348
3760.00   13.54349899   0.21610612
3762.00   13.53018951   0.21558601
3764.00   13.74858284   0.21609804
3766.00   13.10809898   0.21150760
3768.00   13.77833557   0.21461004
3770.00   13.12716579   0.21060102
3772.00   13.31708145   0.21204965
3774.00   12.96064281   0.20954426
3776.00   12.31511307   0.20391916
3778.00   12.61714172   0.20704685
3780.00   12.68072224   0.20687962
3782.00   12.49098110   0.20537123
3784.00   12.02025223   0.20084585
3786.00   12.03781128   0.19927067
3788.00   11.70896912   0.19612244
3790.00   11.92284489   0.19694674
3792.00   11.78811073   0.19560863
3794.00   11.77832699   0.19413489
3796.00   11.86448479   0.19444743
3798.00   11.80322838   0.19352706
3800.00   11.84179688   0.19632007
3802.00   12.21705914   0.19705608
3804.00   12.26665306   0.19656812
3806.00   12.18024445   0.19438371
3808.00   12.04524994   0.19365987
3810.00   12.33506203   0.19476929
3812.00   12.36924839   0.19362316
3814.00   12.41028309   0.19231580
3816.00   12.98378944   0.19570319
3818.00   13.38874340   0.19749783
3820.00   13.48264790   0.19681965
3822.00   13.67764187   0.19833383
3824.00   13.92812538   0.19878122
3826.00   14.39459991   0.20034541
3828.00   14.28489304   0.20019895
3830.00   14.57604885   0.20153016
3832.00   15.15502930   0.20372738
3834.00   15.59245205   0.20535542
3836.00   15.65174675   0.20531160
3838.00   15.41319561   0.20378660
3840.00   16.41659355   0.20888144
3842.00   16.22196388   0.20864820
3844.00   16.96450806   0.21284033
3846.00   17.23191643   0.21371686
3848.00   17.65099525   0.21516082
3850.00   18.30497742   0.21829748
3852.00   18.74559021   0.22033893
3854.00   19.09150696   0.22131205
3856.00   19.15160370   0.22113553
3858.00   19.82763672   0.22268493
3860.00   20.00817108   0.22386859
3862.00   20.95477104   0.22943963
3864.00   21.07122803   0.22984792
3866.00   21.33984756   0.23016474
3868.00   21.60811424   0.23048583
3870.00   22.58729744   0.23560312
3872.00   23.07720184   0.23625022
3874.00   23.33855247   0.23784925
3876.00   24.02375031   0.24047323
3878.00   24.03742790   0.23938914
3880.00   25.60710335   0.24573535
3882.00   26.18612289   0.24782938
3884.00   27.22335434   0.25185508
3886.00   27.58061981   0.25239015
3888.00   27.28504181   0.25042745
3890.00   27.95288658   0.25395313
3892.00   28.28526306   0.25518695
3894.00   28.86912537   0.25721747
3896.00   28.55660248   0.25575167
3898.00   29.26209641   0.25805289
3900.00   29.53717041   0.25875726
3902.00   30.22984314   0.26082036
3904.00   30.11448860   0.26011550
3906.00   30.74332428   0.26312804
3908.00   31.62768555   0.26697004
3910.00   31.68123245   0.26729235
3912.00   32.18444061   0.26839560
3914.00   32.97492218   0.27019650
3916.00   33.56511307   0.27113485
3918.00   33.39592361   0.26915801
3920.00   34.23925018   0.27132091
3922.00   34.46297836   0.27087441
3924.00   34.38099670   0.27013716
3926.00   34.93430710   0.27074900
3928.00   35.18493652   0.27093065
3930.00   34.02418900   0.26541832
3932.00   32.89431381   0.26014528
3934.00   34.93244171   0.26698282
3936.00   35.84620667   0.27016798
3938.00   35.59763718   0.26915762
3940.00   35.96494293   0.27082705
3942.00   36.03473663   0.27044848
3944.00   36.29967117   0.27107090
3946.00   35.58236313   0.26838192
3948.00   35.55482864   0.26746774
3950.00   34.71102524   0.26400009
3952.00   33.66362381   0.25977778
3954.00   34.00206757   0.26051128
3956.00   33.65673065   0.25917080
3958.00   33.03286362   0.25622109
3960.00   32.52625656   0.25368178
3962.00   31.50269127   0.24920978
3964.00   30.87723732   0.24550357
3966.00   29.60256767   0.23877297
3968.00   29.21252251   0.23665401
3970.00   29.43858719   0.23735523
3972.00   28.80023956   0.23548424
3974.00   28.44937325   0.23457228
3976.00   27.91391945   0.23265435
3978.00   27.27679634   0.23015653
3980.00   27.02355766   0.22891180
3982.00   26.47820091   0.22559276
3984.00   25.53881264   0.22144394
3986.00   24.96232605   0.21921478
3988.00   24.86901283   0.21854836
3990.00   24.42894554   0.21670072
3992.00   24.56235313   0.21719258
3994.00   24.02166367   0.21471779
3996.00   23.75585365   0.21354844
3998.00   23.67714882   0.21267278
4000.00   23.38744164   0.21076329
4002.00   22.90570641   0.20841981
4004.00   22.95613670   0.20805295
4006.00   22.55252457   0.20613959
4008.00   22.59052467   0.20598954
4010.00   22.49919891   0.20550115
4012.00   23.11346626   0.20740278
4014.00   22.59526634   0.20492835
4016.00   22.63155937   0.20498611
4018.00   22.72154808   0.20577304
4020.00   23.02622414   0.20689268
4022.00   23.03983307   0.20743023
4024.00   23.13623619   0.20707180
4026.00   23.32193375   0.20629780
4028.00   23.50295067   0.20581882
4030.00   23.79617310   0.20640737
4032.00   24.05350876   0.20645420
4034.00   23.95868111   0.20560127
4036.00   24.18787384   0.20662950
4038.00   24.16219711   0.20639719
4040.00   24.23139191   0.20603138
4042.00   24.34920120   0.20629215
4044.00   24.41908455   0.21201403
4046.00   23.99660492   0.21467784
4048.00   24.29041672   0.21194272
4050.00   24.52718735   0.20627260
4052.00   24.27380943   0.20399101
4054.00   24.05453873   0.20279504
4056.00   24.61592674   0.20381619
4058.00   24.50477791   0.20282845
4060.00   24.00734901   0.20078622
4062.00   24.34897614   0.20093495
4064.00   24.60238457   0.20150594
4066.00   24.73211479   0.20217918
4068.00   25.05836868   0.20295729
4070.00   25.18832970   0.20305640
4072.00   25.00223541   0.20166175
4074.00   25.32575226   0.20277256
4076.00   25.32604408   0.20359279
4078.00   25.62339783   0.20452364
4080.00   25.47348022   0.20316134
4082.00   25.65245438   0.20321971
4084.00   25.26234055   0.20146810
4086.00   25.58301735   0.20231642
4088.00   25.15917397   0.20028342
4090.00   25.42207527   0.20043691
4092.00   24.93523407   0.19799739
4094.00   25.17618942   0.19828628
4096.00   25.33517456   0.19829018
4098.00   25.15498161   0.19751768
4100.00   24.84014130   0.19528855
4102.00   25.09698486   0.19573654
4104.00   25.22527885   0.19645858
4106.00   25.40835571   0.19686389
4108.00   25.40056229   0.19673967
4110.00   25.94994164   0.19789705
4112.00   25.21850777   0.19508201
4114.00   25.67418289   0.19657642
4116.00   26.26461220   0.19784966
4118.00   25.76807404   0.19582163
4120.00   26.29229355   0.19694208
4122.00   26.41539001   0.19691576
4124.00   26.88119507   0.19823763
4126.00   26.84975243   0.19768472
4128.00   27.26533890   0.19832931
4130.00   27.83008194   0.19991639
4132.00   27.47649956   0.19856861
4134.00   27.73034096   0.19892104
4136.00   27.95666313   0.19918500
4138.00   27.87845421   0.19892915
4140.00   28.43537140   0.20021689
4142.00   28.58924675   0.19988205
4144.00   28.66658974   0.19909264
4146.00   28.75309563   0.19920747
4148.00   28.98751259   0.19949088
4150.00   28.98948288   0.19941878
4152.00   29.29079628   0.19994010
4154.00   29.49216843   0.19992775
4156.00   29.19398689   0.19831370
4158.00   28.69434166   0.19653073
4160.00   28.97257996   0.19720687
4162.00   29.06778717   0.19765396
4164.00   29.02714729   0.19740243
4166.00   29.01358223   0.19701436
4168.00   28.71866608   0.19522980
4170.00   28.81634140   0.19477628
4172.00   29.13745499   0.19537576
4174.00   29.22873116   0.19531640
4176.00   28.95015907   0.19435136
4178.00   29.00021553   0.19414909
4180.00   28.98077583   0.19389842
4182.00   29.05870819   0.19386487
4184.00   29.40822029   0.19462597
4186.00   29.38828278   0.19396888
4188.00   29.06376457   0.19283146
4190.00   29.22806358   0.19334386
4192.00   29.12444496   0.19282888
4194.00   29.09387016   0.19213131
4196.00   29.16528320   0.19169143
4198.00   28.85743332   0.19046542
4200.00   28.87092018   0.19024323
4202.00   29.21699905   0.19101924
4204.00   29.27869987   0.19114234
4206.00   29.49716949   0.19191125
4208.00   29.61731339   0.19201109
4210.00   29.00939751   0.18982394
4212.00   29.12129402   0.18974951
4214.00   29.21536636   0.18937835
4216.00   28.78318214   0.18758304
4218.00   29.19574738   0.18849616
4220.00   29.23162842   0.18825942
4222.00   28.50370789   0.18561345
4224.00   28.20390511   0.18395770
4226.00   28.67497253   0.18470038
4228.00   28.02740479   0.18276259
4230.00   27.88492775   0.18245871
4232.00   27.47227669   0.18089765
4234.00   27.66247177   0.18086272
4236.00   27.53683090   0.18021353
4238.00   27.13892365   0.17877300
4240.00   27.04889679   0.17780766
4242.00   26.79689980   0.17662907
4244.00   26.80008316   0.17706768
4246.00   26.49023628   0.17663352
4248.00   26.77369118   0.17651156
4250.00   26.95685387   0.17586894
4252.00   26.97995758   0.17590612
4254.00   26.84346199   0.17557010
4256.00   27.10960579   0.17589925
4258.00   26.53180313   0.17424941
4260.00   26.70776558   0.17436409
4262.00   27.07812119   0.17550872
4264.00   26.97572136   0.17528701
4266.00   26.56965446   0.17402922
4268.00   26.72865295   0.17377028
4270.00   27.01864052   0.17416130
4272.00   26.63514519   0.17259587
4274.00   26.47765350   0.17215072
4276.00   26.16932297   0.17138594
4278.00   26.04260826   0.17087661
4280.00   25.92168808   0.17009789
4282.00   25.80091858   0.16939047
4284.00   25.30125046   0.16743235
4286.00   25.37446022   0.16708463
4288.00   24.74465942   0.16471832
4290.00   24.50120354   0.16354446
4292.00   24.33374596   0.16305977
4294.00   24.09051704   0.16245010
4296.00   24.31212997   0.16275400
4298.00   23.62848282   0.16013403
4300.00   23.89883232   0.16066554
4302.00   23.55964279   0.15960243
4304.00   23.38489532   0.15915555
4306.00   23.06136513   0.15802574
4308.00   23.06445885   0.15770042
4310.00   22.72046471   0.15670654
4312.00   21.99350929   0.15528077
4314.00   21.69106674   0.15510228
4316.00   21.45866776   0.15417543
4318.00   21.22583580   0.15326352
4320.00   21.27116585   0.15324079
4322.00   21.15342140   0.15211993
4324.00   20.52179718   0.14932534
4326.00   20.22090912   0.14829350
4328.00   20.11237335   0.14810997
4330.00   20.29053879   0.14890710
4332.00   20.02398682   0.14772522
4334.00   19.78050804   0.14688154
4336.00   19.20131874   0.14486043
4338.00   19.18342400   0.14424482
4340.00   18.86071014   0.14273727
4342.00   18.63327217   0.14178577
4344.00   18.37595558   0.14149979
4346.00   18.19116974   0.14126354
4348.00   18.02549744   0.14077510
4350.00   17.73787117   0.13893856
4352.00   17.31209373   0.13705984
4354.00   17.00450325   0.13739674
4356.00   16.44203186   0.14629951
4358.00   16.33829117   0.15090498
4360.00   16.38686180   0.14442164
4362.00   15.83531284   0.13391718
4364.00   15.70564175   0.13156259
4366.00   15.73542500   0.13091315
4368.00   15.51250076   0.12980579
4370.00   15.29344368   0.12864518
4372.00   15.14424801   0.12805140
4374.00   15.15669918   0.12817848
4376.00   14.86504745   0.12669626
4378.00   14.72386932   0.12585175
4380.00   14.72283459   0.12541372
4382.00   14.51902676   0.12402295
4384.00   14.56085682   0.12366702
4386.00   14.30201721   0.12294861
4388.00   14.24972820   0.12298710
4390.00   14.32429886   0.12301850
4392.00   14.49443054   0.12354430
4394.00   14.18160248   0.12226467
4396.00   14.44435310   0.12336899
4398.00   14.39151573   0.12324846
4400.00   14.67646027   0.12395235
4402.00   14.61940861   0.12347095
4404.00   14.82307434   0.12368402
4406.00   14.98098564   0.12437555
4408.00   14.99805832   0.12456726
4410.00   15.05111599   0.12492412
4412.00   15.05207348   0.12517428
4414.00   14.92895412   0.12474900
4416.00   15.43442535   0.12640716
4418.00   15.27803516   0.12586942
4420.00   15.92397785   0.12773025
4422.00   15.66239643   0.12664312
4424.00   15.55904579   0.12617314
4426.00   15.77139378   0.12687299
4428.00   15.90693188   0.12722261
4430.00   16.08059120   0.12777975
4432.00   16.20548630   0.12833269
4434.00   16.36184883   0.12871452
4436.00   16.72809601   0.13001791
4438.00   17.07515717   0.13139902
4440.00   17.17887878   0.13129427
4442.00   17.48999214   0.13221550
4444.00   17.87880707   0.13352244
4446.00   18.14240837   0.13420179
4448.00   18.46878624   0.13536713
4450.00   18.77311134   0.13607958
4452.00   18.57151222   0.13531020
4454.00   19.08707047   0.13644856
4456.00   19.04331398   0.13649511
4458.00   18.93390656   0.13598858
4460.00   19.28362274   0.13708903
4462.00   19.77454376   0.13847150
4464.00   19.69690704   0.13826805
4466.00   20.06030846   0.13923639
4468.00   20.09293365   0.13925977
4470.00   20.57771111   0.14070714
4472.00   20.98783684   0.14185181
4474.00   21.50745201   0.14327931
4476.00   21.42221451   0.14289348
4478.00   21.70801544   0.14349036
4480.00   22.54580879   0.14549913
4482.00   22.54112625   0.14578684
4484.00   23.28163147   0.14794978
4486.00   23.65737343   0.14902499
4488.00   24.19517899   0.15024109
4490.00   24.25952530   0.15046984
4492.00   24.64765930   0.15157630
4494.00   24.89768982   0.15236989
4496.00   25.16142654   0.15300865
4498.00   25.77083969   0.15444021
4500.00   25.97884941   0.15501022
4502.00   26.52249336   0.15627426
4504.00   26.56858635   0.15643227
4506.00   27.55369949   0.15896550
4508.00   28.01617813   0.16027592
4510.00   28.38846207   0.16091053
4512.00   28.84362602   0.16196080
4514.00   28.87461472   0.16204257
4516.00   29.42413902   0.16332346
4518.00   29.81998825   0.16433729
4520.00   29.93048477   0.16456412
4522.00   29.97136688   0.16480310
4524.00   30.34850121   0.16557954
4526.00   30.60831451   0.16575810
4528.00   31.05903816   0.16676888
4530.00   30.59498596   0.16575506
4532.00   31.35836411   0.16762803
4534.00   31.36725235   0.16752395
4536.00   31.61486435   0.16808930
4538.00   31.82540703   0.16872290
4540.00   31.86483574   0.16873060
4542.00   32.34241486   0.16986440
4544.00   32.32846832   0.16979761
4546.00   32.90562439   0.17084672
4548.00   33.19971085   0.17130750
4550.00   33.33678436   0.17159931
4552.00   33.37683868   0.17157777
4554.00   33.69678116   0.17230797
4556.00   33.84418488   0.17266560
4558.00   34.22847748   0.17350680
4560.00   34.32827377   0.17372210
4562.00   34.47023773   0.17401159
4564.00   34.64788437   0.17412333
4566.00   34.70861435   0.17420276
4568.00   34.95904160   0.17463131
4570.00   34.77531433   0.17419372
4572.00   34.46494293   0.17357010
4574.00   34.93835449   0.17455579
4576.00   35.00880432   0.17452489
4578.00   34.88719559   0.17418677
4580.00   35.15194321   0.17459373
4582.00   34.77287292   0.17370419
4584.00   34.95238495   0.17409690
4586.00   34.76723480   0.17371719
4588.00   34.47705460   0.17308670
4590.00   34.53929901   0.17334013
4592.00   34.76305008   0.17382734
4594.00   34.36703491   0.17263637
4596.00   34.60276031   0.17314428
4598.00   34.47677612   0.17285888
4600.00   34.11911011   0.17188962
4602.00   34.13928986   0.17207004
4604.00   33.90746307   0.17155527
4606.00   33.67792892   0.17085662
4608.00   33.66340637   0.17083165
4610.00   32.94975281   0.16912414
4612.00   32.85111618   0.16887999
4614.00   32.35173035   0.16757333
4616.00   31.90700912   0.16652767
4618.00   31.91994667   0.16634014
4620.00   31.57316589   0.16538504
4622.00   31.15292549   0.16435565
4624.00   30.80545998   0.16354664
4626.00   30.39034843   0.16236567
4628.00   29.95997810   0.16108696
4630.00   29.46631432   0.15978631
4632.00   29.16565704   0.15899524
4634.00   29.05363464   0.15842733
4636.00   28.72955704   0.15751550
4638.00   28.54203415   0.15684797
4640.00   28.22674370   0.15617856
4642.00   27.88120842   0.15501250
4644.00   27.82801819   0.15476128
4646.00   27.50231361   0.15387021
4648.00   27.29673958   0.15334457
4650.00   27.12824440   0.15311292
4652.00   26.92873001   0.15255450
4654.00   26.65110397   0.15194295
4656.00   26.22523499   0.15066609
4658.00   26.13044739   0.15042916
4660.00   26.03182030   0.15029545
4662.00   25.89013672   0.15013680
4664.00   25.79464531   0.14972851
4666.00   25.67801094   0.14930885
4668.00   25.48248291   0.14876273
4670.00   25.08188248   0.14788201
4672.00   24.95687103   0.14758699
4674.00   24.82981110   0.14715032
4676.00   24.95827103   0.14734571
4678.00   24.55018806   0.14601991
4680.00   24.76909637   0.14659594
4682.00   24.48438454   0.14579560
4684.00   24.43886757   0.14544109
4686.00   24.07398033   0.14424229
4688.00   23.86166573   0.14353801
4690.00   23.89998627   0.14350224
4692.00   23.96593094   0.14351822
4694.00   23.50236130   0.14230336
4696.00   23.29001617   0.14159067
4698.00   23.40391350   0.14168680
4700.00   23.00792885   0.14033255
4702.00   22.90502167   0.13991100
4704.00   22.68943214   0.13938199
4706.00   22.11125183   0.13762403
4708.00   21.58769608   0.13617527
4710.00   21.16306496   0.13486920
4712.00   20.81777763   0.13377754
4714.00   20.42726898   0.13249809
4716.00   20.09954643   0.13159727
4718.00   19.65783501   0.13026494
4720.00   19.37792015   0.12921754
4722.00   19.04388809   0.12825064
4724.00   18.93331909   0.12788385
4726.00   18.74164391   0.12719674
4728.00   18.13977051   0.12559280
4730.00   18.05702782   0.12514107
4732.00   17.83552170   0.12445113
4734.00   17.51917076   0.12378296
4736.00   17.69121170   0.12447079
4738.00   17.48974609   0.12389430
4740.00   17.38303947   0.12373053
4742.00   17.39491463   0.12391479
4744.00   16.99857903   0.12255134
4746.00   16.68540764   0.12089218
4748.00   16.83640289   0.12089654
4750.00   16.79669571   0.12072094
4752.00   16.78774261   0.12086085
4754.00   16.64580536   0.12024483
4756.00   16.55352402   0.11958702
4758.00   16.52393913   0.11940530
4760.00   16.73459435   0.12011129
4762.00   16.55193138   0.11957600
4764.00   16.61473083   0.11949022
4766.00   16.72238350   0.11977027
4768.00   16.65813828   0.11949334
4770.00   16.81326485   0.11985794
4772.00   16.81972504   0.12002798
4774.00   16.93984222   0.12028017
4776.00   16.98706055   0.12034925
4778.00   16.77597427   0.11979353
4780.00   16.98569870   0.12040095
4782.00   16.83876419   0.11956248
4784.00   17.09093475   0.12024278
4786.00   17.19001198   0.12051301
4788.00   16.67659569   0.11882605
4790.00   16.78973007   0.11896042
4792.00   16.65072441   0.11879643
4794.00   16.50085068   0.11818244
4796.00   16.32493210   0.11748195
4798.00   16.31324196   0.11747779
4800.00   16.16131592   0.11675708
4802.00   15.86673546   0.11563104
4804.00   15.90166855   0.11560537
4806.00   15.52351856   0.11437175
4808.00   15.46873951   0.11395411
4810.00   15.42851639   0.11379352
4812.00   15.37777805   0.11350737
4814.00   15.23548985   0.11303500
4816.00   15.09282780   0.11264952
4818.00   15.10539055   0.11252017
4820.00   15.00668240   0.11219504
4822.00   15.07658195   0.11237060
4824.00   15.07196236   0.11227412
4826.00   14.99819851   0.11231216
4828.00   15.11017799   0.11265447
4830.00   14.84062386   0.11181878
4832.00   14.90166664   0.11184380
4834.00   14.74653912   0.11146841
4836.00   14.76207066   0.11156426
4838.00   14.94962311   0.11208147
4840.00   15.02883434   0.11244456
4842.00   14.63153076   0.11088425
4844.00   14.52090836   0.11061587
4846.00   14.89781475   0.11178432
4848.00   14.79322147   0.11118555
4850.00   14.62180138   0.11064195
4852.00   14.88936424   0.11131667
4854.00   14.76356316   0.11098749
4856.00   14.75600052   0.11055372
4858.00   14.86100101   0.11066888
4860.00   14.85487652   0.11043522
4862.00   14.89066410   0.11054121
4864.00   15.18318558   0.11159830
4866.00   15.14932919   0.11152202
4868.00   14.96446323   0.11084355
4870.00   15.17487431   0.11144690
4872.00   15.17354965   0.11136454
4874.00   15.27375889   0.11162752
4876.00   15.23096466   0.11133714
4878.00   15.68612099   0.11273095
4880.00   15.72434330   0.11264913
4882.00   15.65369034   0.11232537
4884.00   15.76313400   0.11249398
4886.00   15.96870041   0.11280403
4888.00   16.08673477   0.11328193
4890.00   16.29763031   0.11370528
4892.00   16.45978165   0.11418965
4894.00   16.56625175   0.11471366
4896.00   16.57706642   0.11451982
4898.00   16.76639557   0.11499779
4900.00   16.70065689   0.11474973
4902.00   16.90092087   0.11533693
4904.00   17.43918037   0.11669838
4906.00   17.59052277   0.11711065
4908.00   17.87868309   0.11778168
4910.00   18.12132454   0.11830110
4912.00   18.23777580   0.11846343
4914.00   18.52662086   0.11935915
4916.00   18.45671463   0.11901506
4918.00   18.89888191   0.12004153
4920.00   19.10649109   0.12061584
4922.00   19.15704536   0.12069845
4924.00   19.39150238   0.12127325
4926.00   19.34700966   0.12101268
4928.00   19.46082878   0.12136552
4930.00   19.54028511   0.12154586
4932.00   19.49556732   0.12114788
4934.00   19.40924454   0.12092851
4936.00   18.81342125   0.11906575
4938.00   18.76127052   0.11878737
4940.00   18.44919395   0.11785313
4942.00   17.98370552   0.11647364
4944.00   18.05954552   0.11672921
4946.00   17.49875259   0.11496590
4948.00   17.14309692   0.11393484
4950.00   16.95056343   0.11345575
4952.00   16.61940002   0.11252583
4954.00   16.61170578   0.11226149
4956.00   16.18544197   0.11082423
4958.00   16.07656860   0.11038073
4960.00   16.05300903   0.11032689
4962.00   15.77491283   0.10959636
4964.00   15.62071609   0.10919323
4966.00   15.52050304   0.10893144
4968.00   15.26296234   0.10830872
4970.00   15.17690945   0.10797154
4972.00   15.18957996   0.10811765
4974.00   15.14217377   0.10834897
4976.00   15.02792263   0.10805447
4978.00   14.99285698   0.10825152
4980.00   14.90575886   0.10809893
4982.00   14.84676552   0.10794392
4984.00   14.56644535   0.10706521
4986.00   14.60630703   0.10700241
4988.00   14.58170795   0.10649704
4990.00   14.78377533   0.10693828
4992.00   14.45386600   0.10581262
4994.00   14.45541763   0.10558581
4996.00   14.41724873   0.10532480
4998.00   14.21162701   0.10429931
5000.00   14.04353333   0.10368136
5002.00   14.12996578   0.10391264
5004.00   14.18323612   0.10384606
5006.00   14.17655182   0.10368475
5008.00   14.02488041   0.10338939
5010.00   14.03837490   0.10337290
5012.00   14.00418377   0.10336159
5014.00   14.16345882   0.10373179
5016.00   14.26651478   0.10411311
5018.00   13.86824036   0.10285401
5020.00   13.98907757   0.10344767
5022.00   14.22469139   0.10407199
5024.00   14.19643116   0.10387310
5026.00   14.17106819   0.10374044
5028.00   14.36591530   0.10446740
5030.00   14.34597206   0.10461926
5032.00   14.48458099   0.10497526
5034.00   14.60100555   0.10526154
5036.00   14.51693630   0.10500539
5038.00   14.71922302   0.10554720
5040.00   14.73304558   0.10543098
5042.00   14.94322681   0.10604044
5044.00   14.79586220   0.10586925
5046.00   14.90367126   0.10650142
5048.00   14.90986633   0.10642003
5050.00   15.08716106   0.10694160
5052.00   15.04267311   0.10687505
5054.00   15.06700134   0.10694626
5056.00   15.17760468   0.10740773
5058.00   15.48262119   0.10833516
5060.00   15.71152401   0.10893278
5062.00   16.13037300   0.11043012
5064.00   15.98277760   0.11004293
5066.00   15.79403782   0.10955548
5068.00   15.84344864   0.11001524
5070.00   16.02198601   0.11069548
5072.00   16.23561859   0.11112189
5074.00   16.26839638   0.11107565
5076.00   16.21103477   0.11105590
5078.00   16.34461784   0.11138256
5080.00   16.38658142   0.11198511
5082.00   16.29196358   0.11243062
5084.00   16.64240837   0.11410199
5086.00   16.41310501   0.11341349
5088.00   16.46766281   0.11317063
5090.00   16.67292595   0.11316315
5092.00   16.60639572   0.11251565
5094.00   16.78417587   0.11301065
5096.00   16.81834793   0.11324897
5098.00   16.89766502   0.11367292
5100.00   16.76261902   0.11331986
5102.00   17.10268974   0.11421108
5104.00   17.51893234   0.11522409
5106.00   17.36645889   0.11465905
5108.00   17.60462379   0.11555696
5110.00   17.60342979   0.11565382
5112.00   17.73473740   0.11616573
5114.00   17.85234451   0.11670344
5116.00   18.06559563   0.11733840
5118.00   18.13682747   0.11755561
5120.00   18.54876328   0.11859217
5122.00   18.60632706   0.11865766
5124.00   18.67115784   0.11896488
5126.00   19.10825539   0.12035646
5128.00   19.36964035   0.12109777
5130.00   19.74689674   0.12210950
5132.00   19.68701553   0.12210166
5134.00   19.79784966   0.12258636
5136.00   20.14569473   0.12363320
5138.00   20.19627953   0.12387837
5140.00   20.42210579   0.12446462
5142.00   20.39896584   0.12447634
5144.00   20.94859505   0.12605223
5146.00   20.79846954   0.12579627
5148.00   21.06480980   0.12676102
5150.00   21.18940353   0.12721527
5152.00   21.65419579   0.12871203
5154.00   21.85504913   0.12945181
5156.00   21.90634155   0.12958710
5158.00   22.24335861   0.13036986
5160.00   22.48132324   0.13088270
5162.00   22.31357193   0.13059080
5164.00   22.60997581   0.13130172
5166.00   22.89710426   0.13190736
5168.00   23.18133354   0.13277724
5170.00   23.10586929   0.13267164
5172.00   23.25036812   0.13322026
5174.00   23.32372665   0.13373622
5176.00   23.46371269   0.13451889
5178.00   23.45990562   0.13474698
5180.00   23.83094597   0.13581795
5182.00   24.21076012   0.13674822
5184.00   24.23292351   0.13689631
5186.00   24.18003082   0.13701463
5188.00   24.20416260   0.13724531
5190.00   24.81452751   0.13892071
5192.00   24.82926750   0.13904025
5194.00   24.68822098   0.13887103
5196.00   25.12022209   0.14026913
5198.00   25.37702751   0.14128639
5200.00   25.19622231   0.14102784
5202.00   25.11872864   0.14107206
5204.00   25.34496307   0.14161833
5206.00   25.35192299   0.14180723
5208.00   25.61460686   0.14277439
5210.00   25.85242081   0.14371827
5212.00   25.99568748   0.14436807
5214.00   25.82483673   0.14418527
5216.00   26.11122131   0.14495263
5218.00   25.99899101   0.14515522
5220.00   25.94669724   0.14522679
5222.00   26.36702728   0.14642070
5224.00   26.31213379   0.14630894
5226.00   26.62444115   0.14719978
5228.00   26.47788048   0.14708769
5230.00   26.30703735   0.14684725
5232.00   26.56645012   0.14764214
5234.00   26.26209641   0.14710279
5236.00   26.21505928   0.14731595
5238.00   26.51436996   0.14838456
5240.00   26.47257233   0.14847602
5242.00   26.24856567   0.14823991
5244.00   26.06073570   0.14787334
5246.00   26.12921906   0.14818227
5248.00   25.97846413   0.14790136
5250.00   25.58087730   0.14710040
5252.00   25.59882355   0.14749284
5254.00   25.60165215   0.14768869
5256.00   25.12359238   0.14687634
5258.00   25.10611916   0.14710367
5260.00   24.69007492   0.14620365
5262.00   24.65408134   0.14618511
5264.00   24.22100067   0.14504869
5266.00   24.03832436   0.14485168
5268.00   23.73512459   0.14409328
5270.00   23.49106979   0.14372995
5272.00   23.36256981   0.14356890
5274.00   23.26140022   0.14364004
5276.00   22.63476753   0.14215881
5278.00   22.82738304   0.14313614
5280.00   22.66568184   0.14302149
5282.00   22.29244995   0.14213380
5284.00   21.74296761   0.14076367
5286.00   21.80604172   0.14114466
5288.00   21.69204140   0.14114183
5290.00   21.46704674   0.14057067
5292.00   20.88529968   0.13934299
5294.00   21.01647186   0.13993445
5296.00   20.92854881   0.13991556
5298.00   20.59292603   0.13940383
5300.00   20.54333305   0.13957374
5302.00   20.30659294   0.13915408
5304.00   20.32351303   0.13961622
5306.00   20.31064034   0.14001025
5308.00   20.08055878   0.13951066
5310.00   19.97397423   0.13948043
5312.00   20.24420166   0.14071265
5314.00   19.76317406   0.13935688
5316.00   19.94933891   0.14015596
5318.00   20.03274727   0.14067273
5320.00   20.13394356   0.14118530
5322.00   19.90996552   0.14068663
5324.00   20.39315796   0.14237680
5326.00   19.83369446   0.14101624
5328.00   19.99733734   0.14183965
5330.00   20.37634087   0.14330298
5332.00   20.29398346   0.14344043
5334.00   19.90426636   0.14241736
5336.00   19.98334122   0.14291763
5338.00   20.05545616   0.14347191
5340.00   20.06852722   0.14348292
5342.00   20.04711151   0.14410040
5344.00   20.12447357   0.14444962
5346.00   20.04911041   0.14444678
5348.00   20.06283379   0.14494076
5350.00   20.06894302   0.14523639
5352.00   20.01587486   0.14522164
5354.00   20.06022644   0.14599711
5356.00   19.67280197   0.14518875
5358.00   19.97502327   0.14641804
5360.00   20.12516212   0.14701866
5362.00   20.02394104   0.14710891
5364.00   19.74242020   0.14620401
5366.00   19.32338905   0.14536294
5368.00   19.62551498   0.14671226
5370.00   19.41061974   0.14651522
5372.00   19.50453377   0.14706630
5374.00   19.80347824   0.14881796
5376.00   19.49376678   0.14821187
5378.00   19.51007843   0.14872836
5380.00   19.59118462   0.14944592
5382.00   19.66190338   0.15019704
5384.00   19.65454102   0.15043670
5386.00   19.62321091   0.15057535
5388.00   19.80452156   0.15159625
5390.00   19.67920685   0.15195173
5392.00   20.06697845   0.15369259
5394.00   19.48723221   0.15189151
5396.00   19.59507561   0.15264334
5398.00   19.71832275   0.15355735
5400.00   19.60740471   0.15343167
5402.00   19.06686783   0.15200795
5404.00   19.08560562   0.15250044
5406.00   19.25480080   0.15360563
5408.00   19.04968071   0.15336879
5410.00   19.61442947   0.15562382
5412.00   19.17139244   0.15450180
5414.00   19.06396484   0.15476751
5416.00   18.74132538   0.15419464
5418.00   19.13668823   0.15597844
5420.00   18.47127342   0.15376410
5422.00   18.67882919   0.15489969
5424.00   18.46766853   0.15441330
5426.00   18.24936295   0.15408011
5428.00   18.56715202   0.15555553
5430.00   18.45160866   0.15549321
5432.00   18.39723396   0.15565446
5434.00   18.20759392   0.15548898
5436.00   18.46221924   0.15700337
5438.00   18.57014465   0.15734930
5440.00   18.27415085   0.16292058
5442.00   18.18781662   0.16013733
5444.00   17.98788071   0.15702073
5446.00   17.95309830   0.15710267
5448.00   17.55422783   0.15595573
5450.00   17.62634468   0.15665123
5452.00   17.43575478   0.15641965
5454.00   17.21804619   0.06020542
5456.00   17.11431503   0.06091557
5458.00   17.05111122   0.06128159
5460.00   17.00386047   0.06444280
5462.00   17.03178596   0.07307190
5464.00   17.01682663   0.08001666
5466.00   16.76642227   0.07784859
5468.00   16.29643250   0.06772663
5470.00   16.08809090   0.06304485
5472.00   16.05050659   0.06021699
5474.00   15.98306465   0.05827794
5476.00   15.93576050   0.05787465
5478.00   15.85899067   0.05817453
5480.00   15.68139648   0.05840085
5482.00   15.43181133   0.05891727
5484.00   15.32256413   0.06030227
5486.00   15.35414600   0.06464540
5488.00   15.28838825   0.06427778
5490.00   15.14112663   0.05765621
5492.00   15.01377106   0.05266947
5494.00   14.93822956   0.05450495
5496.00   14.89683819   0.05958218
5498.00   14.91729259   0.06276062
5500.00   15.06326008   0.06835584
5502.00   15.07629967   0.06789609
5504.00   14.95808220   0.06078179
5506.00   14.91803169   0.05503757
5508.00   15.00424004   0.05254517
5510.00   15.15538788   0.05243333
5512.00   15.31957817   0.05592617
5514.00   15.55152416   0.06425796
5516.00   15.68777180   0.06621549
5518.00   15.76162910   0.06519067
5520.00   15.82522392   0.06271351
5522.00   15.83437252   0.05553231
5524.00   15.87511730   0.04910720
5526.00   16.08005905   0.05426161
5528.00   16.43062592   0.06709114
5530.00   16.58069992   0.06868169
5532.00   16.56115532   0.06257398
5534.00   16.63060379   0.05925270
5536.00   16.78315544   0.05779682
5538.00   16.93038368   0.05686671
5540.00   17.01411057   0.05544341
5542.00   17.06431580   0.05403884
5544.00   17.16353989   0.05676331
5546.00   17.29628372   0.06584629
5548.00   17.41927528   0.06763690
5550.00   17.58051682   0.06352687
5552.00   17.68199539   0.05977013
5554.00   17.62857246   0.05843404
5556.00   17.52438927   0.05854710
5558.00   17.68974495   0.06176144
5560.00   18.17707825   0.06956872
5562.00   18.34842491   0.07237364
5564.00   18.34724426   0.07339172
5566.00   18.30945396   0.07274371
5568.00   18.23565292   0.06943846
5570.00   18.13189507   0.06493754
5572.00   18.04587555   0.06223961
5574.00   17.95812416   0.05869981
5576.00   17.86924553   0.06258240
5578.00   17.68979263   0.07688691
5580.00   17.68851280   0.08133989
5582.00   17.98392868   0.07549314
5584.00   18.26573944   0.06653395
5586.00   18.19935799   0.06188540
5588.00   17.89015007   0.05873742
5590.00   17.85655785   0.05609292
5592.00   18.05835724   0.05484257
5594.00   18.07759476   0.05385520
5596.00   17.91777611   0.05298403
5598.00   17.76168442   0.05321423
5600.00   17.71610641   0.05524655
5602.00   17.71978951   0.05849244
5604.00   17.66130257   0.06140221
5606.00   17.49642944   0.06726442
5608.00   17.50298309   0.06682309
5610.00   17.72822762   0.05808806
5612.00   17.84637642   0.05206122
5614.00   17.72636032   0.05557590
5616.00   17.49788284   0.06235476
5618.00   17.36040115   0.06389581
5620.00   17.21245575   0.06390083
5622.00   17.15705681   0.06165320
5624.00   17.21714211   0.05395927
5626.00   17.23684120   0.04925301
5628.00   17.19678116   0.05052695
5630.00   17.13402557   0.05378769
5632.00   17.07135391   0.05510604
5634.00   16.98965645   0.05646871
5636.00   16.94635391   0.05605434
5638.00   16.96257401   0.05297449
5640.00   16.91813087   0.05156023
5642.00   16.77124786   0.05228154
5644.00   16.64652634   0.05320931
5646.00   16.67035294   0.05295664
5648.00   16.79934883   0.05214725
5650.00   16.78589058   0.05125960
5652.00   16.68350601   0.04962180
5654.00   16.58745193   0.04880832
5656.00   16.45173645   0.04874023
5658.00   16.34254456   0.04888330
5660.00   16.31130028   0.04908957
5662.00   16.32202911   0.04941478
5664.00   16.26264763   0.04935707
5666.00   16.14501190   0.04890592
5668.00   16.06411743   0.04869786
5670.00   15.98201847   0.04836988
5672.00   15.92876911   0.04842365
5674.00   15.92064571   0.04925487
5676.00   15.93683910   0.05029629
5678.00   15.94098091   0.05029796
5680.00   15.97808456   0.04895303
5682.00   15.91552162   0.04966611
5684.00   15.71440029   0.05180547
5686.00   15.60691929   0.05396447
5688.00   15.63450527   0.05643900
5690.00   15.70124722   0.05868521
5692.00   15.72302151   0.06006133
5694.00   15.75801277   0.06134207
5696.00   15.65356541   0.05956765
5698.00   15.34907436   0.05274533
5700.00   15.18355274   0.04883988
5702.00   15.16240978   0.04772068
5704.00   15.16590881   0.04851618
5706.00   15.13180065   0.05174809
5708.00   15.09480667   0.05702039
5710.00   14.95144463   0.05700026
5712.00   14.66007805   0.05064355
5714.00   14.47029018   0.04955531
5716.00   14.30468178   0.05384008
5718.00   14.21738434   0.05678873
5720.00   14.29090118   0.05559278
5722.00   14.44657230   0.05243899
5724.00   14.36020565   0.05187099
5726.00   14.01611614   0.05335978
5728.00   13.87417221   0.05324369
5730.00   13.82056046   0.05293450
5732.00   13.79341412   0.05150271
5734.00   13.79348373   0.04767567
5736.00   13.81243610   0.04292903
5738.00   13.80839920   0.04170741
5740.00   13.79744339   0.04346289
5742.00   13.78159714   0.04407236
5744.00   13.76578140   0.04522986
5746.00   13.73357296   0.04568157
5748.00   13.67128372   0.04522520
5750.00   13.60928059   0.04445591
5752.00   13.58842754   0.04385307
5754.00   13.60136986   0.04304245
5756.00   13.56221867   0.04334149
5758.00   13.44257259   0.04416899
5760.00   13.41875553   0.04592952
5762.00   13.49506283   0.04893504
5764.00   13.59464645   0.05191725
5766.00   13.68852615   0.05459386
5768.00   13.79305172   0.05718330
5770.00   13.78629112   0.05690144
5772.00   13.64429951   0.05354870
5774.00   13.58392334   0.05082247
5776.00   13.54937172   0.04707691
5778.00   13.54816723   0.04400277
5780.00   13.59488583   0.04272963
5782.00   13.67367935   0.04262418
5784.00   13.73170376   0.04240562
5786.00   13.79159832   0.04240111
5788.00   13.84206676   0.04317534
5790.00   13.89605618   0.04387378
5792.00   13.92657375   0.04628997
5794.00   13.90688992   0.05225036
5796.00   13.88291931   0.05760646
5798.00   13.93554688   0.05660204
5800.00   14.03560638   0.04965379
5802.00   14.16550255   0.04638278
5804.00   14.37598705   0.04396328
5806.00   14.53139687   0.04254339
5808.00   14.62385750   0.04270504
5810.00   14.69409752   0.04342764
5812.00   14.77245522   0.04363919
5814.00   14.84637356   0.04382958
5816.00   14.90403461   0.04396525
5818.00   14.90810490   0.04388914
5820.00   14.98899364   0.04413505
5822.00   15.17184448   0.04452128
5824.00   15.33802032   0.04524111
5826.00   15.40858459   0.04657736
5828.00   15.42766380   0.04830550
5830.00   15.49336147   0.04924450
5832.00   15.56070042   0.04936860
5834.00   15.66479301   0.05025458
5836.00   15.80982208   0.05253785
5838.00   15.96010590   0.05333797
5840.00   16.12020683   0.05089269
5842.00   16.27703667   0.04695959
5844.00   16.35841179   0.04684133
5846.00   16.32598114   0.05049684
5848.00   16.43483353   0.05060529
5850.00   16.68694687   0.04648880
5852.00   16.85579300   0.04642806
5854.00   16.91752625   0.05255631
5856.00   16.91337776   0.05985949
5858.00   16.83164597   0.06478219
5860.00   16.58233833   0.07040469
5862.00   16.70937347   0.06950922
5864.00   17.26855850   0.05949077
5866.00   17.56614876   0.05412972
5868.00   17.57461929   0.05586934
5870.00   17.51905632   0.05843979
5872.00   17.57226753   0.05724819
5874.00   17.66791534   0.05414330
5876.00   17.60989380   0.05227460
5878.00   17.35687447   0.05018434
5880.00   17.25101662   0.04927630
5882.00   17.26942253   0.04856875
5884.00   17.29803276   0.04997730
5886.00   17.28619194   0.05577073
5888.00   17.26287842   0.06321095
5890.00   17.23172379   0.06378475
5892.00   17.14968300   0.05831383
5894.00   17.15676498   0.05520039
5896.00   17.23942757   0.05154180
5898.00   17.32849693   0.04884211
5900.00   17.41027832   0.04795014
5902.00   17.49455070   0.04821602
5904.00   17.57370377   0.04844014
5906.00   17.66294289   0.04900580
5908.00   17.71088982   0.05019763
5910.00   17.72920227   0.05278845
5912.00   17.72962952   0.05410455
5914.00   17.71037292   0.05396249
5916.00   17.67452812   0.05301217
5918.00   17.62652588   0.05145122
5920.00   17.55933952   0.04844124
5922.00   17.50668907   0.04835413
5924.00   17.42149544   0.05055936
5926.00   17.41528702   0.05271151
5928.00   17.52902603   0.05647982
5930.00   17.63545609   0.05858082
5932.00   17.63736916   0.05565311
5934.00   17.58125496   0.04835128
5936.00   17.48235130   0.04601540
5938.00   17.28178787   0.04756048
5940.00   17.15330887   0.04771410
5942.00   17.06236649   0.04778210
5944.00   16.99963188   0.04741737
5946.00   16.97019768   0.04608441
5948.00   16.96802902   0.04416953
5950.00   16.95442200   0.04347666
5952.00   16.94512749   0.04262397
5954.00   16.93421364   0.04423872
5956.00   16.96004105   0.04945662
5958.00   16.92146111   0.05221340
5960.00   16.76487923   0.05137265
5962.00   16.56573677   0.04873836
5964.00   16.46375656   0.04631072
5966.00   16.43015671   0.04223231
5968.00   16.34724617   0.04075050
5970.00   16.23389244   0.04121341
5972.00   16.14166260   0.04230199
5974.00   16.09062195   0.04395188
5976.00   16.03450775   0.04625130
5978.00   15.91225624   0.04956740
5980.00   15.73196793   0.05424768
5982.00   15.63544464   0.05478833
5984.00   15.60117435   0.05195708
5986.00   15.55265808   0.04933064
5988.00   15.50760555   0.04537764
5990.00   15.45168209   0.04213024
5992.00   15.36579323   0.04233363
5994.00   15.25863838   0.04486695
5996.00   15.17705250   0.04459501
5998.00   15.08942413   0.04174207
6000.00   15.04646873   0.04127008
6002.00   15.06511879   0.04280617
6004.00   15.06978607   0.04432111
6006.00   15.03647804   0.04528430
6008.00   14.97917747   0.04602859
6010.00   14.88066483   0.04611765
6012.00   14.68336678   0.04530513
6014.00   14.61629581   0.04507593
6016.00   14.69082355   0.04559412
6018.00   14.68333340   0.04516580
6020.00   14.53621864   0.04231639
6022.00   14.33213997   0.03920367
6024.00   14.16722012   0.04089834
6026.00   14.00557518   0.04673114
6028.00   13.83432579   0.04853940
6030.00   13.63170624   0.04948387
6032.00   13.47475433   0.04851904
6034.00   13.38455296   0.04371548
6036.00   13.30403519   0.03848030
6038.00   13.18751526   0.03865844
6040.00   13.06639290   0.04266532
6042.00   12.83819389   0.04338715
6044.00   12.51180649   0.04340978
6046.00   12.16547871   0.04221076
6048.00   11.74990082   0.03819027
6050.00   11.35157490   0.03484559
6052.00   11.03697491   0.03554671
6054.00   10.77019882   0.03861052
6056.00   10.46720409   0.04055128
6058.00   10.18843365   0.04420574
6060.00   9.83099556   0.04416590
6062.00   9.36723804   0.04004278
6064.00   8.94055939   0.03623061
6066.00   8.60631180   0.03503664
6068.00   8.31701183   0.03495903
6070.00   8.01284504   0.03390838
6072.00   7.71649265   0.03260492
6074.00   7.42688274   0.03115873
6076.00   7.13509130   0.02906373
6078.00   6.86748314   0.02753313
6080.00   6.62610531   0.02701565
6082.00   6.40801334   0.02697065
6084.00   6.21483803   0.02662848
6086.00   6.04691410   0.02607544
6088.00   5.89868927   0.02657594
6090.00   5.79160357   0.02847939
6092.00   5.66608524   0.02935047
6094.00   5.51093149   0.02934167
6096.00   5.36382818   0.02882051
6098.00   5.25958061   0.02770449
6100.00   5.18528843   0.02573859
6102.00   5.10164785   0.02539190
6104.00   5.02063656   0.02660471
6106.00   4.94583368   0.02711320
6108.00   4.87088156   0.02681270
6110.00   4.80982113   0.02710417
6112.00   4.77383471   0.02936350
6114.00   4.75575638   0.03234845
6116.00   4.73087454   0.03166506
6118.00   4.71899509   0.02605546
6120.00   4.68318462   0.02421179
6122.00   4.61845303   0.02554767
6124.00   4.56558275   0.02636213
6126.00   4.53482103   0.02532503
6128.00   4.51788425   0.02383057
6130.00   4.51545525   0.02449633
6132.00   4.54673290   0.02741643
6134.00   4.53214931   0.02775820
6136.00   4.47298002   0.02645080
6138.00   4.43565559   0.02523551
6140.00   4.42318487   0.02369707
6142.00   4.42824936   0.02261852
6144.00   4.45742512   0.02400883
6146.00   4.52109385   0.02750574
6148.00   4.53681135   0.02851405
6150.00   4.51603365   0.02873230
6152.00   4.50446844   0.02800259
6154.00   4.48524427   0.02527429
6156.00   4.48402882   0.02249919
6158.00   4.52955675   0.02232350
6160.00   4.61036015   0.02386158
6162.00   4.68488693   0.02403185
6164.00   4.77222490   0.02338897
6166.00   4.85608435   0.02354124
6168.00   4.93652964   0.02417469
6170.00   5.02223873   0.02516384
6172.00   5.12244129   0.02681975
6174.00   5.22941685   0.02870058
6176.00   5.30976486   0.02880568
6178.00   5.36679602   0.02726370
6180.00   5.42994308   0.02619979
6182.00   5.47312546   0.02405945
6184.00   5.54457903   0.02332266
6186.00   5.65754318   0.02512796
6188.00   5.79738760   0.02789762
6190.00   5.95201874   0.02979683
6192.00   6.14720345   0.03209912
6194.00   6.28983831   0.03258420
6196.00   6.37535477   0.03108570
6198.00   6.50129938   0.03033596
6200.00   6.68591213   0.03072305
6202.00   6.88440990   0.03133650
6204.00   7.05397034   0.03149627
6206.00   7.21529913   0.03161002
6208.00   7.35208750   0.03087918
6210.00   7.43354559   0.02801755
6212.00   7.57158518   0.02758696
6214.00   7.77769423   0.03039705
6216.00   7.98686790   0.03291985
6218.00   8.15753555   0.03321829
6220.00   8.31058216   0.03238597
6222.00   8.44212246   0.03182519
6224.00   8.52883434   0.03060507
6226.00   8.65109634   0.03013527
6228.00   8.80573750   0.03042173
6230.00   8.95250320   0.03066450
6232.00   9.05963802   0.03024677
6234.00   9.15644264   0.02972936
6236.00   9.33725548   0.03095709
6238.00   9.62652111   0.03463119
6240.00   9.81662846   0.03534225
6242.00   9.96049118   0.03395678
6244.00   10.08264065   0.03288280
6246.00   10.17588711   0.03250942
6248.00   10.25499535   0.03250192
6250.00   10.35754108   0.03308283
6252.00   10.45901012   0.03463249
6254.00   10.60565948   0.03473548
6256.00   10.82608414   0.03355806
6258.00   10.99235725   0.03286710
6260.00   11.10109806   0.03282287
6262.00   11.17714787   0.03290335
6264.00   11.22864437   0.03269328
6266.00   11.24429321   0.03233601
6268.00   11.29154110   0.03216838
6270.00   11.35092831   0.03202738
6272.00   11.41414165   0.03208453
6274.00   11.47138309   0.03238297
6276.00   11.54954720   0.03274433
6278.00   11.67913246   0.03312513
6280.00   11.84430408   0.03354655
6282.00   11.94109917   0.03355790
6284.00   11.99090004   0.03232070
6286.00   12.04229164   0.03311608
6288.00   12.06099892   0.03583379
6290.00   12.10528088   0.03819804
6292.00   12.21260166   0.04006093
6294.00   12.34547997   0.04141187
6296.00   12.41284752   0.04046633
6298.00   12.45351982   0.03526611
6300.00   12.44918251   0.03502933
6302.00   12.33681107   0.03962786
6304.00   12.31088448   0.04160924
6306.00   12.43678665   0.03979120
6308.00   12.60452461   0.03648851
6310.00   12.66273880   0.03465980
6312.00   12.65779114   0.03307388
6314.00   12.67093182   0.03237762
6316.00   12.64724922   0.03214928
6318.00   12.67512321   0.03325626
6320.00   12.77711582   0.03674907
6322.00   12.88633060   0.03962543
6324.00   12.94430923   0.03931944
6326.00   12.97809982   0.03675395
6328.00   12.98488331   0.03595342
6330.00   12.93986893   0.03611201
6332.00   12.92479134   0.03569619
6334.00   12.93472004   0.03460094
6336.00   12.94392204   0.03374750
6338.00   12.93717480   0.03383172
6340.00   12.92345810   0.03445355
6342.00   12.92455006   0.03440602
6344.00   12.94233322   0.03393095
6346.00   12.94494534   0.03363751
6348.00   12.93209267   0.03332193
6350.00   12.92754650   0.03309400
6352.00   12.94216061   0.03294893
6354.00   12.96440887   0.03291888
6356.00   12.97269440   0.03312929
6358.00   12.96774292   0.03297305
6360.00   12.97942543   0.03464856
6362.00   13.01706600   0.03909402
6364.00   13.02768040   0.04098228
6366.00   12.99529076   0.03954565
6368.00   12.95083427   0.03683139
6370.00   12.93269920   0.03518556
6372.00   12.92746544   0.03306666
6374.00   12.91961956   0.03408718
6376.00   12.90648460   0.03892432
6378.00   12.91133022   0.04125360
6380.00   12.95541668   0.04146841
6382.00   12.98472118   0.04112858
6384.00   12.94067574   0.04117485
6386.00   12.84285927   0.04117146
6388.00   12.81977749   0.04094163
6390.00   12.85813046   0.04110224
6392.00   12.86174297   0.03984430
6394.00   12.84316254   0.03607998
6396.00   12.82121468   0.03290600
6398.00   12.80698872   0.03261839
6400.00   12.79262733   0.03407823
6402.00   12.75395775   0.03558597
6404.00   12.68722153   0.03888138
6406.00   12.63422966   0.03976979
6408.00   12.52936268   0.03876526
6410.00   12.51949310   0.03805469
6412.00   12.70516682   0.03830640
6414.00   12.94991970   0.03883523
6416.00   12.96094990   0.03898356
6418.00   12.77536488   0.03933176
6420.00   12.72167587   0.03848115
6422.00   12.71398449   0.03493669
6424.00   12.70866871   0.03403175
6426.00   12.71674252   0.03796859
6428.00   12.71879482   0.04183010
6430.00   12.67677021   0.04082553
6432.00   12.59681606   0.03577086
6434.00   12.54925632   0.03491230
6436.00   12.48660374   0.03786426
6438.00   12.48553658   0.03811622
6440.00   12.58039856   0.03526936
6442.00   12.66675663   0.03215185
6444.00   12.65934467   0.03123653
6446.00   12.59700966   0.03155932
6448.00   12.56611252   0.03233332
6450.00   12.55851746   0.03434709
6452.00   12.50495720   0.03567123
6454.00   12.38176346   0.03740630
6456.00   12.29031944   0.03793986
6458.00   12.28111267   0.03586025
6460.00   12.31750584   0.03214957
6462.00   12.34073448   0.03165388
6464.00   12.39711285   0.03380912
6466.00   12.40042114   0.03493266
6468.00   12.34889698   0.03647752
6470.00   12.31845856   0.03740747
6472.00   12.34172821   0.03764561
6474.00   12.37192154   0.03730400
6476.00   12.33128643   0.03601977
6478.00   12.23566437   0.03257743
6480.00   12.15488911   0.03277952
6482.00   12.04639053   0.03638950
6484.00   11.97208214   0.03858294
6486.00   11.93591881   0.03945206
6488.00   11.92219830   0.03987616
6490.00   11.91877651   0.04041012
6492.00   11.92902660   0.04100002
6494.00   11.96921730   0.04012542
6496.00   12.05507088   0.03596582
6498.00   12.12077999   0.03541649
6500.00   12.19836807   0.04001251
6502.00   12.23667908   0.04329084
6504.00   12.19003868   0.04147001
6506.00   12.08128262   0.03626348
6508.00   11.98297024   0.03476468
6510.00   11.84576797   0.03398678
6512.00   11.74929523   0.03656437
6514.00   11.68338394   0.04480540
6516.00   11.62339783   0.04883119
6518.00   11.54726887   0.04530331
6520.00   11.47841930   0.03717592
6522.00   11.49146175   0.03385980
6524.00   11.61490822   0.03314392
6526.00   11.64270306   0.03308115
6528.00   11.62128830   0.03546036
6530.00   11.59372520   0.03688747
6532.00   11.55960941   0.03718004
6534.00   11.52239513   0.03670299
6536.00   11.50536537   0.03498443
6538.00   11.51878929   0.03111581
6540.00   11.46081448   0.02959054
6542.00   11.32303619   0.02985667
6544.00   11.22668171   0.03002142
6546.00   11.17180347   0.03020305
6548.00   11.13641453   0.03049040
6550.00   11.11629581   0.03086043
6552.00   11.12098694   0.03139384
6554.00   11.07188511   0.03132148
6556.00   10.94781303   0.03041179
6558.00   10.89810371   0.03019167
6560.00   10.93342209   0.03077232
6562.00   10.96126461   0.03121842
6564.00   10.93169117   0.03090051
6566.00   10.87186718   0.03017421
6568.00   10.78967857   0.03018929
6570.00   10.63981247   0.03122679
6572.00   10.56356144   0.03101482
6574.00   10.55060005   0.02922847
6576.00   10.52911663   0.02823794
6578.00   10.47627258   0.02916046
6580.00   10.41116619   0.03092794
6582.00   10.34738922   0.03212054
6584.00   10.25850677   0.03408979
6586.00   10.22796822   0.03368339
6588.00   10.25919342   0.03037183
6590.00   10.26995564   0.02805571
6592.00   10.25745583   0.02772924
6594.00   10.22605133   0.02818748
6596.00   10.15919685   0.02831312
6598.00   10.04618454   0.02853292
6600.00   9.98878956   0.02903171
6602.00   9.97339630   0.03019872
6604.00   9.94311905   0.03061800
6606.00   9.91375732   0.03028167
6608.00   9.86373043   0.02959867
6610.00   9.75283051   0.02863341
6612.00   9.58799076   0.02715412
6614.00   9.53544331   0.02735537
6616.00   9.57800007   0.02930832
6618.00   9.59235287   0.03034701
6620.00   9.62399387   0.03138861
6622.00   9.62149048   0.03161121
6624.00   9.54105186   0.03010307
6626.00   9.41265392   0.02733403
6628.00   9.33743763   0.02644105
6630.00   9.28870201   0.02697361
6632.00   9.23504639   0.02714200
6634.00   9.18485641   0.02755228
6636.00   9.13924408   0.02791109
6638.00   9.09657288   0.02822997
6640.00   9.05950832   0.02844902
6642.00   9.03684044   0.02822009
6644.00   9.03514481   0.02734331
6646.00   9.01249218   0.02718526
6648.00   8.98623848   0.02758859
6650.00   8.94320202   0.02781626
6652.00   8.87699795   0.02778713
6654.00   8.80085468   0.02770323
6656.00   8.72948265   0.02777857
6658.00   8.65236473   0.02804728
6660.00   8.59786510   0.02767509
6662.00   8.56397343   0.02642654
6664.00   8.52880859   0.02577157
6666.00   8.49048710   0.02574354
6668.00   8.45997620   0.02590663
6670.00   8.44778538   0.02589218
6672.00   8.45005131   0.02583639
6674.00   8.43914700   0.02667928
6676.00   8.45280743   0.02845331
6678.00   8.39921188   0.02976634
6680.00   8.26467991   0.03152156
6682.00   8.13619232   0.03225775
6684.00   8.04806519   0.03086661
6686.00   7.97992277   0.02812440
6688.00   7.93862343   0.02744488
6690.00   7.94599199   0.02821866
6692.00   7.91930103   0.02868886
6694.00   7.87041092   0.03018785
6696.00   7.83409500   0.03041595
6698.00   7.82970142   0.02812766
6700.00   7.82944918   0.02478370
6702.00   7.78001690   0.02426836
6704.00   7.68334198   0.02606832
6706.00   7.62622213   0.02646556
6708.00   7.58074379   0.02673771
6710.00   7.55005693   0.02656093
6712.00   7.54285622   0.02556021
6714.00   7.54087830   0.02447625
6716.00   7.52074528   0.02436817
6718.00   7.49054003   0.02491292
6720.00   7.46674681   0.02524441
6722.00   7.45638084   0.02595215
6724.00   7.42085600   0.02606364
6726.00   7.35731792   0.02531599
6728.00   7.28659344   0.02468053
6730.00   7.21485662   0.02479286
6732.00   7.13800812   0.02533065
6734.00   7.10897970   0.02661602
6736.00   7.12561846   0.02967798
6738.00   7.13527918   0.03037392
6740.00   7.17527533   0.02926302
6742.00   7.18126297   0.02777053
6744.00   7.11606216   0.02608774
6746.00   7.01192474   0.02418742
6748.00   6.94060469   0.02391561
6750.00   6.87090826   0.02562666
6752.00   6.81995821   0.02584470
6754.00   6.78663921   0.02551343
6756.00   6.75971985   0.02494163
6758.00   6.73325586   0.02365426
6760.00   6.71685743   0.02243057
6762.00   6.72889519   0.02333121
6764.00   6.77541065   0.02612299
6766.00   6.78909779   0.02714887
6768.00   6.79762506   0.02794830
6770.00   6.78121042   0.02766651
6772.00   6.72719669   0.02549952
6774.00   6.66589165   0.02299339
6776.00   6.62979889   0.02246286
6778.00   6.60657597   0.02326774
6780.00   6.57451153   0.02328231
6782.00   6.53842115   0.02312527
6784.00   6.50567484   0.02305497
6786.00   6.47098637   0.02304895
6788.00   6.44404650   0.02305279
6790.00   6.43502474   0.02304379
6792.00   6.43819380   0.02303391
6794.00   6.42356062   0.02300957
6796.00   6.39733887   0.02302831
6798.00   6.37365532   0.02291513
6800.00   6.33538818   0.02222562
6802.00   6.31836510   0.02225410
6804.00   6.33676338   0.02353274
6806.00   6.37814665   0.02543205
6808.00   6.42839146   0.02723523
6810.00   6.53285170   0.03021158
6812.00   6.53783894   0.03037091
6814.00   6.45433903   0.02788637
6816.00   6.38332176   0.02575036
6818.00   6.33479214   0.02418051
6820.00   6.29289722   0.02316011
6822.00   6.25232220   0.02363378
6824.00   6.20678663   0.02565722
6826.00   6.20361280   0.02651735
6828.00   6.23818970   0.02734372
6830.00   6.27911997   0.02745331
6832.00   6.35297251   0.02667210
6834.00   6.40792179   0.02551454
6836.00   6.38204145   0.02435344
6838.00   6.29536533   0.02289340
6840.00   6.25760126   0.02223351
6842.00   6.24303341   0.02205879
6844.00   6.21689749   0.02240794
6846.00   6.17423916   0.02367825
6848.00   6.14431286   0.02474955
6850.00   6.14662790   0.02513394
6852.00   6.16888380   0.02515772
6854.00   6.17736340   0.02487100
6856.00   6.20833921   0.02324949
6858.00   6.18047953   0.02360102
6860.00   6.09591675   0.02592513
6862.00   6.00941849   0.02751203
6864.00   5.91604376   0.02756709
6866.00   5.83244610   0.02714428
6868.00   5.83914948   0.02790666
6870.00   5.93106365   0.02964393
6872.00   6.00245142   0.03037019
6874.00   6.12925243   0.03123026
6876.00   6.18485117   0.03079208
6878.00   6.13838911   0.02804635
6880.00   6.05358839   0.02447521
6882.00   5.99523783   0.02300666
6884.00   5.92047453   0.02273953
6886.00   5.92833614   0.02368591
6888.00   6.04309368   0.02689199
6890.00   6.09298277   0.02853870
6892.00   6.09202909   0.02938959
6894.00   6.05705500   0.02930647
6896.00   5.97550583   0.02734128
6898.00   5.84548807   0.02323028
6900.00   5.81499004   0.02281577
6902.00   5.85416937   0.02593472
6904.00   5.89780760   0.02722737
6906.00   5.99649286   0.02813398
6908.00   6.05748320   0.02825014
6910.00   6.02679348   0.02688628
6912.00   5.94157362   0.02445885
6914.00   5.87220764   0.02368669
6916.00   5.76814032   0.02444566
6918.00   5.71451521   0.02423764
6920.00   5.69423056   0.02341363
6922.00   5.68606520   0.02298089
6924.00   5.68877888   0.02334744
6926.00   5.70152378   0.02401393
6928.00   5.71426010   0.02426359
6930.00   5.73863649   0.02436068
6932.00   5.74020863   0.02440902
6934.00   5.74051189   0.02406180
6936.00   5.70746708   0.02424637
6938.00   5.61715555   0.02547521
6940.00   5.52105379   0.02654378
6942.00   5.48189020   0.02606381
6944.00   5.47449160   0.02431889
6946.00   5.48442650   0.02339584
6948.00   5.54226494   0.02254822
6950.00   5.56758213   0.02208534
6952.00   5.55913687   0.02222061
6954.00   5.54766655   0.02240968
6956.00   5.55236435   0.02209588
6958.00   5.56378174   0.02150675
6960.00   5.57519484   0.02218507
6962.00   5.60239267   0.02436512
6964.00   5.60137129   0.02525938
6966.00   5.57788610   0.02560312
6968.00   5.54378223   0.02542086
6970.00   5.49597263   0.02434174
6972.00   5.44025898   0.02268317
6974.00   5.41509581   0.02238626
6976.00   5.41723108   0.02364156
6978.00   5.40829134   0.02343852
6980.00   5.39276266   0.02166250
6982.00   5.39002943   0.02104420
6984.00   5.41348886   0.02270051
6986.00   5.44172049   0.02489708
6988.00   5.43682814   0.02571287
6990.00   5.41428185   0.02620681
6992.00   5.37226105   0.02549231
6994.00   5.28339529   0.02259593
6996.00   5.23089933   0.02075962
6998.00   5.22017193   0.02016465
7000.00   5.22781324   0.02058057
7002.00   5.23760939   0.02225511
7004.00   5.25777674   0.02511803
7006.00   5.27938843   0.02636550
7008.00   5.32412100   0.02755810
7010.00   5.33304453   0.02717885
7012.00   5.30481291   0.02423798
7014.00   5.26668596   0.02120973
7016.00   5.23050022   0.02066306
7018.00   5.19008160   0.02157674
7020.00   5.16937208   0.02147123
7022.00   5.18056059   0.02036008
7024.00   5.15594959   0.02102976
7026.00   5.09307814   0.02351456
7028.00   5.04365969   0.02541363
7030.00   5.02389908   0.02645739
7032.00   5.02229738   0.02690114
7034.00   5.03793478   0.02577354
7036.00   5.08353996   0.02162864
7038.00   5.11252117   0.02027842
7040.00   5.14153767   0.02120960
7042.00   5.16304922   0.02177236
7044.00   5.17816019   0.02157757
7046.00   5.18451786   0.02128627
7048.00   5.17457390   0.02146469
7050.00   5.14596081   0.02200314
7052.00   5.12808752   0.02221638
7054.00   5.10880613   0.02240560
7056.00   5.09679365   0.02232891
7058.00   5.09269953   0.02181530
7060.00   5.09332609   0.02126903
7062.00   5.09686184   0.02109670
7064.00   5.10468912   0.02112132
7066.00   5.11051083   0.02135118
7068.00   5.11293125   0.02156459
7070.00   5.12304306   0.02242416
7072.00   5.15089655   0.02414506
7074.00   5.16649199   0.02565126
7076.00   5.15151119   0.02665050
7078.00   5.11656141   0.02734895
7080.00   5.07756615   0.02685938
7082.00   5.00720882   0.02467718
7084.00   4.97783422   0.02326779
7086.00   4.98033524   0.02174411
7088.00   4.98666143   0.02077800
7090.00   4.99119568   0.02088494
7092.00   4.99728060   0.02156666
7094.00   4.99829721   0.02174648
7096.00   4.99416256   0.02187823
7098.00   4.99533701   0.02180012
7100.00   4.99811935   0.02136420
7102.00   5.00401688   0.02112966
7104.00   5.01113796   0.02124585
7106.00   5.02311182   0.02143160
7108.00   5.04874468   0.02128180
7110.00   5.09267616   0.02069764
7112.00   5.10420656   0.02128415
7114.00   5.09533167   0.02302103
7116.00   5.07882500   0.02416438
7118.00   5.04941273   0.02531525
7120.00   5.01563215   0.02572932
7122.00   4.98460388   0.02424123
7124.00   4.95229435   0.02082117
7126.00   4.92912149   0.02013478
7128.00   4.90042734   0.02142487
7130.00   4.90207291   0.02266877
7132.00   4.94807816   0.02491864
7134.00   4.98406792   0.02634777
7136.00   4.98068285   0.02609132
7138.00   4.95685387   0.02481643
7140.00   4.94122934   0.02387334
7142.00   4.91968918   0.02215505
7144.00   4.90518522   0.02166103
7146.00   4.89942789   0.02263137
7148.00   4.88756800   0.02300011
7150.00   4.86691570   0.02186388
7152.00   4.83956146   0.02029950
7154.00   4.80279207   0.02065985
7156.00   4.74797487   0.02254465
7158.00   4.71717787   0.02358516
7160.00   4.70104885   0.02512890
7162.00   4.68913794   0.02542505
7164.00   4.68403864   0.02371326
7166.00   4.68122578   0.02152219
7168.00   4.67199993   0.02135110
7170.00   4.65802383   0.02259100
7172.00   4.65385437   0.02269907
7174.00   4.66069841   0.02226116
7176.00   4.66027689   0.02202777
7178.00   4.64661932   0.02173304
7180.00   4.63960791   0.02176000
7182.00   4.65283012   0.02244147
7184.00   4.67943382   0.02356961
7186.00   4.72293711   0.02496743
7188.00   4.81629276   0.02743166
7190.00   4.84840822   0.02831817
7192.00   4.83459330   0.02800364
7194.00   4.80095243   0.02738918
7196.00   4.74234009   0.02674335
7198.00   4.66913509   0.02590837
7200.00   4.66034079   0.02520904
7202.00   4.70806551   0.02439079
7204.00   4.73955727   0.02393839
7206.00   4.78989220   0.02408229
7208.00   4.82146120   0.02383683
7210.00   4.82625818   0.02272280
7212.00   4.81389666   0.02134833
7214.00   4.79111910   0.02096181
7216.00   4.75130701   0.02135882
7218.00   4.71316576   0.02143303
7220.00   4.64634895   0.02157818
7222.00   4.62364006   0.02164536
7224.00   4.67293978   0.02157843
7226.00   4.72666454   0.02151491
7228.00   4.70427990   0.02156590
7230.00   4.62567806   0.02163148
7232.00   4.62232876   0.02213141
7234.00   4.66685247   0.02311401
7236.00   4.71039677   0.02390351
7238.00   4.78095388   0.02492120
7240.00   4.83059978   0.02544340
7242.00   4.81546402   0.02473583
7244.00   4.75765610   0.02310131
7246.00   4.74019384   0.02279475
7248.00   4.74620914   0.02345529
7250.00   4.73661518   0.02382849
7252.00   4.71907902   0.02449297
7254.00   4.69884968   0.02473731
7256.00   4.66811848   0.02399421
7258.00   4.63781691   0.02280890
7260.00   4.65591955   0.02298187
7262.00   4.73680305   0.02429301
7264.00   4.76173449   0.02504928
7266.00   4.76118660   0.02569548
7268.00   4.74960184   0.02642498
7270.00   4.71618271   0.02770398
7272.00   4.68125868   0.02866458
7274.00   4.68846035   0.02767940
7276.00   4.72729635   0.02434935
7278.00   4.76032209   0.02332830
7280.00   4.83260632   0.02358711
7282.00   4.84403849   0.02433262
7284.00   4.77588987   0.02603632
7286.00   4.68741465   0.02762583
7288.00   4.61979103   0.02819277
7290.00   4.54342699   0.02827453
7292.00   4.57275152   0.02741047
7294.00   4.74772978   0.02424708
7296.00   4.82165575   0.02311822
7298.00   4.82335806   0.02465935
7300.00   4.79329205   0.02579453
7302.00   4.73793745   0.02475294
7304.00   4.65523767   0.02244551
7306.00   4.61245155   0.02163113
7308.00   4.59436131   0.02179682
7310.00   4.57295704   0.02176682
7312.00   4.54634285   0.02184594
7314.00   4.53944969   0.02205724
7316.00   4.57054329   0.02248939
7318.00   4.61817932   0.02300349
7320.00   4.62997437   0.02319906
7322.00   4.62974358   0.02323766
7324.00   4.60163879   0.02310967
7326.00   4.51917458   0.02221267
7328.00   4.47219181   0.02227048
7330.00   4.47827291   0.02424198
7332.00   4.50460529   0.02611161
7334.00   4.52016115   0.02536840
7336.00   4.54541779   0.02216608
7338.00   4.53570223   0.02108780
7340.00   4.49542856   0.02135385
7342.00   4.45439768   0.02139608
7344.00   4.40091896   0.02134461
7346.00   4.35383654   0.02130151
7348.00   4.33738708   0.02121844
7350.00   4.34377241   0.02110024
7352.00   4.32098055   0.02120025
7354.00   4.27035618   0.02145144
7356.00   4.24351645   0.02178684
7358.00   4.23343754   0.02238810
7360.00   4.23133326   0.02281430
7362.00   4.24206305   0.02283606
7364.00   4.26019239   0.02260534
7366.00   4.23443317   0.02232575
7368.00   4.15260983   0.02137524
7370.00   4.11714602   0.02157502
7372.00   4.11788273   0.02332257
7374.00   4.10392475   0.02403648
7376.00   4.05805063   0.02273900
7378.00   3.99903464   0.02052313
7380.00   3.95162940   0.01983097
7382.00   3.90248322   0.02007268
7384.00   3.86778331   0.02025919
7386.00   3.84740686   0.02111688
7388.00   3.82727075   0.02138060
7390.00   3.81250191   0.02076444
7392.00   3.79360151   0.01990559
7394.00   3.75021148   0.01958897
7396.00   3.68013716   0.01954165
7398.00   3.65630150   0.01949596
7400.00   3.67378759   0.01963089
7402.00   3.67542553   0.01966332
7404.00   3.66830897   0.01962771
7406.00   3.65370059   0.01953240
7408.00   3.62833023   0.01930406
7410.00   3.59337401   0.01894907
7412.00   3.55865169   0.01904517
7414.00   3.53441215   0.01913743
7416.00   3.47660661   0.02004306
7418.00   3.37087464   0.02255432
7420.00   3.27918077   0.02382391
7422.00   3.22929955   0.02238777
7424.00   3.20300794   0.01923187
7426.00   3.18579245   0.01822659
7428.00   3.19679403   0.01889681
7430.00   3.18856502   0.01881934
7432.00   3.17591691   0.01870436
7434.00   3.15666676   0.01857281
7436.00   3.12405944   0.01840073
7438.00   3.08909702   0.01822941
7440.00   3.07721186   0.01817119
7442.00   3.08614111   0.01822495
7444.00   3.08023882   0.01819834
7446.00   3.07703257   0.01812954
7448.00   3.05734515   0.01808125
7450.00   3.01007318   0.01802155
7452.00   2.96027017   0.01801012
7454.00   2.93856955   0.01817158
7456.00   2.93590069   0.01852087
7458.00   2.91795993   0.01847841
7460.00   2.88034272   0.01800714
7462.00   2.87165761   0.01780471
7464.00   2.89871931   0.01784628
7466.00   2.92736745   0.01794762
7468.00   2.93442893   0.01800161
7470.00   2.93148994   0.01806149
7472.00   2.93376136   0.01821547
7474.00   2.94369888   0.01859199
7476.00   2.93606138   0.01866234
7478.00   2.91190648   0.01833830
7480.00   2.88441730   0.01818877
7482.00   2.85333967   0.01859392
7484.00   2.82154918   0.01918468
7486.00   2.81353855   0.01906277
7488.00   2.82817817   0.01819815
7490.00   2.83681965   0.01787335
7492.00   2.85621810   0.01779643
7494.00   2.86329079   0.01774791
7496.00   2.84389472   0.01769710
7498.00   2.82140684   0.01768235
7500.00   2.83759260   0.01771624
7502.00   2.88990355   0.01781774
7504.00   2.90624213   0.01786373
7506.00   2.90015054   0.01788926
7508.00   2.89867568   0.01790545
7510.00   2.90207958   0.01789897
7512.00   2.90526986   0.01789668
7514.00   2.90811396   0.01793334
7516.00   2.91373348   0.01799907
7518.00   2.89218354   0.01803553
7520.00   2.83068705   0.01797900
7522.00   2.80077791   0.01809174
7524.00   2.79837155   0.01849974
7526.00   2.80252337   0.01877163
7528.00   2.80359459   0.01860324
7530.00   2.80668855   0.01816124
7532.00   2.80761695   0.01796474
7534.00   2.79909778   0.01782550
7536.00   2.81011581   0.01777745
7538.00   2.83560944   0.01784879
7540.00   2.86902690   0.01794335
7542.00   2.91382527   0.01804533
7544.00   2.96404195   0.01815781
7546.00   2.99487567   0.01822350
7548.00   3.01393771   0.01824794
7550.00   3.02781749   0.01829465
7552.00   3.03275228   0.01821402
7554.00   3.03381276   0.01837894
7556.00   3.02529550   0.01903898
7558.00   3.01798892   0.01969852
7560.00   3.03393126   0.01962225
7562.00   3.07326436   0.01888677
7564.00   3.08395314   0.01879326
7566.00   3.07231522   0.01857966
7568.00   3.06918383   0.01932230
7570.00   3.08565664   0.02170729
7572.00   3.09005213   0.02355732
7574.00   3.04826713   0.02322787
7576.00   2.97059083   0.02136694
7578.00   2.92946792   0.02024981
7580.00   2.89448857   0.01877182
7582.00   2.88547921   0.01802123
7584.00   2.90439653   0.01796174
7586.00   2.93659687   0.01835867
7588.00   2.97153354   0.01831906
7590.00   3.01612496   0.01856047
7592.00   3.09308219   0.02346060
7594.00   3.24545527   0.02938445
7596.00   3.30204964   0.03691200
7598.00   3.30166292   0.04836374
7600.00   3.26744246   0.05425684
7602.00   3.18457222   0.05362728
7604.00   3.07914805   0.04948217
7606.00   3.03614068   0.04551211
7608.00   3.01445913   0.03792191
7610.00   3.04954910   0.03417866
7612.00   3.20401931   0.03491803
7614.00   3.26486802   0.03414519
7616.00   3.18746924   0.03009488
7618.00   3.06620502   0.02555671
7620.00   2.99547863   0.02581578
7622.00   2.92334604   0.02989257
7624.00   2.92774796   0.03112539
7626.00   3.01707363   0.03195597
7628.00   3.08881783   0.03184924
7630.00   3.15975976   0.03018478
7632.00   3.22120810   0.02841118
7634.00   3.25702596   0.02810337
7636.00   3.27364540   0.02867296
7638.00   3.29774833   0.02827960
7640.00   3.33100963   0.02730241
7642.00   3.33882880   0.02645240
7644.00   3.31820631   0.02551682
7646.00   3.29592729   0.02462753
7648.00   3.28117323   0.02384695
7650.00   3.26928806   0.02315908
7652.00   3.27212834   0.02269030
7654.00   3.30495763   0.02257225
7656.00   3.30163193   0.02226711
7658.00   3.27093530   0.02194487
7660.00   3.24205136   0.02156623
7662.00   3.20589232   0.02064848
7664.00   3.18115067   0.01994641
7666.00   3.23109031   0.02158014
7668.00   3.37620759   0.02569886
7670.00   3.41359353   0.02634397
7672.00   3.38062286   0.02481867
7674.00   3.35153532   0.02328167
7676.00   3.31969690   0.02138724
7678.00   3.29202437   0.01954498
7680.00   3.29282022   0.01905380
7682.00   3.32079887   0.01975384
7684.00   3.30646229   0.01967793
7686.00   3.25660753   0.01932485
7688.00   3.22021127   0.01912046
7690.00   3.18482232   0.01902829
7692.00   3.16252661   0.01899295
7694.00   3.16857696   0.01896396
7696.00   3.19617915   0.01896099
7698.00   3.20860147   0.01923067
7700.00   3.21179199   0.01994045
7702.00   3.22752094   0.02022848
7704.00   3.25545192   0.02023307
7706.00   3.28310013   0.02015655
7708.00   3.30858731   0.02000531
7710.00   3.33173537   0.01980596
7712.00   3.33889127   0.01988490
7714.00   3.33070302   0.02031321
7716.00   3.32269573   0.02040387
7718.00   3.30225897   0.02028987
7720.00   3.29177690   0.02017883
7722.00   3.30098295   0.02013179
7724.00   3.31489754   0.02006159
7726.00   3.30808330   0.01976598
7728.00   3.28010631   0.01883837
7730.00   3.28299737   0.01961928
7732.00   3.30390763   0.02228611
7734.00   3.33273697   0.02364639
7736.00   3.37808061   0.02399826
7738.00   3.42318106   0.02364202
7740.00   3.44370794   0.02211489
7742.00   3.44436979   0.01872464
7744.00   3.48132205   0.01909700
7746.00   3.57046151   0.02328319
7748.00   3.60371757   0.02490627
7750.00   3.57964683   0.02493547
7752.00   3.54637313   0.02450996
7754.00   3.52450585   0.02380753
7756.00   3.50335169   0.02270172
7758.00   3.52380514   0.02364285
7760.00   3.61234283   0.02750265
7762.00   3.63447642   0.02800199
7764.00   3.61116958   0.02597354
7766.00   3.57743835   0.02365668
7768.00   3.53634977   0.02163315
7770.00   3.49024200   0.01964445
7772.00   3.47375154   0.01907942
7774.00   3.48370028   0.02021549
7776.00   3.48314714   0.02059950
7778.00   3.47210908   0.02112034
7780.00   3.48217177   0.02135302
7782.00   3.51474690   0.02083818
7784.00   3.56845856   0.02041107
7786.00   3.65578365   0.02163499
7788.00   3.79777479   0.02422844
7790.00   3.85175419   0.02524606
7792.00   3.85318398   0.02572876
7794.00   3.83099031   0.02571231
7796.00   3.75934410   0.02467317
7798.00   3.68896914   0.02370936
7800.00   3.67484927   0.02436570
7802.00   3.69456124   0.02618056
7804.00   3.71361065   0.02561405
7806.00   3.76219010   0.02220638
7808.00   3.78072524   0.02069971
7810.00   3.76473832   0.02115855
7812.00   3.75355959   0.02182861
7814.00   3.77131295   0.02186223
7816.00   3.80359244   0.02175373
7818.00   3.81997442   0.02193735
7820.00   3.82883859   0.02259343
7822.00   3.83812666   0.02259038
7824.00   3.84633160   0.02194882
7826.00   3.85170436   0.02143040
7828.00   3.85367823   0.02130712
7830.00   3.85279465   0.02134291
7832.00   3.84891415   0.02128010
7834.00   3.83298755   0.02122006
7836.00   3.84189582   0.02114919
7838.00   3.87582278   0.02067422
7840.00   3.90183711   0.02094284
7842.00   3.91964293   0.02220985
7844.00   3.93030930   0.02380400
7846.00   3.92205405   0.02528207
7848.00   3.88040543   0.02727942
7850.00   3.92504668   0.02696089
7852.00   4.07170486   0.02367185
7854.00   4.15528917   0.02187123
7856.00   4.17722321   0.02198451
7858.00   4.17903996   0.02250162
7860.00   4.18397236   0.02242356
7862.00   4.18020201   0.02221193
7864.00   4.17979479   0.02213718
7866.00   4.17883968   0.02211398
7868.00   4.17682648   0.02212597
7870.00   4.17196512   0.02223302
7872.00   4.16905451   0.02229211
7874.00   4.17679024   0.02210529
7876.00   4.18755817   0.02183735
7878.00   4.16198301   0.02229970
7880.00   4.08375597   0.02302010
7882.00   4.05562019   0.02447166
7884.00   4.03937531   0.02761652
7886.00   4.05865812   0.02901114
7888.00   4.14156723   0.02756031
7890.00   4.24663591   0.02474693
7892.00   4.27803183   0.02369533
7894.00   4.25400829   0.02354829
7896.00   4.25750685   0.02336759
7898.00   4.26676178   0.02332907
7900.00   4.27081442   0.02379263
7902.00   4.26073456   0.02536295
7904.00   4.25535965   0.02665546
7906.00   4.28356361   0.02590132
7908.00   4.34438276   0.02322927
7910.00   4.35605526   0.02248260
7912.00   4.32031870   0.02308346
7914.00   4.31366730   0.02330421
7916.00   4.32969809   0.02314131
7918.00   4.35790157   0.02319222
7920.00   4.40373755   0.02374513
7922.00   4.46712017   0.02461198
7924.00   4.46713495   0.02625416
7926.00   4.39161444   0.03019791
7928.00   4.37024593   0.03045795
7930.00   4.37494087   0.02673274
7932.00   4.40098763   0.02314019
7934.00   4.46102428   0.02235798
7936.00   4.54036903   0.02308707
7938.00   4.56714058   0.02397516
7940.00   4.55702496   0.02591210
7942.00   4.54696178   0.02716957
7944.00   4.53722286   0.02910452
7946.00   4.49647856   0.02945117
7948.00   4.39411783   0.02689070
7950.00   4.27928400   0.02303973
7952.00   4.25047350   0.02232421
7954.00   4.29225111   0.02378034
7956.00   4.29184961   0.02502665
7958.00   4.26794720   0.02794636
7960.00   4.26922369   0.02880768
7962.00   4.31114054   0.02699836
7964.00   4.35482979   0.02443042
7966.00   4.35683584   0.02347450
7968.00   4.33006811   0.02334433
7970.00   4.32856894   0.02308245
7972.00   4.34833527   0.02300863
7974.00   4.34646606   0.02313529
7976.00   4.31648350   0.02360209
7978.00   4.29082823   0.02405285
7980.00   4.29690933   0.02427124
7982.00   4.32076788   0.02437658
7984.00   4.30062771   0.02438518
7986.00   4.23016977   0.02430140
7988.00   4.20071840   0.02409302
7990.00   4.20234489   0.02365317
7992.00   4.20135975   0.02326949
7994.00   4.18781567   0.02307375
7996.00   4.16821623   0.02296404
7998.00   4.13978720   0.02279105
8000.00   4.09589386   0.02262655
8002.00   4.06498051   0.02240870
8004.00   4.03117800   0.02197088
8006.00   4.01527357   0.02183247
8008.00   4.03286648   0.02180660
8010.00   4.05680656   0.02226816
8012.00   4.03949356   0.02423579
8014.00   3.98672795   0.02799184
8016.00   3.96975136   0.02830620
8018.00   3.98633218   0.02513922
8020.00   3.97574759   0.02386071
8022.00   3.93445158   0.02507614
8024.00   3.88177991   0.02684187
8026.00   3.82513428   0.02818015
8028.00   3.75431442   0.02978063
8030.00   3.74298668   0.02906928
8032.00   3.79643059   0.02509889
8034.00   3.82043839   0.02292888
8036.00   3.82965422   0.02249843
8038.00   3.83105874   0.02249695
8040.00   3.82517195   0.02232700
8042.00   3.81185746   0.02231107
8044.00   3.79716015   0.02216859
8046.00   3.78785896   0.02196285
8048.00   3.75431776   0.02180888
8050.00   3.68368721   0.02165733
8052.00   3.63158965   0.02156022
8054.00   3.61734319   0.02153097
8056.00   3.62338877   0.02156151
8058.00   3.63080263   0.02166759
8060.00   3.65953493   0.02194920
8062.00   3.65888000   0.02198078
8064.00   3.63929939   0.02185141
8066.00   3.61491394   0.02167781
8068.00   3.58452630   0.02142356
8070.00   3.55044436   0.02115438
8072.00   3.52129126   0.02100182
8074.00   3.49946547   0.02090024
8076.00   3.44950461   0.02092934
8078.00   3.36088753   0.02074167
8080.00   3.30008841   0.02131653
8082.00   3.26965213   0.02315895
8084.00   3.24707508   0.02465298
8086.00   3.22056913   0.02460985
8088.00   3.19798207   0.02358116
8090.00   3.14544725   0.02266816
8092.00   3.05517673   0.02096630
8094.00   2.98865724   0.02001518
8096.00   2.94126725   0.01965916
8098.00   2.89284158   0.01971340
8100.00   2.83462524   0.02033331
8102.00   2.77174783   0.02130955
8104.00   2.70550084   0.02127255
8106.00   2.61795545   0.02032481
8108.00   2.56785154   0.01977102
8110.00   2.55804133   0.01916859
8112.00   2.53537273   0.01872448
8114.00   2.48645020   0.01858094
8116.00   2.42401505   0.01857599
8118.00   2.35497570   0.01835948
8120.00   2.26892924   0.01798631
8122.00   2.19891858   0.01778148
8124.00   2.13358641   0.01763966
8126.00   2.07651949   0.01758862
8128.00   2.03015041   0.01768991
8130.00   1.98942840   0.01781977
8132.00   1.94849753   0.01780537
8134.00   1.91109157   0.01770050
8136.00   1.86878169   0.01764161
8138.00   1.81716764   0.01747977
8140.00   1.77820945   0.01753913
8142.00   1.75153780   0.01769409
8144.00   1.73111093   0.01812439
8146.00   1.71461427   0.01913732
8148.00   1.70360577   0.02055826
8150.00   1.68773782   0.02094315
8152.00   1.66955221   0.02071662
8154.00   1.65223289   0.02026994
8156.00   1.63905895   0.01921344
8158.00   1.61977923   0.01821485
8160.00   1.58965695   0.01746343
8162.00   1.55188811   0.01695412
8164.00   1.50958586   0.01759798
8166.00   1.44189572   0.01979781
8168.00   1.41659701   0.02065414
8170.00   1.42556083   0.02121712
8172.00   1.43570220   0.02120361
8174.00   1.44841433   0.02022661
8176.00   1.45752931   0.01880560
8178.00   1.43523240   0.01828696
8180.00   1.38345349   0.01823057
8182.00   1.34411561   0.01849983
8184.00   1.29506958   0.01942114
8186.00   1.26339936   0.02008029
8188.00   1.25012076   0.02071593
8190.00   1.25006616   0.02098895
8192.00   1.26471043   0.02022763
8194.00   1.30039120   0.01835179
8196.00   1.30077267   0.01757542
8198.00   1.27297747   0.01756578
8200.00   1.25213361   0.01736632
8202.00   1.22899020   0.01703167
8204.00   1.21234465   0.01679009
8206.00   1.21076870   0.01680802
8208.00   1.21999955   0.01700758
8210.00   1.23023486   0.01703726
8212.00   1.24924636   0.01693089
8214.00   1.26264071   0.01697718
8216.00   1.27561474   0.01715153
8218.00   1.28373599   0.01733085
8220.00   1.28451133   0.01750267
8222.00   1.28010023   0.01765992
8224.00   1.27474952   0.01766825
8226.00   1.26343000   0.01756721
8228.00   1.25873947   0.01739536
8230.00   1.25920677   0.01702604
8232.00   1.25836086   0.01677151
8234.00   1.25623858   0.01674789
8236.00   1.25232422   0.01678292
8238.00   1.24157226   0.01663375
8240.00   1.21625793   0.01638967
8242.00   1.22624886   0.01607631
8244.00   1.27541530   0.01532648
8246.00   1.30529964   0.01519315
8248.00   1.31446791   0.01576196
8250.00   1.31611562   0.01665252
8252.00   1.31805468   0.01779873
8254.00   1.31644654   0.01937626
8256.00   1.31436288   0.01925692
8258.00   1.31836116   0.01724343
8260.00   1.30450606   0.01608607
8262.00   1.26785469   0.01553663
8264.00   1.23092008   0.01527336
8266.00   1.20574331   0.01522573
8268.00   1.18589664   0.01543644
8270.00   1.17421257   0.01559862
8272.00   1.16831505   0.01581402
8274.00   1.17279327   0.01609211
8276.00   1.19446981   0.01648863
8278.00   1.21195316   0.01683471
8280.00   1.21795964   0.01711890
8282.00   1.21858275   0.01733435
8284.00   1.21942472   0.01733336
8286.00   1.22144377   0.01704758
8288.00   1.21273136   0.01696204
8290.00   1.18679070   0.01687258
8292.00   1.17252016   0.01694764
8294.00   1.17571163   0.01734830
8296.00   1.18600011   0.01775987
8298.00   1.19387341   0.01771744
8300.00   1.20700884   0.01736725
8302.00   1.20395315   0.01697765
8304.00   1.18093455   0.01622351
8306.00   1.17006433   0.01578789
8308.00   1.17033398   0.01565624
8310.00   1.17647958   0.01575854
8312.00   1.18754184   0.01618744
8314.00   1.20506811   0.01695798
8316.00   1.21441746   0.01695413
8318.00   1.20557272   0.01601620
8320.00   1.22622740   0.01585260
8322.00   1.28614724   0.01623698
8324.00   1.33720279   0.01690355
8326.00   1.35103762   0.01789929
8328.00   1.34523034   0.01908923
8330.00   1.35269308   0.01954616
8332.00   1.36552930   0.01969808
8334.00   1.37095416   0.01938340
8336.00   1.35714877   0.01805910
8338.00   1.36585069   0.01720099
8340.00   1.42542362   0.01751956
8342.00   1.49947011   0.01830589
8344.00   1.50653267   0.01852417
8346.00   1.45648599   0.01862202
8348.00   1.43848336   0.01843898
8350.00   1.41839254   0.01778746
8352.00   1.41624963   0.01731759
8354.00   1.43484533   0.01702815
8356.00   1.46793902   0.01693438
8358.00   1.51483154   0.01725650
8360.00   1.58759725   0.01808336
8362.00   1.60952437   0.01810611
8364.00   1.57774734   0.01739188
8366.00   1.57676876   0.01703244
8368.00   1.60097110   0.01669590
8370.00   1.63828683   0.01686115
8372.00   1.68931794   0.01829183
8374.00   1.75617206   0.02053854
8376.00   1.78977597   0.02071791
8378.00   1.79480827   0.01900020
8380.00   1.80994308   0.01820918
8382.00   1.82887173   0.01780226
8384.00   1.84606206   0.01772889
8386.00   1.85707366   0.01814011
8388.00   1.86573064   0.01886348
8390.00   1.88720274   0.01913811
8392.00   1.92454469   0.01911642
8394.00   1.94882858   0.01925893
8396.00   1.96585107   0.01952191
8398.00   1.98311019   0.01964926
8400.00   2.00106597   0.01955768
8402.00   2.01992488   0.01935441
8404.00   2.04329491   0.01918366
8406.00   2.07016873   0.01892760
8408.00   2.09871411   0.01886014
8410.00   2.13254929   0.01894518
8412.00   2.16268349   0.01904488
8414.00   2.18165207   0.01915342
8416.00   2.20563698   0.01929484
8418.00   2.25734425   0.01947055
8420.00   2.33346033   0.01966157
8422.00   2.38396311   0.01999658
8424.00   2.42109394   0.02044544
8426.00   2.45732260   0.02094682
8428.00   2.49093175   0.02172843
8430.00   2.52152085   0.02225536
8432.00   2.54736018   0.02209077
8434.00   2.56897044   0.02144164
8436.00   2.60270166   0.02109255
8438.00   2.63964438   0.02064654
8440.00   2.69055200   0.02052876
8442.00   2.75935721   0.02074510
8444.00   2.82917142   0.02102813
8446.00   2.89662194   0.02132013
8448.00   2.96240330   0.02163725
8450.00   3.01229072   0.02179802
8452.00   3.05204988   0.02171605
8454.00   3.07976675   0.02195077
8456.00   3.08375645   0.02219321
8458.00   3.09840846   0.02282141
8460.00   3.12764239   0.02423667
8462.00   3.16748810   0.02564060
8464.00   3.22340035   0.02575518
8466.00   3.30598378   0.02488109
8468.00   3.35184908   0.02427490
8470.00   3.35523200   0.02323717
8472.00   3.39245987   0.02263441
8474.00   3.48098421   0.02218948
8476.00   3.57180738   0.02243900
8478.00   3.61772418   0.02431924
8480.00   3.63777566   0.02749468
8482.00   3.65144897   0.02842885
8484.00   3.62119627   0.02825871
8486.00   3.64510345   0.02763982
8488.00   3.72993517   0.02582036
8490.00   3.81826901   0.02413647
8492.00   3.87259340   0.02378945
8494.00   3.91304684   0.02424227
8496.00   3.98132896   0.02443422
8498.00   4.08230925   0.02483876
8500.00   4.15180683   0.02510039
8502.00   4.20577526   0.02534247
8504.00   4.24544096   0.02548516
8506.00   4.26785707   0.02548113
8508.00   4.27704191   0.02538001
8510.00   4.28715611   0.02528837
8512.00   4.28892088   0.02511740
8514.00   4.29747820   0.02505146
8516.00   4.30803537   0.02509109
8518.00   4.32125330   0.02507825
8520.00   4.34255171   0.02478300
8522.00   4.36192083   0.02462348
8524.00   4.36047935   0.02532198
8526.00   4.33989859   0.02664129
8528.00   4.33355951   0.02794800
8530.00   4.32906389   0.03016621
8532.00   4.33201075   0.03098786
8534.00   4.33385324   0.03027546
8536.00   4.35223436   0.02901687
8538.00   4.41253614   0.02793843
8540.00   4.51005554   0.02660045
8542.00   4.55975342   0.02598438
8544.00   4.56576204   0.02607547
8546.00   4.60519791   0.02602741
8548.00   4.67585230   0.02560410
8550.00   4.74619913   0.02580023
8552.00   4.80906010   0.02737344
8554.00   4.86661291   0.02965754
8556.00   4.86815834   0.03086673
8558.00   4.79346228   0.03245173
8560.00   4.77012157   0.03196598
8562.00   4.77867460   0.02862834
8564.00   4.77763081   0.02587651
8566.00   4.74477625   0.02535320
8568.00   4.70614004   0.02592827
8570.00   4.71642017   0.02627151
8572.00   4.77083397   0.02702335
8574.00   4.80382347   0.02757704
8576.00   4.84626102   0.02849095
8578.00   4.86658764   0.02868698
8580.00   4.84939718   0.02770169
8582.00   4.82525826   0.02642401
8584.00   4.83452415   0.02621004
8586.00   4.86126137   0.02668504
8588.00   4.89925718   0.02684464
8590.00   4.97141361   0.02701904
8592.00   5.01365614   0.02717998
8594.00   5.02566528   0.02711651
8596.00   5.02589560   0.02731780
8598.00   5.01872730   0.02826678
8600.00   4.99827003   0.02971893
8602.00   5.03106689   0.03081856
8604.00   5.12383842   0.03268563
8606.00   5.18251276   0.03267878
8608.00   5.22383118   0.03022745
8610.00   5.25623941   0.02803909
8612.00   5.27932739   0.02783250
8614.00   5.29441690   0.02867171
8616.00   5.31785202   0.02942729
8618.00   5.38473082   0.03119795
8620.00   5.35667849   0.03152581
8622.00   5.22234344   0.03076306
8624.00   5.12293053   0.02998046
8626.00   5.09869289   0.02931581
8628.00   5.10467005   0.02871459
8630.00   5.09149265   0.02853920
8632.00   5.07619762   0.02856643
8634.00   5.06833315   0.02920194
8636.00   5.06776762   0.03071857
8638.00   5.06626415   0.03180636
8640.00   5.05619621   0.03276510
8642.00   5.05367088   0.03318588
8644.00   5.08286810   0.03212522
8646.00   5.14197636   0.02938833
8648.00   5.16860676   0.02841632
8650.00   5.16054726   0.02843806
8652.00   5.18726921   0.02872564
8654.00   5.24417257   0.02891758
8656.00   5.31852007   0.03007232
8658.00   5.41731834   0.03343529
8660.00   5.54036903   0.03800257
8662.00   5.57782030   0.03879340
8664.00   5.55798578   0.03684602
8666.00   5.51114368   0.03516895
8668.00   5.40387344   0.03213160
8670.00   5.30441523   0.02980558
8672.00   5.23605204   0.02990536
8674.00   5.18570042   0.03125146
8676.00   5.17132425   0.03100264
8678.00   5.20183325   0.02962297
8680.00   5.22283936   0.02907505
8682.00   5.26870537   0.02880303
8684.00   5.28858805   0.02879174
8686.00   5.25893068   0.02924103
8688.00   5.21524477   0.02979435
8690.00   5.21696663   0.02965583
8692.00   5.25037956   0.02871417
8694.00   5.26784229   0.02901231
8696.00   5.28237486   0.03023718
8698.00   5.29936028   0.03133929
8700.00   5.31370592   0.03280113
8702.00   5.33541584   0.03375246
8704.00   5.38239574   0.03293122
8706.00   5.45514059   0.03044928
8708.00   5.48009253   0.02950832
8710.00   5.50397253   0.02859966
8712.00   5.45577812   0.02940862
8714.00   5.29502583   0.03313116
8716.00   5.14733410   0.03565143
8718.00   5.09769917   0.03455992
8720.00   5.10189199   0.03109013
8722.00   5.10269642   0.02956455
8724.00   5.13638830   0.02868865
8726.00   5.14890909   0.02819053
8728.00   5.14176750   0.02771376
8730.00   5.14668751   0.02847659
8732.00   5.17431211   0.03168217
8734.00   5.21683168   0.03542031
8736.00   5.27089977   0.03562406
8738.00   5.34644127   0.03268623
8740.00   5.41106653   0.03134142
8742.00   5.50375986   0.03004458
8744.00   5.54152346   0.02924630
8746.00   5.49584484   0.02924086
8748.00   5.41452932   0.02960003
8750.00   5.36432838   0.02964450
8752.00   5.32602644   0.02962579
8754.00   5.25748491   0.02967676
8756.00   5.15081215   0.02975902
8758.00   5.06976509   0.02986147
8760.00   4.99826622   0.02998219
8762.00   4.95887470   0.03012679
8764.00   4.99164009   0.03031733
8766.00   5.08996916   0.03056020
8768.00   5.12391138   0.03066255
8770.00   5.13841248   0.03070262
8772.00   5.12768507   0.03063923
8774.00   5.07863569   0.03008157
8776.00   5.02615023   0.03000616
8778.00   4.99065256   0.03135157
8780.00   4.96068859   0.03340990
8782.00   4.92707968   0.03359201
8784.00   4.88500977   0.03215224
8786.00   4.86129427   0.03140965
8788.00   4.84554338   0.03063855
8790.00   4.84637642   0.03014020
8792.00   4.86428404   0.03016974
8794.00   4.90018606   0.03044161
8796.00   4.96471453   0.03024594
8798.00   5.08192205   0.02948912
8800.00   5.13975048   0.02959844
8802.00   5.18278027   0.03062383
8804.00   5.18056250   0.03114736
8806.00   5.10651731   0.03102589
8808.00   5.01166582   0.03058617
8810.00   4.97356510   0.02985417
8812.00   4.97076273   0.02815960
8814.00   4.93828392   0.02925794
8816.00   4.89424706   0.03329381
8818.00   4.84652472   0.03543122
8820.00   4.78955936   0.03645786
8822.00   4.73384476   0.03650762
8824.00   4.69332457   0.03496064
8826.00   4.66407728   0.03164984
8828.00   4.60467005   0.03045871
8830.00   4.50471497   0.03108248
8832.00   4.44232893   0.03081599
8834.00   4.39888144   0.02954715
8836.00   4.38046789   0.02892747
8838.00   4.39967299   0.02987521
8840.00   4.44626904   0.03174538
8842.00   4.46900654   0.03375252
8844.00   4.48907757   0.03760764
8846.00   4.49691153   0.03816227
8848.00   4.48779011   0.03614129
8850.00   4.48205185   0.03383771
8852.00   4.48189878   0.03145152
8854.00   4.48694849   0.02898594
8856.00   4.50876284   0.02808797
8858.00   4.56718349   0.02850031
8860.00   4.55764818   0.02930188
8862.00   4.50037146   0.03124497
8864.00   4.43000793   0.03271563
8866.00   4.33750248   0.03425922
8868.00   4.23893118   0.03501622
8870.00   4.16055298   0.03321938
8872.00   4.08819437   0.02829835
8874.00   4.04224682   0.02681724
8876.00   4.01792860   0.02806275
8878.00   4.00969982   0.02873848
8880.00   4.03207159   0.02924982
8882.00   4.05314493   0.02974390
8884.00   4.04994822   0.03021104
8886.00   4.03436136   0.03067144
8888.00   3.99175143   0.03076713
8890.00   3.87631440   0.03064750
8892.00   3.85303235   0.03023668
8894.00   3.91398072   0.02917124
8896.00   3.98341012   0.02837188
8898.00   4.03525114   0.02841265
8900.00   4.08443975   0.02888676
8902.00   4.11659193   0.02895192
8904.00   4.14184856   0.02884530
8906.00   4.14326668   0.02881130
8908.00   4.11111259   0.02864685
8910.00   4.08637810   0.02871522
8912.00   4.07921982   0.02918786
8914.00   4.07709074   0.02980069
8916.00   4.06976986   0.03015603
8918.00   4.07593298   0.03053037
8920.00   4.02703285   0.03039376
8922.00   3.90113544   0.02965542
8924.00   3.82617235   0.02904543
8926.00   3.81079221   0.02848677
8928.00   3.82184458   0.02806951
8930.00   3.84068155   0.02797802
8932.00   3.88316107   0.02809493
8934.00   3.88642621   0.02876523
8936.00   3.84789944   0.02945267
8938.00   3.83980370   0.03133416
8940.00   3.87541008   0.03512845
8942.00   3.89556003   0.03801511
8944.00   3.85886455   0.03864742
8946.00   3.78620696   0.03796752
8948.00   3.71600223   0.03650744
8950.00   3.58564353   0.03195694
8952.00   3.55711913   0.03061085
8954.00   3.63991261   0.03266392
8956.00   3.70509887   0.03419427
8958.00   3.70271111   0.03381623
8960.00   3.67062640   0.03270970
8962.00   3.64547443   0.03252613
8964.00   3.60421443   0.03315084
8966.00   3.58155775   0.03280444
8968.00   3.57595968   0.03158865
8970.00   3.56245375   0.03064395
8972.00   3.53378153   0.03019507
8974.00   3.50132203   0.02998873
8976.00   3.48027015   0.02982750
8978.00   3.46771908   0.02963975
8980.00   3.44703579   0.03021926
8982.00   3.40388155   0.03068212
8984.00   3.39695191   0.03279625
8986.00   3.44509768   0.03794779
8988.00   3.49711394   0.04178735
8990.00   3.50330138   0.04073958
8992.00   3.48386550   0.03580381
8994.00   3.46255755   0.03356241
8996.00   3.40818357   0.03180876
8998.00   3.39461207   0.03122529
9000.00   3.42053938   0.03255204
9002.00   3.45645165   0.03380691
9004.00   3.49240780   0.03394322
9006.00   3.53314090   0.03357050
9008.00   3.54366994   0.03299586
9010.00   3.51910424   0.03156031
9012.00   3.51642489   0.03100575
9014.00   3.53175879   0.03117437
9016.00   3.53547859   0.03135029
9018.00   3.51592612   0.03136984
9020.00   3.48406172   0.03133450
9022.00   3.45520401   0.03106679
9024.00   3.40855718   0.03003947
9026.00   3.40280676   0.03054797
9028.00   3.46019554   0.03314395
9030.00   3.46608639   0.03405785
9032.00   3.38690591   0.03249191
9034.00   3.28452086   0.02998690
9036.00   3.23211050   0.02853243
9038.00   3.19036794   0.02682548
9040.00   3.21167588   0.02805434
9042.00   3.33909535   0.03334110
9044.00   3.39116335   0.03519346
9046.00   3.34809399   0.03319029
9048.00   3.29749703   0.03094451
9050.00   3.31185675   0.03223742
9052.00   3.36185026   0.03552290
9054.00   3.38332677   0.03592355
9056.00   3.40226555   0.03456214
9058.00   3.40427494   0.03332929
9060.00   3.39494061   0.03126024
9062.00   3.36754799   0.02966777
9064.00   3.31212211   0.02973968
9066.00   3.23628736   0.03077901
9068.00   3.18051434   0.03079286
9070.00   3.13343143   0.03000845
9072.00   3.08481073   0.03005389
9074.00   3.02484059   0.03087604
9076.00   2.98797345   0.03136706
9078.00   2.99302125   0.03117205
9080.00   3.01665401   0.03068697
9082.00   3.01149392   0.03044369
9084.00   2.98420811   0.03005854
9086.00   2.98326039   0.03029170
9088.00   3.01189780   0.03129207
9090.00   3.01757789   0.03190692
9092.00   2.99474597   0.03213512
9094.00   2.95660281   0.03207740
9096.00   2.90617776   0.03160232
9098.00   2.82614827   0.03057340
9100.00   2.82233024   0.03012261
9102.00   2.89144802   0.02998942
9104.00   2.93894911   0.02990471
9106.00   2.99022651   0.03003618
9108.00   3.01531196   0.03008146
9110.00   2.97425485   0.02971501
9112.00   2.88199878   0.02905474
9114.00   2.83537817   0.02873738
9116.00   2.80155826   0.02854821
9118.00   2.78042555   0.02850567
9120.00   2.78346848   0.02858867
9122.00   2.78140545   0.02884237
9124.00   2.75686574   0.02936135
9126.00   2.72262907   0.03003841
9128.00   2.70718527   0.03042400
9130.00   2.71325469   0.03071156
9132.00   2.69655871   0.03082545
9134.00   2.65739989   0.03077535
9136.00   2.63108301   0.03060344
9138.00   2.63063717   0.03029099
9140.00   2.63892531   0.02986704
9142.00   2.62924027   0.02937831
9144.00   2.60552263   0.02848961
9146.00   2.59754276   0.02861883
9148.00   2.59404087   0.02985095
9150.00   2.60107946   0.03060069
9152.00   2.62840867   0.03093276
9154.00   2.65532899   0.03094783
9156.00   2.65193963   0.03045831
9158.00   2.62241721   0.02935056
9160.00   2.63539648   0.02895103
9162.00   2.67747974   0.02878709
9164.00   2.72087288   0.02904543
9166.00   2.78261137   0.02991911
9168.00   2.83249307   0.03083236
9170.00   2.84559298   0.03150383
9172.00   2.83412719   0.03209918
9174.00   2.82070255   0.03205034
9176.00   2.80332971   0.03133521
9178.00   2.76304841   0.03065916
9180.00   2.67291546   0.02948112
9182.00   2.61499357   0.02872637
9184.00   2.63761139   0.02895613
9186.00   2.69836259   0.02972410
9188.00   2.69702983   0.03016185
9190.00   2.64924836   0.03106245
9192.00   2.63148594   0.03072890
9194.00   2.63643575   0.02862250
9196.00   2.62053418   0.02753345
9198.00   2.56110239   0.02790411
9200.00   2.49459219   0.02937552
9202.00   2.48023438   0.03240246
9204.00   2.49529862   0.03786219
9206.00   2.53475881   0.03828773
9208.00   2.64020133   0.03427130
9210.00   2.69201350   0.03145549
9212.00   2.67223024   0.03013862
9214.00   2.63839960   0.02945337
9216.00   2.63823676   0.02905960
9218.00   2.64762211   0.02916931
9220.00   2.69217229   0.02952999
9222.00   2.79739690   0.03041685
9224.00   2.85626101   0.03116540
9226.00   2.88286734   0.03219277
9228.00   2.88840222   0.03276924
9230.00   2.87246776   0.03228541
9232.00   2.83553052   0.03105980
9234.00   2.80497026   0.03046482
9236.00   2.75912380   0.02995148
9238.00   2.73802900   0.02980206
9240.00   2.74738741   0.03023862
9242.00   2.74468088   0.03049214
9244.00   2.71218324   0.03025985
9246.00   2.66595864   0.02981072
9248.00   2.63103294   0.02954539
9250.00   2.60307026   0.02937591
9252.00   2.56275582   0.02907013
9254.00   2.49288893   0.02852838
9256.00   2.45916772   0.02822440
9258.00   2.48241162   0.02825072
9260.00   2.52583933   0.02846456
9262.00   2.54201174   0.02874943
9264.00   2.54973793   0.02920033
9266.00   2.55261874   0.02952753
9268.00   2.55115843   0.02979617
9270.00   2.54038024   0.03009153
9272.00   2.50582314   0.03029252
9274.00   2.48056579   0.03064740
9276.00   2.50337577   0.03140844
9278.00   2.56287789   0.03245081
9280.00   2.57693005   0.03352470
9282.00   2.57003427   0.03522127
9284.00   2.55142903   0.03586919
9286.00   2.49999928   0.03558251
9288.00   2.46368742   0.03500783
9290.00   2.47857165   0.03418637
9292.00   2.52164268   0.03313557
9294.00   2.52100754   0.03361309
9296.00   2.47708392   0.03584332
9298.00   2.47374201   0.03682676
9300.00   2.49043894   0.03681428
9302.00   2.52048326   0.03748806
9304.00   2.57750916   0.03879616
9306.00   2.64005876   0.04095611
9308.00   2.64339566   0.04544828
9310.00   2.62044287   0.05208405
9312.00   2.53755999   0.05671747
9314.00   2.33713436   0.06281189
9316.00   2.21568274   0.06472317
9318.00   2.19161630   0.06067167
9320.00   2.22409225   0.05440646
9322.00   2.30301762   0.05207229
9324.00   2.46895003   0.05188830
9326.00   2.49239922   0.05115959
9328.00   2.37828422   0.05028953
9330.00   2.33677816   0.05075902
9332.00   2.38910508   0.05326334
9334.00   2.42756534   0.05560708
9336.00   2.34321189   0.05632277
9338.00   2.17171216   0.05621430
9340.00   2.21980810   0.05509561
9342.00   2.53050160   0.05217016
9344.00   2.63051987   0.04988755
9346.00   2.57991385   0.04739846
9348.00   2.48467588   0.04556642
9350.00   2.35623646   0.04520962
9352.00   2.19944000   0.04582065
9354.00   2.18387294   0.04571437
9356.00   2.31758094   0.04502652
9358.00   2.36685085   0.04534584
9360.00   2.39391375   0.04582824
9362.00   2.41456151   0.04747274
9364.00   2.43508434   0.05040120
9366.00   2.44740367   0.05417217
9368.00   2.43692255   0.05855007
9370.00   2.39808559   0.06417679
9372.00   2.38082719   0.06772196
9374.00   2.38510084   0.07234851
9376.00   2.36585474   0.07251327
9378.00   2.30993652   0.06617691
9380.00   2.24783587   0.05684382
9382.00   2.21108913   0.05007387
9384.00   2.18341994   0.04348632
9386.00   2.18435454   0.03884207
9388.00   2.23729944   0.03757012
9390.00   2.24994516   0.03624039
9392.00   2.20202684   0.03517181
9394.00   2.17280746   0.03503555
9396.00   2.22776389   0.03639355
9398.00   2.33698225   0.03889607
9400.00   2.39593863   0.04023476
9402.00   2.48456836   0.04117130
9404.00   2.45897031   0.04199817
9406.00   2.29103041   0.04207223
9408.00   2.14081764   0.04292987
9410.00   2.06487870   0.04576775
9412.00   2.02843928   0.04919230
9414.00   2.04640603   0.04977171
9416.00   2.16242909   0.04816876
9418.00   2.20307350   0.04692011
9420.00   2.22161388   0.04449363
9422.00   2.21327734   0.04289557
9424.00   2.15400362   0.04292047
9426.00   2.08494782   0.04359398
9428.00   2.09656239   0.04348186
9430.00   2.18636990   0.04268185
9432.00   2.19157100   0.04348090
9434.00   2.15267158   0.04488506
9436.00   2.10010791   0.04750822
9438.00   1.99852943   0.05255355
9440.00   1.91840434   0.05670300
9442.00   1.95631576   0.05698637
9444.00   2.08813167   0.05470352
9446.00   2.14662719   0.05216206
9448.00   2.19665599   0.04566728
9450.00   2.20678496   0.04356937
9452.00   2.16457939   0.04722582
9454.00   2.11271286   0.05080696
9456.00   2.07592177   0.05160208
9458.00   2.04125094   0.05124296
9460.00   2.01624179   0.04988907
9462.00   1.99682271   0.04557527
9464.00   1.98777425   0.04411555
9466.00   1.99221599   0.04440291
9468.00   1.99872506   0.04596059
9470.00   1.99437213   0.04960398
9472.00   1.99401712   0.05374099
9474.00   2.04577017   0.05374062
9476.00   2.18143106   0.04990932
9478.00   2.21433854   0.04787046
9480.00   2.16219711   0.04578621
9482.00   2.13404560   0.04413059
9484.00   2.15311003   0.04265459
9486.00   2.18181038   0.04196176
9488.00   2.18442869   0.04349721
9490.00   2.18846679   0.04743882
9492.00   2.12419510   0.04869534
9494.00   1.94710124   0.04892608
9496.00   1.85775971   0.04836918
9498.00   1.86559165   0.04673230
9500.00   1.90940940   0.04445954
9502.00   1.95810544   0.04185217
9504.00   2.03726339   0.03842375
9506.00   2.01869583   0.03663766
9508.00   1.88606501   0.03549195
9510.00   1.82668650   0.03621646
9512.00   1.82373130   0.03914460
9514.00   1.83127069   0.04241154
9516.00   1.83220673   0.04583403
9518.00   1.83532095   0.04932535
9520.00   1.81890678   0.04924772
9522.00   1.76711178   0.04508140
9524.00   1.75832570   0.04290743
9526.00   1.78856111   0.04131817
9528.00   1.81174684   0.03991979
9530.00   1.81087899   0.03839900
9532.00   1.80264616   0.03717480
9534.00   1.81050742   0.03739752
9536.00   1.82747042   0.03915350
9538.00   1.84583819   0.04030471
9540.00   1.87693715   0.04156368
9542.00   1.89485347   0.04272865
9544.00   1.89513683   0.04362379
9546.00   1.88656104   0.04461395
9548.00   1.87474501   0.04634863
9550.00   1.84936452   0.04895391
9552.00   1.85883772   0.04960511
9554.00   1.92462277   0.04834022
9556.00   1.93398428   0.04800497
9558.00   1.86217773   0.04801610
9560.00   1.79482508   0.04896805
9562.00   1.81193924   0.05249379
9564.00   1.88376236   0.05796426
9566.00   1.87765467   0.05646769
9568.00   1.81456971   0.04633930
9570.00   1.77070987   0.04057328
9572.00   1.70930505   0.03837588
9574.00   1.68286705   0.03766478
9576.00   1.74636722   0.03776577
9578.00   1.85706258   0.03903558
9580.00   1.83665061   0.04023238
9582.00   1.66859758   0.04251800
9584.00   1.62399411   0.04331794
9586.00   1.66273689   0.04329906
9588.00   1.68242419   0.04282061
9590.00   1.65270793   0.04173233
9592.00   1.60659814   0.04026173
9594.00   1.58080816   0.03927484
9596.00   1.55600214   0.03840271
9598.00   1.55434811   0.03788134
9600.00   1.57694006   0.03763839
9602.00   1.60066926   0.03772809
9604.00   1.63369405   0.03850950
9606.00   1.66110539   0.03923543
9608.00   1.65988564   0.03855988
9610.00   1.64157534   0.03611673
9612.00   1.59440267   0.03815676
9614.00   1.45457494   0.04520100
9616.00   1.43117511   0.04783608
9618.00   1.55246520   0.04694796
9620.00   1.68473995   0.04487633
9622.00   1.73561275   0.04271418
9624.00   1.75006807   0.03970345
9626.00   1.74772882   0.03817321
9628.00   1.71468627   0.03774604
9630.00   1.67438841   0.03752414
9632.00   1.59804511   0.03798081
9634.00   1.54600573   0.03845336
9636.00   1.55876207   0.03878902
9638.00   1.60292733   0.03903034
9640.00   1.58805728   0.03854808
9642.00   1.50030065   0.03681859
9644.00   1.50214911   0.03635789
9646.00   1.58591902   0.03582809
9648.00   1.63896072   0.03696026
9650.00   1.64185250   0.04121315
9652.00   1.61538601   0.04555204
9654.00   1.56024218   0.04549315
9656.00   1.45238435   0.04156458
9658.00   1.40399337   0.04037936
9660.00   1.37735271   0.04057420
9662.00   1.38100183   0.04038374
9664.00   1.42261791   0.03954737
9666.00   1.48508656   0.03880522
9668.00   1.55968499   0.03900758
9670.00   1.66646421   0.04001667
9672.00   1.67011917   0.03984774
9674.00   1.56545687   0.03886042
9676.00   1.50714946   0.03792365
9678.00   1.47920704   0.03645063
9680.00   1.46000910   0.03546939
9682.00   1.44261396   0.03614952
9684.00   1.43069208   0.03788166
9686.00   1.41372585   0.03782041
9688.00   1.36837971   0.03612357
9690.00   1.38333285   0.03550692
9692.00   1.47241175   0.03538905
9694.00   1.54186368   0.03561429
9696.00   1.55593169   0.03639471
9698.00   1.54180837   0.03740617
9700.00   1.52392209   0.03740447
9702.00   1.47647691   0.03652305
9704.00   1.46110046   0.03598821
9706.00   1.47703350   0.03487561
9708.00   1.47423208   0.03475388
9710.00   1.43684936   0.03631401
9712.00   1.39038312   0.03830707
9714.00   1.36727870   0.03912566
9716.00   1.34870589   0.03940821
9718.00   1.36441004   0.03954110
9720.00   1.42628765   0.03928127
9722.00   1.47052097   0.03900823
9724.00   1.51415932   0.03824835
9726.00   1.53196967   0.03795199
9728.00   1.48194492   0.03942623
9730.00   1.37236273   0.04223098
9732.00   1.31632173   0.04331905
9734.00   1.26084697   0.04364185
9736.00   1.25519061   0.04365762
9738.00   1.32579184   0.04304293
9740.00   1.38585329   0.04237982
9742.00   1.38030493   0.04228761
9744.00   1.34004593   0.04240022
9746.00   1.31447399   0.04088173
9748.00   1.26782680   0.03630119
9750.00   1.26126897   0.03491174
9752.00   1.29153049   0.03635383
9754.00   1.32413137   0.03777744
9756.00   1.35435605   0.03872218
9758.00   1.38259339   0.03941450
9760.00   1.38716745   0.03878164
9762.00   1.36970162   0.03608055
9764.00   1.35598898   0.03559230
9766.00   1.33204460   0.03666463
9768.00   1.31559432   0.03759446
9770.00   1.31721008   0.03872130
9772.00   1.31699359   0.03940973
9774.00   1.28259075   0.03797183
9776.00   1.21478260   0.03370029
9778.00   1.18721950   0.03361471
9780.00   1.16450703   0.03662366
9782.00   1.18314207   0.03929672
9784.00   1.26926148   0.04257152
9786.00   1.35540867   0.04512308
9788.00   1.38021612   0.04541953
9790.00   1.37019622   0.04402349
9792.00   1.35879660   0.04515011
9794.00   1.31160665   0.04880800
9796.00   1.30295300   0.05006719
9798.00   1.34066260   0.05008802
9800.00   1.36728501   0.04880095
9802.00   1.34025335   0.04500764
9804.00   1.28904033   0.03906184
9806.00   1.31388617   0.03781664
9808.00   1.43886673   0.04121830
9810.00   1.46300483   0.04252480
9812.00   1.42056942   0.04430883
9814.00   1.37200844   0.04479398
9816.00   1.32297945   0.04289506
9818.00   1.27415800   0.03987400
9820.00   1.25893188   0.03901010
9822.00   1.27848649   0.03982118
9824.00   1.27345312   0.03950062
9826.00   1.25746000   0.03864433
9828.00   1.24373627   0.03798606
9830.00   1.24103415   0.03766933
9832.00   1.23135364   0.03740166
9834.00   1.18184149   0.03666972
9836.00   1.08348060   0.03513868
9838.00   1.08985174   0.03635065
9840.00   1.18701231   0.03925055
9842.00   1.26573145   0.04289062
9844.00   1.36148429   0.04941687
9846.00   1.42592001   0.05336887
9848.00   1.40438104   0.05044772
9850.00   1.31939566   0.04167134
9852.00   1.26557112   0.03842485
9854.00   1.18889248   0.03881176
9856.00   1.16020262   0.03877505
9858.00   1.18320358   0.03931474
9860.00   1.20806134   0.04022062
9862.00   1.21870053   0.04141112
9864.00   1.22317743   0.04286546
9866.00   1.19931293   0.04418585
9868.00   1.11740398   0.04585445
9870.00   1.10628045   0.04671744
9872.00   1.14804256   0.04737654
9874.00   1.18685257   0.04722060
9876.00   1.22041035   0.04548554
9878.00   1.24577987   0.04324567
9880.00   1.23097134   0.04307243
9882.00   1.16606927   0.04376807
9884.00   1.15434468   0.04636160
9886.00   1.17885268   0.05332863
9888.00   1.19525456   0.05532593
9890.00   1.20474863   0.05075542
9892.00   1.20953453   0.04418453
9894.00   1.20702267   0.04220057
9896.00   1.19939291   0.04297261
9898.00   1.17837942   0.04254770
9900.00   1.12744117   0.04200570
9902.00   1.10657012   0.04200902
9904.00   1.12364638   0.04239522
9906.00   1.13791645   0.04329538
9908.00   1.11249983   0.04497639
9910.00   1.06465507   0.04723390
9912.00   1.08645320   0.04868722
9914.00   1.18780994   0.05043240
9916.00   1.23226345   0.05059488
9918.00   1.24508762   0.04892727
9920.00   1.24621475   0.04725104
9922.00   1.23664498   0.04602499
9924.00   1.21854734   0.04512148
9926.00   1.21806848   0.04590464
9928.00   1.24500501   0.04949711
9930.00   1.22909367   0.04976173
9932.00   1.15966547   0.04692885
9934.00   1.12577605   0.04556697
9936.00   1.15768039   0.04687905
9938.00   1.20856142   0.04923712
9940.00   1.21034253   0.05115994
9942.00   1.17549276   0.05339333
9944.00   1.17903900   0.05506914
9946.00   1.19884181   0.05685310
9948.00   1.23087919   0.05768692
9950.00   1.30230927   0.05727424
9952.00   1.35553741   0.05650968
9954.00   1.31595719   0.05629976
9956.00   1.20200622   0.05628967
9958.00   1.16065073   0.05600133
9960.00   1.13302755   0.05526922
9962.00   1.15202034   0.05510376
9964.00   1.27100444   0.05538737
9966.00   1.34613514   0.05597790
9968.00   1.25576568   0.05728788
9970.00   1.06806004   0.05901302
9972.00   1.05108416   0.05785806
9974.00   1.18960452   0.05290050
9976.00   1.22355008   0.05044363
9978.00   1.18807662   0.04904068
9980.00   1.16880524   0.04870680
9982.00   1.20635426   0.05016814
9984.00   1.26048386   0.05236765
9986.00   1.25020289   0.05210472
9988.00   1.16420281   0.04934015
9990.00   1.16313589   0.04882571
9992.00   1.23276269   0.04919516
9994.00   1.27524638   0.05035820
9996.00   1.27485490   0.05269646
9998.00   1.25855875   0.05529635
10000.00   1.24419260   0.05675503
10002.00   1.20784855   0.05739454
10004.00   1.24282420   0.05906673
10006.00   1.37779105   0.06161421
10008.00   1.43625617   0.06356253
10010.00   1.40358961   0.06534920
10012.00   1.35216415   0.06645513
10014.00   1.33276546   0.06613047
10016.00   1.31927371   0.06458001
10018.00   1.34343064   0.06368156
10020.00   1.45190966   0.06291623
10022.00   1.46182370   0.06194396
10024.00   1.37604165   0.05949405
10026.00   1.27716875   0.05885674
10028.00   1.19287777   0.06287850
10030.00   1.11046255   0.06911928
10032.00   1.09974492   0.07089808
10034.00   1.13205230   0.07053545
10036.00   1.22036636   0.06917834
10038.00   1.45051575   0.06519072
10040.00   1.58027792   0.06172422
10042.00   1.50490224   0.05994918
10044.00   1.34166586   0.05902000
10046.00   1.28960323   0.05803674
10048.00   1.25287580   0.05584468
10050.00   1.31280434   0.05869896
10052.00   1.55364287   0.06796993
10054.00   1.65917385   0.07230094
10056.00   1.56436884   0.07084250
10058.00   1.40611959   0.06726655
10060.00   1.32272506   0.06521682
10062.00   1.24387240   0.06290495
10064.00   1.24651253   0.06203265
10066.00   1.37005210   0.06259643
10068.00   1.41780436   0.06311809
10070.00   1.36071932   0.06325208
10072.00   1.32179320   0.06420695
10074.00   1.41361856   0.06711547
10076.00   1.59336102   0.07135458
10078.00   1.64043617   0.07418577
10080.00   1.67427731   0.07599920
10082.00   1.55027556   0.07880392
10084.00   1.15840542   0.08309595
10086.00   0.85818154   0.08627190
10088.00   0.83299661   0.08758342
10090.00   0.96135062   0.08757626
10092.00   1.08096468   0.08535060
10094.00   1.35291362   0.07750367
10096.00   1.43035650   0.07581349
10098.00   1.35461175   0.07985553
10100.00   1.29115295   0.08194008
10102.00   1.27793598   0.07965381
10104.00   1.27516079   0.07607271
10106.00   1.25290072   0.07626412
10108.00   1.19508314   0.07942419
10110.00   1.22590411   0.08039873
10112.00   1.34209633   0.08039863
10114.00   1.44062459   0.08063637
10116.00   1.54221117   0.08118699
10118.00   1.61354136   0.08178426
10120.00   1.58343744   0.08214850
10122.00   1.45663416   0.08218157
10124.00   1.42798698   0.08353242
10126.00   1.44825804   0.08724306
10128.00   1.47407722   0.08823311
10130.00   1.49803674   0.08540116
10132.00   1.55270159   0.08320539
10134.00   1.67920232   0.08516296
10136.00   1.86098897   0.08945959
10138.00   1.93346190   0.09332909
10140.00   1.95713127   0.10098447
10142.00   1.91886175   0.10147413
10144.00   1.77879608   0.09427300
10146.00   1.64841568   0.08722135
10148.00   1.56670392   0.08424010
10150.00   1.50988889   0.08316196
10152.00   1.49091744   0.08247045
10154.00   1.49784648   0.08190468
10156.00   1.55620944   0.08449484
10158.00   1.72271490   0.09172349
10160.00   1.81726301   0.09601121
10162.00   1.78761268   0.09544401
10164.00   1.70836937   0.09350079
10166.00   1.67998362   0.09501603
10168.00   1.69336271   0.09783605
10170.00   1.59682560   0.10259830
10172.00   1.36783767   0.11330878
10174.00   1.21459377   0.11637857
10176.00   1.12476683   0.10974348
10178.00   1.09390581   0.10021521
10180.00   1.15024734   0.09497395
10182.00   1.29479527   0.09045953
10184.00   1.40442729   0.09344450
10186.00   1.52862883   0.10719498
10188.00   1.63891625   0.11237735
10190.00   1.76595294   0.11088782
10192.00   1.84747195   0.10818525
10194.00   1.83440924   0.10731735
10196.00   1.75280237   0.10669754
10198.00   1.67302191   0.10484986
10200.00   1.49534822   0.10106783
10202.00   1.46810007   0.09917405
10204.00   1.59884262   0.09706015
10206.00   1.70093465   0.09794547
10208.00   1.70102990   0.10434525
10210.00   1.66106546   0.11276653
10212.00   1.66269529   0.11596557
10214.00   1.69975221   0.11730152
10216.00   1.68042111   0.11573898
10218.00   1.61293685   0.10913785
10220.00   1.55242872   0.10387224
10222.00   1.51072395   0.10069264
10224.00   1.46831119   0.09909951
10226.00   1.39707994   0.10004366
10228.00   1.27954710   0.10390414
10230.00   1.27307355   0.10625914
10232.00   1.38592649   0.10995991
10234.00   1.44319189   0.11064070
10236.00   1.43182266   0.10747283
10238.00   1.41679621   0.10313331
10240.00   1.44565403   0.09942964
10242.00   1.49570191   0.09484728
10244.00   1.57620990   0.09709878
10246.00   1.74035597   0.10745718
10248.00   1.80910814   0.11245228
10250.00   1.78827441   0.11360940
10252.00   1.74803984   0.11470225
10254.00   1.72976279   0.11828098
10256.00   1.70878911   0.12259883
10258.00   1.63125181   0.12167507
10260.00   1.33792830   0.11407644
10262.00   1.42365980   0.11132629
10264.00   1.94102657   0.11092588
10266.00   2.31422710   0.11169168
10268.00   2.36641407   0.11429361
10270.00   2.25663066   0.11744276
10272.00   2.11551762   0.11655002
10274.00   1.80926859   0.10761000
10276.00   1.67780793   0.11359262
10278.00   1.71182942   0.12798686
10280.00   1.63983643   0.14457902
10282.00   1.33099020   0.16804498
10284.00   1.04162848   0.18704708
10286.00   1.13850784   0.18792273
10288.00   1.54614782   0.17478490
10290.00   1.78637123   0.16589651
10292.00   2.11650443   0.14981933
10294.00   2.21638107   0.14222892
10296.00   1.95759785   0.14710118
10298.00   1.71722353   0.15367566
10300.00   1.82140195   0.15346301
10302.00   2.12918496   0.15000482
10304.00   2.39656782   0.15354286
10306.00   2.85759950   0.16592014
10308.00   3.02368593   0.16898821
10310.00   2.85411954   0.16513917
10312.00   2.71218133   0.15880120
10314.00   2.78561544   0.15021040
10316.00   2.95333433   0.13921168
10318.00   3.04250860   0.13565180
10320.00   3.15950680   0.13966678
10322.00   3.15488696   0.14069141
10324.00   3.04117012   0.14164267
10326.00   2.90177011   0.14285363
10328.00   2.69067407   0.14433783
10330.00   2.49329019   0.14609754
10332.00   2.56697679   0.14825501
10334.00   2.83895230   0.15054135
10336.00   3.19110703   0.15381408
10338.00   3.93023610   0.15935911
10340.00   4.26430511   0.16242541
10342.00   4.05083323   0.16170266
10344.00   3.63276935   0.16046040
10346.00   3.31593847   0.16297390
10348.00   2.90812540   0.16857129
10350.00   2.84186196   0.16828118
10352.00   3.12390637   0.16187207
10354.00   3.30056643   0.15895529
10356.00   3.43174958   0.15746014
10358.00   3.52775931   0.15937039
10360.00   3.53894305   0.16757542
10362.00   3.47999907   0.18015221
10364.00   3.64840150   0.18775643
10366.00   4.14475393   0.19423273
10368.00   4.31078482   0.19858214
10370.00   4.20090580   0.20147243
10372.00   4.06533051   0.20225570
10374.00   3.98391175   0.19891295
10376.00   3.91203022   0.19349048
10378.00   3.91078901   0.19599517
10380.00   3.97586513   0.20970948
10382.00   4.04453325   0.20975304
10384.00   4.16055584   0.20060936
10386.00   4.25382662   0.19013934
10388.00   4.28545809   0.17692459
10390.00   4.31451797   0.16360521
10392.00   4.45441914   0.16222736
10394.00   4.72260666   0.17281079
10396.00   4.82221842   0.17530008
10398.00   4.91322994   0.17220844
10400.00   4.79468155   0.17494959
10402.00   4.28524113   0.18724987
10404.00   3.79138923   0.19851685
10406.00   3.78904223   0.19853388
10408.00   4.10843325   0.19024237
10410.00   4.40500927   0.19026271
10412.00   5.01100016   0.19672048
10414.00   5.23840618   0.19845386
10416.00   5.06561184   0.19551225
10418.00   4.81421089   0.19230786
10420.00   4.61946869   0.19133562
10422.00   4.40919924   0.19133817
10424.00   4.54987097   0.19286478
10426.00   5.21864462   0.19816837
10428.00   5.41459179   0.19905593
10430.00   5.21154213   0.19646333
10432.00   5.06888962   0.19335599
10434.00   5.14380741   0.19016626
10436.00   5.32152367   0.18689594
10438.00   5.54667711   0.18628362
10440.00   6.00583172   0.18896468
10442.00   6.08435822   0.18894979
10444.00   5.82926416   0.18787853
10446.00   5.62918282   0.18618809
10448.00   5.50811195   0.18294594
10450.00   5.44445276   0.17979173
10452.00   5.52163935   0.18036722
10454.00   5.77593422   0.18445949
10456.00   5.83898211   0.18542668
10458.00   5.74563503   0.18395339
10460.00   5.73944664   0.18433860
10462.00   5.82469845   0.18673357
10464.00   5.94600916   0.18992747
10466.00   6.09463692   0.19362321
10468.00   6.30077744   0.19841829
10470.00   6.28400850   0.19886450
10472.00   6.00910807   0.19486481
10474.00   5.88237000   0.19255342
10476.00   5.84781742   0.19065543
10478.00   5.85847664   0.18958232
10480.00   5.91488314   0.19002956
10482.00   6.01415634   0.19157338
10484.00   6.04559326   0.19224665
10486.00   6.03068018   0.19266202
10488.00   6.02749348   0.19309431
10490.00   5.99695063   0.19346540
10492.00   6.00244522   0.19379087
10494.00   6.08987474   0.19270948
10496.00   6.20539570   0.19217305
10498.00   6.21978855   0.19881083
10500.00   6.18603134   0.21556315
10502.00   6.08789873   0.21856429
10504.00   5.77977324   0.21087994
10506.00   5.69428921   0.20563816
10508.00   5.95025778   0.20456025
10510.00   6.32294655   0.20487817
10512.00   6.54368067   0.20406650
10514.00   6.71936560   0.20020109
10516.00   6.87711239   0.21061561
10518.00   7.08295536   0.24031980
10520.00   7.10940695   0.25185448
10522.00   6.92844296   0.24700378
10524.00   6.65992689   0.23571071
10526.00   6.34474230   0.22244050
10528.00   5.93003845   0.20255683
10530.00   5.90821791   0.19781972
10532.00   6.35604763   0.20963815
10534.00   6.49710941   0.21297605
10536.00   6.46083736   0.21188004
10538.00   6.32193708   0.20957379
10540.00   6.02623177   0.20633449
10542.00   5.63011742   0.20221004
10544.00   5.60706568   0.20247202
10546.00   6.03894329   0.20869571
10548.00   6.08183384   0.20924552
10550.00   5.90710163   0.20264484
10552.00   5.69742823   0.20191774
10554.00   5.41476536   0.21423894
10556.00   5.14621925   0.22937372
10558.00   5.23423386   0.23062032
10560.00   5.74723530   0.22162105
10562.00   5.83140230   0.21613955
10564.00   5.64764404   0.20813423
10566.00   5.48951817   0.20264055
10568.00   5.34049845   0.20063977
10570.00   5.21813154   0.20042327
10572.00   5.21447659   0.20056491
10574.00   5.33301926   0.20213999
10576.00   5.28453636   0.20198002
10578.00   5.08152294   0.20042013
10580.00   4.97267675   0.19956444
10582.00   4.94215870   0.19912024
10584.00   4.94902515   0.19912408
10586.00   4.99643087   0.20006569
10588.00   5.09075069   0.20182170
10590.00   5.04197693   0.20132957
10592.00   4.84097004   0.19818436
10594.00   4.72709990   0.19703791
10596.00   4.64275503   0.19731089
10598.00   4.59797859   0.19786763
10600.00   4.61282110   0.19832619
10602.00   4.66885138   0.19890776
10604.00   4.69253445   0.19945362
10606.00   4.62419653   0.19906381
10608.00   4.76010656   0.20101920
10610.00   5.21783447   0.20642303
10612.00   5.42831612   0.20933405
10614.00   5.14752293   0.20725052
10616.00   4.71706867   0.20381948
10618.00   4.70427942   0.20547247
10620.00   4.96563339   0.21082821
10622.00   5.13172102   0.21426927
10624.00   5.40984058   0.21840440
10626.00   5.52546597   0.22070071
10628.00   5.39999008   0.22011940
10630.00   5.22693348   0.21922167
10632.00   5.19476032   0.22087252
10634.00   5.20314646   0.22392295
10636.00   5.39460468   0.22724760
10638.00   5.95468807   0.23324420
10640.00   6.15892315   0.23543435
10642.00   5.93818331   0.23289678
10644.00   5.72728872   0.23042791
10646.00   5.83204174   0.23168591
10648.00   6.10064077   0.23485318
10650.00   6.20590210   0.23526549
10652.00   6.34472561   0.23490357
10654.00   6.24167490   0.23258634
10656.00   5.75693274   0.22504541
10658.00   5.43109655   0.22131433
10660.00   5.52627373   0.22830395
10662.00   5.82389927   0.23904508
10664.00   5.93393660   0.23624623
10666.00   6.06283951   0.22041379
10668.00   5.98396301   0.21180198
10670.00   5.64109230   0.20484728
10672.00   5.38350391   0.19881687
10674.00   5.28368711   0.19400644
10676.00   5.23756599   0.19006117
10678.00   5.12610197   0.18567026
10680.00   4.90143585   0.18044898
10682.00   5.05123091   0.17910706
10684.00   5.71617126   0.18284351
10686.00   6.01691341   0.18389064
10688.00   5.85418558   0.18200366
10690.00   5.59175396   0.17907353
10692.00   5.54505682   0.17632672
10694.00   5.59363651   0.17312895
10696.00   5.51982212   0.17004311
10698.00   5.31229305   0.16575518
10700.00   5.23380852   0.16381136
10702.00   5.29300737   0.16444652
10704.00   5.35454416   0.16572703
10706.00   5.32611656   0.16721112
10708.00   5.25939322   0.16906075
10710.00   5.30234194   0.16715820
10712.00   5.47110891   0.15933822
10714.00   5.54036617   0.15715094
10716.00   5.51715946   0.15868224
10718.00   5.53913116   0.16138551
10720.00   5.67023325   0.16620031
10722.00   5.84723902   0.17120320
10724.00   5.95755482   0.16879503
10726.00   6.12625647   0.15827158
10728.00   6.03286028   0.15247725
10730.00   5.59357214   0.14602181
10732.00   5.32510996   0.14367004
10734.00   5.30165339   0.14732856
10736.00   5.39431763   0.15363891
10738.00   5.51742649   0.15941808
10740.00   5.74219751   0.16873357
10742.00   5.86428118   0.16532722
10744.00   5.97944641   0.14416178
10746.00   5.99360657   0.13323650
10748.00   5.82427883   0.13661003
10750.00   5.67671537   0.14320362
10752.00   5.77022123   0.14627862
10754.00   6.03100824   0.14957730
10756.00   6.08252525   0.14611191
10758.00   6.02792358   0.13232106
10760.00   5.93989944   0.12524880
10762.00   5.74881363   0.12396592
10764.00   5.59220123   0.12425304
10766.00   5.56376123   0.12443686
10768.00   5.60401392   0.12541209
10770.00   5.56744576   0.12604554
10772.00   5.44917965   0.12859474
10774.00   5.43895149   0.12683795
10776.00   5.52635908   0.12049427
10778.00   5.59681177   0.11439154
10780.00   5.61433506   0.10975239
10782.00   5.61485052   0.10589384
10784.00   5.63730764   0.10353113
10786.00   5.65647507   0.10164978
10788.00   5.71521139   0.10392065
10790.00   5.83679295   0.11293197
10792.00   5.91565180   0.11701936
10794.00   5.93969917   0.11541825
10796.00   5.93641949   0.11095382
10798.00   5.93483400   0.10501388
10800.00   5.94313574   0.09441232
10802.00   5.82878971   0.09267671
10804.00   5.51725817   0.10001318
10806.00   5.36830759   0.10357623
10808.00   5.36904192   0.10552017
10810.00   5.44354868   0.10529428
10812.00   5.59463882   0.09946033
10814.00   5.84060621   0.08766575
10816.00   5.78711033   0.09221479
10818.00   5.37653828   0.11539102
10820.00   5.22712564   0.12069602
10822.00   5.22228050   0.11371841
10824.00   5.31480026   0.10442151
10826.00   5.55195093   0.09663817
10828.00   5.87974501   0.08816031
10830.00   5.95430279   0.08300673
10832.00   5.77364397   0.07516589
10834.00   5.76525784   0.08211280
10836.00   5.91059351   0.10787001
10838.00   5.91436911   0.11873498
10840.00   5.61603928   0.10854396
10842.00   5.24048471   0.08789446
10844.00   5.21232605   0.08143520
10846.00   5.45609808   0.08446289
10848.00   5.56324530   0.08426510
10850.00   5.77713919   0.08668849
10852.00   5.75263071   0.08613642
10854.00   5.33988380   0.08121119
10856.00   4.87820673   0.07470240
10858.00   4.77160263   0.06991506
10860.00   4.88784456   0.06507187
10862.00   4.89948130   0.06389952
10864.00   4.92749929   0.06838436
10866.00   4.92623377   0.06922991
10868.00   4.87844324   0.06611471
10870.00   4.84096003   0.06315731
10872.00   4.86490154   0.06357729
10874.00   4.92689180   0.06587023
10876.00   4.91973877   0.06726058
