# File created by shivutils (I.Shivvers)
# wl(A)   flm    er(optional)
3436.00   27.62531662   0.42560762
3438.00   27.52624893   0.42404616
3440.00   28.07463837   0.43025452
3442.00   28.20619774   0.43254766
3444.00   28.42843819   0.43516925
3446.00   28.12004280   0.43573341
3448.00   28.50544357   0.44075203
3450.00   29.06805801   0.44575414
3452.00   28.30495071   0.44264522
3454.00   28.51609039   0.44406596
3456.00   28.44933128   0.44585064
3458.00   29.01824570   0.45140839
3460.00   30.09534645   0.45915988
3462.00   29.60506630   0.45762584
3464.00   29.86640739   0.46042392
3466.00   29.90531731   0.46259508
3468.00   30.04485512   0.46681228
3470.00   30.12687492   0.46786419
3472.00   30.31466293   0.46938503
3474.00   30.61889839   0.47274750
3476.00   31.05226707   0.47798750
3478.00   31.85596085   0.48526150
3480.00   31.91777992   0.48689631
3482.00   33.78887558   0.49838358
3484.00   35.20662689   0.50808668
3486.00   35.57067108   0.51042575
3488.00   36.18552017   0.51623732
3490.00   36.83300018   0.51955533
3492.00   37.41673660   0.52217388
3494.00   37.89275742   0.52434725
3496.00   38.07352448   0.52538264
3498.00   38.40837860   0.52641761
3500.00   39.65812302   0.53483099
3502.00   40.15802383   0.53697711
3504.00   40.11227417   0.53643048
3506.00   41.03626251   0.54028010
3508.00   42.07109833   0.54739022
3510.00   41.56022263   0.54310423
3512.00   41.43685913   0.54128242
3514.00   41.71971130   0.54322654
3516.00   41.77731705   0.54140556
3518.00   41.95108414   0.54109037
3520.00   42.49975967   0.54294872
3522.00   42.60147476   0.54303235
3524.00   42.98160172   0.54264170
3526.00   43.60508347   0.54507256
3528.00   44.20037842   0.54768032
3530.00   43.99570847   0.54543263
3532.00   44.02162552   0.54472786
3534.00   44.95562363   0.54869092
3536.00   44.63208008   0.54468900
3538.00   44.41421890   0.54269427
3540.00   45.02213287   0.54554284
3542.00   44.96640778   0.54451329
3544.00   45.52518845   0.54616076
3546.00   44.17517853   0.53667665
3548.00   44.72077560   0.53736430
3550.00   45.15736771   0.53835011
3552.00   46.24208450   0.54210502
3554.00   45.63140869   0.53745019
3556.00   47.03059769   0.54485208
3558.00   46.74568939   0.53915292
3560.00   46.87946701   0.53696573
3562.00   47.21220016   0.53581780
3564.00   46.77212906   0.53143781
3566.00   46.97293854   0.53019452
3568.00   47.38186264   0.52998674
3570.00   47.72600937   0.52890754
3572.00   48.60682678   0.53288203
3574.00   47.83657837   0.52677679
3576.00   46.96871948   0.51907325
3578.00   46.60850525   0.51482409
3580.00   45.81268692   0.50888252
3582.00   44.83691406   0.50138837
3584.00   43.99374390   0.49319309
3586.00   44.73272324   0.49531808
3588.00   44.48425293   0.49141964
3590.00   44.41371536   0.48923233
3592.00   43.97536469   0.48432884
3594.00   43.32669830   0.47823644
3596.00   42.91114807   0.47434437
3598.00   42.28998566   0.46877795
3600.00   42.26461029   0.46609774
3602.00   42.70043564   0.46587786
3604.00   43.02530289   0.46549797
3606.00   42.45284653   0.46042377
3608.00   43.43006516   0.46373269
3610.00   44.10678864   0.46372813
3612.00   43.59297180   0.46034840
3614.00   43.27442169   0.45608598
3616.00   44.62163544   0.46112284
3618.00   45.99384689   0.46470794
3620.00   47.07634354   0.46820363
3622.00   47.20961761   0.46651000
3624.00   47.52918243   0.46537837
3626.00   47.90853119   0.46444970
3628.00   48.92613983   0.46734411
3630.00   50.83349228   0.47446164
3632.00   51.12798691   0.47431678
3634.00   51.77449799   0.47442320
3636.00   51.02742004   0.46947688
3638.00   50.90675735   0.46694508
3640.00   51.55316925   0.46836695
3642.00   51.52104187   0.46689135
3644.00   51.29934311   0.46376368
3646.00   49.93931961   0.45710212
3648.00   49.56575394   0.45704201
3650.00   49.41973114   0.45626041
3652.00   48.56994629   0.44923213
3654.00   47.81735611   0.44215947
3656.00   46.55775452   0.43375587
3658.00   45.68425751   0.42689261
3660.00   44.78362274   0.42126527
3662.00   43.73691940   0.41640824
3664.00   42.25368881   0.40767965
3666.00   40.97672272   0.39832029
3668.00   39.71506119   0.39054677
3670.00   39.15607071   0.38536584
3672.00   37.49472046   0.37670869
3674.00   36.02487564   0.36840463
3676.00   35.66623688   0.36480269
3678.00   34.00993729   0.35505652
3680.00   33.69089890   0.35180137
3682.00   32.71195221   0.34628773
3684.00   32.35142899   0.34276035
3686.00   32.28871155   0.34006417
3688.00   31.70056534   0.33660230
3690.00   29.97148132   0.32641575
3692.00   30.17909431   0.32614157
3694.00   29.05089569   0.31893998
3696.00   28.93911934   0.31660157
3698.00   28.53780556   0.31389275
3700.00   28.67994118   0.31346691
3702.00   29.14800262   0.31507531
3704.00   27.86590958   0.30759531
3706.00   27.46255112   0.30379680
3708.00   27.03383064   0.30046606
3710.00   27.22501183   0.29969594
3712.00   26.86116982   0.29704592
3714.00   27.11789703   0.29775089
3716.00   26.74811745   0.29470262
3718.00   26.34805679   0.29135397
3720.00   26.69287872   0.29209620
3722.00   26.47107887   0.28989914
3724.00   26.19578743   0.28778458
3726.00   26.51918793   0.28863037
3728.00   26.36432648   0.28772354
3730.00   26.30613899   0.28604692
3732.00   27.28633499   0.29040131
3734.00   26.77242851   0.28615177
3736.00   26.77721786   0.28599378
3738.00   26.29890823   0.28231359
3740.00   26.27183151   0.28213957
3742.00   26.69862747   0.28316814
3744.00   26.43684769   0.28148600
3746.00   26.73721313   0.28142831
3748.00   26.36849403   0.27858722
3750.00   26.21817970   0.27684292
3752.00   25.68366051   0.27405381
3754.00   25.52548599   0.27235147
3756.00   25.34911346   0.27008489
3758.00   25.68822861   0.27103361
3760.00   24.84202576   0.26632813
3762.00   24.42488098   0.26340038
3764.00   24.34117126   0.26218519
3766.00   25.06646156   0.26477847
3768.00   24.39687920   0.26213577
3770.00   24.68535423   0.26271388
3772.00   24.76886177   0.26207101
3774.00   24.94200897   0.26245767
3776.00   24.61920547   0.26002744
3778.00   24.49903107   0.25822887
3780.00   24.33330154   0.25718427
3782.00   24.45283890   0.25721329
3784.00   24.41609383   0.25663176
3786.00   24.70692444   0.25751075
3788.00   24.52722168   0.25631618
3790.00   24.79918289   0.25724825
3792.00   24.91338730   0.25723895
3794.00   25.00882912   0.25684935
3796.00   24.73976135   0.25462943
3798.00   25.23913002   0.25702721
3800.00   24.68082619   0.25393194
3802.00   25.41092110   0.25720230
3804.00   25.91221046   0.25845701
3806.00   26.56127167   0.26051468
3808.00   26.60340118   0.25976533
3810.00   26.93297768   0.26059952
3812.00   27.80531120   0.26435810
3814.00   28.06663132   0.26498976
3816.00   28.56914711   0.26644507
3818.00   29.51274300   0.26995501
3820.00   29.76579475   0.27047831
3822.00   30.49523354   0.27285936
3824.00   31.02746964   0.27419770
3826.00   31.27319336   0.27494609
3828.00   33.10818100   0.28152683
3830.00   33.31347275   0.28173828
3832.00   33.66252518   0.28235951
3834.00   34.69221878   0.28490871
3836.00   35.38598633   0.28702974
3838.00   36.52563095   0.28991088
3840.00   37.10619736   0.29178321
3842.00   37.26002121   0.29159030
3844.00   38.87243652   0.29665035
3846.00   39.79189682   0.29912293
3848.00   40.21956635   0.29968289
3850.00   41.43680191   0.30305317
3852.00   42.62754440   0.30655083
3854.00   43.73464584   0.30977979
3856.00   44.54841232   0.31153935
3858.00   45.53914642   0.31484497
3860.00   46.89799118   0.31865418
3862.00   47.45808792   0.32013333
3864.00   48.47491837   0.32262036
3866.00   50.06245804   0.32725146
3868.00   51.20690918   0.33015046
3870.00   52.69388580   0.33414865
3872.00   53.68273163   0.33676109
3874.00   54.82799530   0.34019250
3876.00   55.07434082   0.33989432
3878.00   56.36730194   0.34316087
3880.00   56.82252884   0.34407210
3882.00   56.93723679   0.34362909
3884.00   57.80056763   0.34589916
3886.00   58.26260757   0.34636670
3888.00   58.66625214   0.34710738
3890.00   59.02539062   0.34732971
3892.00   59.76481247   0.34952903
3894.00   60.07988358   0.34995240
3896.00   60.75304031   0.35098255
3898.00   60.48738861   0.34943926
3900.00   61.97002029   0.35321993
3902.00   62.31042480   0.35386816
3904.00   63.76251602   0.35700771
3906.00   64.80030823   0.36001164
3908.00   64.61234283   0.35883895
3910.00   65.06678009   0.35991859
3912.00   65.16101074   0.35914120
3914.00   65.19982910   0.35836446
3916.00   65.16937256   0.35639894
3918.00   65.48988342   0.35619929
3920.00   65.63183594   0.35595202
3922.00   65.80360413   0.35539177
3924.00   65.39598846   0.35363126
3926.00   66.19684601   0.35490498
3928.00   64.94242859   0.35113737
3930.00   64.77145386   0.34970069
3932.00   61.12638855   0.33987942
3934.00   62.46144867   0.34314245
3936.00   64.49368286   0.34726441
3938.00   64.38944244   0.34646833
3940.00   63.99673080   0.34459460
3942.00   63.50788116   0.34317940
3944.00   63.30929565   0.34194770
3946.00   62.36309052   0.33833107
3948.00   61.78782654   0.33598104
3950.00   61.27648163   0.33441606
3952.00   60.03334045   0.33025435
3954.00   59.66167831   0.32861590
3956.00   59.09265900   0.32676637
3958.00   58.05586243   0.32379690
3960.00   58.07678986   0.32362810
3962.00   57.20403671   0.32077676
3964.00   56.95334244   0.31871951
3966.00   54.91817474   0.31250137
3968.00   53.93682098   0.30967361
3970.00   54.81287766   0.31160176
3972.00   54.64474869   0.31062558
3974.00   53.59678268   0.30707169
3976.00   53.15382385   0.30493438
3978.00   52.38289642   0.30178231
3980.00   51.93639755   0.30028263
3982.00   52.23337936   0.29969615
3984.00   51.29444122   0.29656702
3986.00   51.25787354   0.29611662
3988.00   51.48640442   0.29593605
3990.00   51.76288986   0.29640982
3992.00   51.91762161   0.29655498
3994.00   51.86357117   0.29618526
3996.00   51.71416473   0.29564336
3998.00   51.33257294   0.29399085
4000.00   51.18901062   0.29262963
4002.00   51.32107162   0.29244664
4004.00   52.22942734   0.29419842
4006.00   52.07088852   0.29350388
4008.00   52.25070190   0.29340467
4010.00   52.41529846   0.29306638
4012.00   52.71773529   0.29326880
4014.00   53.38809204   0.29459369
4016.00   53.52563095   0.29437846
4018.00   53.93389511   0.29540575
4020.00   54.38039017   0.29655671
4022.00   55.18989182   0.29841423
4024.00   55.02401352   0.29697478
4026.00   55.70702744   0.29777235
4028.00   56.51955414   0.29879358
4030.00   57.09341812   0.29967687
4032.00   57.98254395   0.30135936
4034.00   58.46252441   0.30198175
4036.00   58.68988800   0.30179879
4038.00   59.01724243   0.30215389
4040.00   59.99981689   0.30375084
4042.00   60.44066620   0.30475745
4044.00   61.17848587   0.30981508
4046.00   61.26059341   0.31204826
4048.00   62.00293732   0.31117222
4050.00   61.97105408   0.30669352
4052.00   62.34817886   0.30607733
4054.00   63.05629730   0.30731618
4056.00   63.34676743   0.30744201
4058.00   64.13889313   0.30846015
4060.00   64.16463470   0.30754784
4062.00   64.44110107   0.30764189
4064.00   65.02838135   0.30845025
4066.00   64.74024963   0.30739030
4068.00   65.08990479   0.30779579
4070.00   65.77313995   0.30886689
4072.00   66.39221954   0.30951327
4074.00   66.12360382   0.30839810
4076.00   66.18267059   0.30845693
4078.00   66.67683411   0.30907553
4080.00   66.35378265   0.30762008
4082.00   67.15071106   0.30861193
4084.00   67.07498169   0.30808616
4086.00   67.59307861   0.30856472
4088.00   68.22079468   0.30902398
4090.00   68.04933167   0.30806443
4092.00   68.51907349   0.30838323
4094.00   68.60707855   0.30805224
4096.00   68.68535614   0.30784014
4098.00   68.60289001   0.30729112
4100.00   68.54077148   0.30657417
4102.00   68.95035553   0.30699024
4104.00   68.42202759   0.30527958
4106.00   68.67974854   0.30507472
4108.00   68.61993408   0.30461004
4110.00   68.77996063   0.30429298
4112.00   68.65274811   0.30340350
4114.00   68.61027527   0.30272490
4116.00   69.20310974   0.30328253
4118.00   69.27776337   0.30264360
4120.00   68.75888062   0.30107820
4122.00   69.02392578   0.30121630
4124.00   69.07355499   0.30062723
4126.00   68.52101898   0.29894811
4128.00   68.45057678   0.29803956
4130.00   67.28801727   0.29527020
4132.00   66.88657379   0.29411510
4134.00   66.16389465   0.29181418
4136.00   65.98635101   0.29078716
4138.00   65.48853302   0.28915346
4140.00   65.37254333   0.28827405
4142.00   64.83429718   0.28650197
4144.00   64.79636383   0.28558418
4146.00   64.19825745   0.28365457
4148.00   64.44789124   0.28329551
4150.00   64.01007080   0.28239018
4152.00   64.02530670   0.28183535
4154.00   63.55842209   0.28042355
4156.00   63.88720322   0.28023928
4158.00   63.21912384   0.27841339
4160.00   63.28559494   0.27793247
4162.00   62.88590622   0.27696618
4164.00   62.64887238   0.27621543
4166.00   62.22671509   0.27467245
4168.00   61.80704117   0.27309018
4170.00   61.68519592   0.27214569
4172.00   61.74958420   0.27207327
4174.00   61.33536148   0.27080727
4176.00   61.66419220   0.27112582
4178.00   61.88543320   0.27126816
4180.00   62.01465988   0.27109745
4182.00   61.68859100   0.26990438
4184.00   61.29658508   0.26851806
4186.00   61.58950043   0.26876464
4188.00   61.78331757   0.26879689
4190.00   61.45541382   0.26765868
4192.00   61.01180267   0.26618803
4194.00   60.94651794   0.26561224
4196.00   59.86964417   0.26300967
4198.00   59.20225143   0.26124284
4200.00   59.18417358   0.26074290
4202.00   58.08508301   0.25821882
4204.00   57.74118042   0.25699607
4206.00   56.94657898   0.25506419
4208.00   56.25788116   0.25293902
4210.00   55.63191986   0.25128219
4212.00   54.80399323   0.24900925
4214.00   54.27094650   0.24730244
4216.00   53.79225159   0.24598134
4218.00   53.09126663   0.24377851
4220.00   52.65143204   0.24256085
4222.00   51.87742233   0.24058416
4224.00   51.97237778   0.24027692
4226.00   51.20948792   0.23804091
4228.00   50.62224579   0.23647720
4230.00   50.11008072   0.23479825
4232.00   50.03291321   0.23436373
4234.00   49.50696182   0.23266469
4236.00   49.42712021   0.23251420
4238.00   49.00806808   0.23114441
4240.00   48.23644638   0.22876751
4242.00   47.51155853   0.22651801
4244.00   46.83702850   0.22488238
4246.00   46.71863937   0.22477423
4248.00   46.20869827   0.22310051
4250.00   46.09645844   0.22175467
4252.00   45.10518646   0.21926320
4254.00   44.57621765   0.21772143
4256.00   43.77461243   0.21553363
4258.00   43.50421524   0.21459308
4260.00   42.30171204   0.21149425
4262.00   41.91700745   0.21003938
4264.00   41.41615677   0.20870660
4266.00   40.24191284   0.20520316
4268.00   39.75445175   0.20388222
4270.00   38.71544647   0.20117486
4272.00   37.84777069   0.19864997
4274.00   37.50294495   0.19756377
4276.00   37.14380646   0.19625770
4278.00   36.65250778   0.19500196
4280.00   36.42163467   0.19417217
4282.00   35.84455872   0.19258745
4284.00   35.21010971   0.19087398
4286.00   35.71100998   0.19157484
4288.00   35.32416153   0.19038810
4290.00   34.92881012   0.18898696
4292.00   34.99724197   0.18907145
4294.00   34.75885773   0.18837152
4296.00   34.79547119   0.18843417
4298.00   35.14408493   0.18916440
4300.00   34.47353745   0.18714635
4302.00   34.33109283   0.18667321
4304.00   34.24618149   0.18634741
4306.00   34.14436722   0.18567571
4308.00   34.47627640   0.18654642
4310.00   34.28548050   0.18593612
4312.00   34.66995239   0.18703501
4314.00   34.67941666   0.18694150
4316.00   35.21242523   0.18766980
4318.00   34.94833755   0.18694216
4320.00   35.28969955   0.18773292
4322.00   35.68713760   0.18829645
4324.00   35.56070328   0.18767031
4326.00   36.14679337   0.18889359
4328.00   36.88727951   0.19023088
4330.00   36.83882904   0.19047229
4332.00   37.26969528   0.19109985
4334.00   37.51966476   0.19165868
4336.00   37.80945587   0.19250922
4338.00   38.09172821   0.19301043
4340.00   37.96904373   0.19252039
4342.00   38.26928711   0.19289027
4344.00   38.15310669   0.19247122
4346.00   38.09732056   0.19240701
4348.00   38.06923676   0.19229558
4350.00   37.71396255   0.19114897
4352.00   36.93190002   0.18907146
4354.00   36.96739578   0.19004317
4356.00   36.64506531   0.19529144
4358.00   36.87828064   0.19898523
4360.00   36.95800018   0.19567129
4362.00   37.18325424   0.19081336
4364.00   37.25462341   0.18907833
4366.00   37.57820892   0.18938938
4368.00   37.51153183   0.18888408
4370.00   38.24092865   0.19039762
4372.00   38.51923752   0.19101240
4374.00   38.54565430   0.19125095
4376.00   38.84816360   0.19154274
4378.00   39.16692352   0.19205935
4380.00   39.47806549   0.19259781
4382.00   39.70841217   0.19283655
4384.00   39.78034210   0.19294269
4386.00   40.08383942   0.19349054
4388.00   40.57199097   0.19441858
4390.00   40.73551178   0.19461709
4392.00   41.06054306   0.19512084
4394.00   41.21757507   0.19529830
4396.00   41.85769653   0.19652566
4398.00   41.92317200   0.19671188
4400.00   42.28581619   0.19732007
4402.00   41.66733932   0.19572194
4404.00   41.89771271   0.19599730
4406.00   41.71450424   0.19544074
4408.00   41.60904312   0.19501291
4410.00   41.55065155   0.19502161
4412.00   40.79327774   0.19323538
4414.00   40.76211929   0.19294202
4416.00   40.61920929   0.19248642
4418.00   40.09235382   0.19121148
4420.00   40.23815155   0.19122213
4422.00   39.98627472   0.19035408
4424.00   39.87554169   0.19008015
4426.00   39.64937210   0.18942478
4428.00   39.49404907   0.18893515
4430.00   39.69688034   0.18938322
4432.00   39.43497849   0.18874818
4434.00   39.66749191   0.18908116
4436.00   39.62281418   0.18898006
4438.00   39.90501022   0.18953691
4440.00   39.67137146   0.18893744
4442.00   39.77767563   0.18920332
4444.00   39.56731415   0.18860923
4446.00   39.62585068   0.18863989
4448.00   39.99337769   0.18922645
4450.00   40.39617157   0.19004980
4452.00   40.05379868   0.18937263
4454.00   40.89256287   0.19103901
4456.00   41.27325439   0.19192788
4458.00   41.47126389   0.19215102
4460.00   42.10885620   0.19346988
4462.00   42.67718124   0.19459726
4464.00   43.42341995   0.19628009
4466.00   43.78385925   0.19702064
4468.00   44.53023529   0.19843316
4470.00   45.09392548   0.19951345
4472.00   46.14760590   0.20153268
4474.00   46.57121277   0.20219877
4476.00   47.11341858   0.20319213
4478.00   47.97085190   0.20494531
4480.00   48.24704742   0.20532359
4482.00   49.03546524   0.20683104
4484.00   49.50428772   0.20780391
4486.00   49.75905228   0.20821097
4488.00   50.70020294   0.20996176
4490.00   50.97329330   0.21035662
4492.00   51.30885696   0.21119079
4494.00   51.46039581   0.21148337
4496.00   51.79958344   0.21207540
4498.00   52.70523834   0.21369898
4500.00   52.80680084   0.21377210
4502.00   52.92593002   0.21386419
4504.00   53.18705368   0.21439923
4506.00   53.87641907   0.21556589
4508.00   53.70802689   0.21529476
4510.00   53.60908890   0.21495837
4512.00   54.24233627   0.21600021
4514.00   54.34492111   0.21629998
4516.00   54.36208344   0.21622753
4518.00   55.02433777   0.21741420
4520.00   55.31291962   0.21796344
4522.00   55.36511993   0.21814781
4524.00   55.08147049   0.21758692
4526.00   55.75283432   0.21878064
4528.00   55.28755569   0.21775414
4530.00   55.18917847   0.21754411
4532.00   55.25945663   0.21740779
4534.00   55.04731750   0.21699826
4536.00   55.13431168   0.21719000
4538.00   54.94181824   0.21671176
4540.00   54.72408676   0.21608889
4542.00   54.70143890   0.21596566
4544.00   54.84711456   0.21607769
4546.00   54.58956528   0.21524127
4548.00   54.07837677   0.21402027
4550.00   53.78576279   0.21329758
4552.00   53.82369995   0.21348406
4554.00   53.62815475   0.21288480
4556.00   53.64475250   0.21281955
4558.00   53.45977783   0.21240005
4560.00   52.71008682   0.21083128
4562.00   52.93577576   0.21103975
4564.00   52.82312393   0.21062411
4566.00   53.45491028   0.21178584
4568.00   53.23133850   0.21125220
4570.00   53.20752335   0.21122336
4572.00   53.01572418   0.21071677
4574.00   53.24835968   0.21114783
4576.00   52.88708115   0.21038795
4578.00   53.17110443   0.21079457
4580.00   53.04401016   0.21036759
4582.00   53.04744339   0.21032515
4584.00   53.14458847   0.21048725
4586.00   53.50821686   0.21105057
4588.00   53.16856003   0.21039158
4590.00   52.94421005   0.20992613
4592.00   52.72668839   0.20952500
4594.00   52.39821243   0.20874129
4596.00   52.13601685   0.20825227
4598.00   52.13105392   0.20806774
4600.00   51.95963669   0.20760056
4602.00   51.67619705   0.20696317
4604.00   51.39344406   0.20637943
4606.00   51.24428558   0.20607634
4608.00   50.94783783   0.20539685
4610.00   50.16313934   0.20367111
4612.00   50.52492142   0.20422614
4614.00   50.07944107   0.20331264
4616.00   49.69163132   0.20238107
4618.00   49.27630234   0.20152462
4620.00   48.72167969   0.20041427
4622.00   48.65075302   0.20018420
4624.00   47.88724136   0.19855790
4626.00   47.29921341   0.19728558
4628.00   47.09674072   0.19685863
4630.00   45.96635818   0.19457421
4632.00   45.89777756   0.19431783
4634.00   45.21963120   0.19278164
4636.00   44.99966812   0.19232312
4638.00   44.37176514   0.19088981
4640.00   44.13800430   0.19040969
4642.00   43.56131744   0.18910338
4644.00   43.17041779   0.18813036
4646.00   42.90176010   0.18739720
4648.00   42.51209259   0.18637308
4650.00   41.98118973   0.18537214
4652.00   41.87030792   0.18491045
4654.00   41.62198639   0.18443176
4656.00   41.77155304   0.18458386
4658.00   41.21028900   0.18339676
4660.00   40.62870026   0.18211986
4662.00   40.69569397   0.18215020
4664.00   40.62795258   0.18196391
4666.00   40.04450989   0.18080534
4668.00   40.25355148   0.18122779
4670.00   40.08877945   0.18077992
4672.00   40.15153885   0.18083647
4674.00   40.11877823   0.18060693
4676.00   40.13369751   0.18053575
4678.00   40.00105667   0.18013181
4680.00   39.57138062   0.17928095
4682.00   39.82118225   0.17964509
4684.00   39.99347305   0.17988899
4686.00   39.90109634   0.17976522
4688.00   39.83019638   0.17950955
4690.00   39.53767395   0.17863360
4692.00   39.63773346   0.17882362
4694.00   39.62374878   0.17882556
4696.00   39.14764786   0.17770082
4698.00   39.31379318   0.17792410
4700.00   38.92664719   0.17715654
4702.00   38.82736969   0.17673592
4704.00   38.71624374   0.17661712
4706.00   38.43536758   0.17590703
4708.00   38.50193405   0.17606062
4710.00   38.66824341   0.17647791
4712.00   37.95608139   0.17463396
4714.00   38.08818054   0.17484213
4716.00   38.40371323   0.17536891
4718.00   37.94915009   0.17447211
4720.00   38.16051102   0.17469171
4722.00   37.81241608   0.17378294
4724.00   37.63457108   0.17328605
4726.00   37.51041412   0.17305796
4728.00   37.37990570   0.17292319
4730.00   37.22146988   0.17257401
4732.00   37.37365723   0.17277262
4734.00   36.63442230   0.17126603
4736.00   36.54826355   0.17103076
4738.00   36.45239258   0.17106248
4740.00   36.09070206   0.17041853
4742.00   36.01222610   0.17031446
4744.00   35.82773972   0.16955462
4746.00   35.65058517   0.16871798
4748.00   35.21240616   0.16754790
4750.00   35.29751587   0.16774410
4752.00   35.16014481   0.16735522
4754.00   34.93076324   0.16680880
4756.00   34.62126160   0.16593480
4758.00   34.52405930   0.16561005
4760.00   34.63086700   0.16585004
4762.00   34.42733002   0.16541915
4764.00   34.29657364   0.16486630
4766.00   34.19068527   0.16470046
4768.00   33.93714905   0.16410513
4770.00   34.44427490   0.16509362
4772.00   34.52556229   0.16508165
4774.00   34.17633057   0.16431502
4776.00   34.58101654   0.16528738
4778.00   34.52680588   0.16501650
4780.00   34.49263382   0.16483481
4782.00   34.63456726   0.16485250
4784.00   34.73158646   0.16509590
4786.00   34.34129715   0.16394919
4788.00   34.22546768   0.16351646
4790.00   33.91869354   0.16271016
4792.00   33.66454697   0.16209303
4794.00   33.71593857   0.16199094
4796.00   33.48130798   0.16133705
4798.00   33.11199188   0.16037454
4800.00   33.11886597   0.16018549
4802.00   32.59541702   0.15890358
4804.00   32.62220001   0.15885834
4806.00   32.24267197   0.15787284
4808.00   31.47430801   0.15594293
4810.00   31.23740387   0.15536533
4812.00   31.17753983   0.15505718
4814.00   30.45907211   0.15336557
4816.00   30.18736649   0.15262769
4818.00   29.90812683   0.15175705
4820.00   29.49497032   0.15085916
4822.00   28.87255859   0.14918122
4824.00   28.83643150   0.14901245
4826.00   28.52619743   0.14808205
4828.00   27.97799873   0.14677022
4830.00   27.60495949   0.14582711
4832.00   27.17712593   0.14470625
4834.00   27.16563416   0.14434755
4836.00   26.49801064   0.14924915
4838.00   26.62066460   0.14322785
4840.00   25.90455055   0.14142907
4842.00   25.96175957   0.14140707
4844.00   25.67091942   0.14038129
4846.00   25.40893936   0.13963009
4848.00   25.14088821   0.13901344
4850.00   25.15902138   0.13894731
4852.00   25.13839149   0.13893622
4854.00   24.98614120   0.13840115
4856.00   24.77085495   0.13765243
4858.00   24.71845436   0.13747308
4860.00   24.64990044   0.13728653
4862.00   24.62847519   0.13716435
4864.00   24.55472755   0.13691275
4866.00   24.82091141   0.13763365
4868.00   24.64514542   0.13703884
4870.00   24.65730858   0.13706711
4872.00   24.77104759   0.13724314
4874.00   24.92670441   0.13751081
4876.00   25.17886353   0.13787529
4878.00   25.26372910   0.13809307
4880.00   25.51868439   0.13870342
4882.00   25.93294907   0.13963699
4884.00   25.87338829   0.13942279
4886.00   26.27149010   0.14023408
4888.00   26.65274239   0.14113246
4890.00   27.01914978   0.14190067
4892.00   27.29007149   0.14250050
4894.00   27.52988625   0.14299810
4896.00   27.56827736   0.14309929
4898.00   27.61799049   0.14310071
4900.00   27.78429413   0.14336403
4902.00   28.45338249   0.14486009
4904.00   28.65991592   0.14524618
4906.00   28.46677017   0.14465001
4908.00   28.32374763   0.14426972
4910.00   28.52078438   0.14458206
4912.00   28.81579781   0.14511177
4914.00   28.58038139   0.14445136
4916.00   28.93888283   0.14537194
4918.00   28.95130539   0.14528589
4920.00   28.59135818   0.14434893
4922.00   28.52051735   0.14392781
4924.00   28.27452469   0.14338237
4926.00   28.43257713   0.14363521
4928.00   28.38747597   0.14336452
4930.00   27.99524689   0.14234225
4932.00   28.08559990   0.14242330
4934.00   28.16839409   0.14255214
4936.00   27.91516113   0.14199795
4938.00   27.83288956   0.14153384
4940.00   27.66870689   0.14104728
4942.00   27.54192352   0.14076123
4944.00   27.27124405   0.14012465
4946.00   27.38337708   0.14032048
4948.00   27.53265953   0.14060749
4950.00   27.60031891   0.14093700
4952.00   27.62637901   0.14103682
4954.00   27.59722137   0.14100581
4956.00   27.68182945   0.14113879
4958.00   27.61088371   0.14078701
4960.00   27.89171600   0.14141931
4962.00   27.63094139   0.14085485
4964.00   27.56220436   0.14086045
4966.00   27.69935608   0.14104038
4968.00   27.88406944   0.14161603
4970.00   27.92987442   0.14179246
4972.00   27.74917221   0.14158249
4974.00   27.47964668   0.14100188
4976.00   27.91843224   0.14196528
4978.00   27.74295807   0.14182246
4980.00   28.08120728   0.14295262
4982.00   27.80654144   0.14241470
4984.00   28.02340698   0.14283065
4986.00   28.02800369   0.14260688
4988.00   27.91511726   0.14232345
4990.00   27.94363594   0.14221637
4992.00   27.95599174   0.14206563
4994.00   27.87237740   0.14175220
4996.00   28.14303207   0.14218548
4998.00   28.08809280   0.14197883
5000.00   28.24354172   0.14231114
5002.00   28.37222099   0.14252326
5004.00   28.55595970   0.14278933
5006.00   28.22838974   0.14204629
5008.00   28.05853653   0.14170894
5010.00   28.45570374   0.14266926
5012.00   28.51990700   0.14292881
5014.00   28.66707993   0.14332138
5016.00   28.79064178   0.14367151
5018.00   28.81848907   0.14376737
5020.00   28.86952019   0.14390160
5022.00   29.02928352   0.14424612
5024.00   29.11009216   0.14449619
5026.00   29.15280151   0.14450975
5028.00   29.29529381   0.14488603
5030.00   29.01699066   0.14432138
5032.00   29.84422684   0.14631139
5034.00   29.70091248   0.14583826
5036.00   29.79831314   0.14603542
5038.00   30.08202553   0.14661570
5040.00   29.99136353   0.14663292
5042.00   30.06419945   0.14684042
5044.00   30.52388000   0.14809880
5046.00   30.99584770   0.14928493
5048.00   30.73611259   0.14867446
5050.00   31.33629417   0.15011606
5052.00   31.48278618   0.15051636
5054.00   31.83687973   0.15122223
5056.00   31.68674278   0.15110260
5058.00   31.98593140   0.15166433
5060.00   32.57392502   0.15316562
5062.00   32.47385406   0.15307991
5064.00   32.94997787   0.15427341
5066.00   33.09075928   0.15466873
5068.00   33.40184021   0.15558587
5070.00   33.53960800   0.15592575
5072.00   33.71446609   0.15647158
5074.00   34.00035095   0.15701059
5076.00   34.08401871   0.15728547
5078.00   34.41578293   0.15819415
5080.00   34.53472137   0.15898901
5082.00   34.76715851   0.15978518
5084.00   35.02369690   0.16059282
5086.00   35.02650070   0.16071694
5088.00   35.41628647   0.16138430
5090.00   35.59592438   0.16146643
5092.00   35.89127731   0.16192247
5094.00   36.00748062   0.16214353
5096.00   36.05977631   0.16235419
5098.00   36.33055878   0.16323231
5100.00   36.65225601   0.16383432
5102.00   36.79593277   0.16424464
5104.00   36.87729263   0.16437270
5106.00   36.83938217   0.16419630
5108.00   36.92895126   0.16443956
5110.00   37.07869339   0.16494051
5112.00   37.51551056   0.16597323
5114.00   37.50553894   0.16613130
5116.00   37.43747711   0.16604991
5118.00   37.81401062   0.16693585
5120.00   37.55558395   0.16638903
5122.00   37.76179504   0.16695583
5124.00   37.50569534   0.16642189
5126.00   37.28474426   0.16613692
5128.00   37.40486908   0.16629098
5130.00   37.39061737   0.16651456
5132.00   37.54661942   0.16707298
5134.00   37.52088547   0.16703998
5136.00   37.41182709   0.16703829
5138.00   37.41312408   0.16721372
5140.00   37.16012573   0.16689155
5142.00   36.76511765   0.16612467
5144.00   36.60134506   0.16593227
5146.00   36.64499664   0.16617461
5148.00   36.55416870   0.16623187
5150.00   36.23646927   0.16589414
5152.00   36.27407074   0.16638263
5154.00   36.21609879   0.16656037
5156.00   36.31153107   0.16678202
5158.00   36.19485474   0.16667245
5160.00   36.26832962   0.16693327
5162.00   36.21126175   0.16699184
5164.00   35.99580765   0.16673572
5166.00   36.23924637   0.16738909
5168.00   35.91218948   0.16692653
5170.00   36.14204788   0.16765165
5172.00   36.41156769   0.16845453
5174.00   36.25455856   0.16850746
5176.00   36.28997040   0.16873854
5178.00   36.42077637   0.16940978
5180.00   36.52501678   0.16988954
5182.00   36.70909500   0.17063990
5184.00   36.90536118   0.17126606
5186.00   36.53668976   0.17067295
5188.00   36.90108871   0.17184070
5190.00   37.23617935   0.17274810
5192.00   37.30276871   0.17302005
5194.00   37.32555389   0.17330314
5196.00   37.69879150   0.17434999
5198.00   37.61812210   0.17461975
5200.00   37.57813263   0.17489447
5202.00   37.44968414   0.17483687
5204.00   37.29182816   0.17482702
5206.00   37.25460434   0.17484266
5208.00   36.79628372   0.17420880
5210.00   36.61825180   0.17423004
5212.00   36.56844711   0.17421266
5214.00   36.51639175   0.17453431
5216.00   36.14667892   0.17412521
5218.00   35.55133820   0.17293271
5220.00   35.18978500   0.17247841
5222.00   34.65983582   0.17132857
5224.00   34.07782364   0.17038509
5226.00   33.70693970   0.16956848
5228.00   33.23559189   0.16857727
5230.00   32.78302383   0.16776057
5232.00   32.06472397   0.16628461
5234.00   31.34127998   0.16482042
5236.00   31.16569710   0.16474681
5238.00   30.91845512   0.16438004
5240.00   30.13810921   0.16264725
5242.00   29.47794151   0.16138043
5244.00   28.86017609   0.16025946
5246.00   28.74500084   0.16006556
5248.00   28.39110374   0.15933251
5250.00   27.98639679   0.15842277
5252.00   27.72888756   0.15831690
5254.00   27.34227943   0.15760399
5256.00   26.83035469   0.15658331
5258.00   26.43347359   0.15582526
5260.00   26.30530548   0.15582393
5262.00   25.79206848   0.15463483
5264.00   25.51599693   0.15412705
5266.00   25.38553238   0.15399393
5268.00   25.19614792   0.15372998
5270.00   25.11054039   0.15394613
5272.00   25.06221581   0.15405278
5274.00   25.02353096   0.15439910
5276.00   24.46306229   0.15305071
5278.00   24.67037392   0.15395965
5280.00   24.52672195   0.15371233
5282.00   24.12832260   0.15289360
5284.00   24.24230766   0.15353231
5286.00   24.36229134   0.15415086
5288.00   24.03182030   0.15320133
5290.00   24.22174835   0.15414371
5292.00   24.17955208   0.15433031
5294.00   23.97637177   0.15409324
5296.00   23.87488556   0.15416603
5298.00   23.95199776   0.15483522
5300.00   24.30223656   0.15646778
5302.00   24.05707741   0.15608682
5304.00   24.16385078   0.15667053
5306.00   24.36180305   0.15774830
5308.00   24.61048889   0.15915343
5310.00   24.50671196   0.15939173
5312.00   24.82331085   0.16065452
5314.00   24.64198303   0.16045971
5316.00   24.73677444   0.16143590
5318.00   24.56645966   0.16128254
5320.00   24.90224266   0.16269657
5322.00   25.14064407   0.16396397
5324.00   24.99678421   0.16398515
5326.00   25.29759216   0.16523719
5328.00   25.09916496   0.16522606
5330.00   25.28822136   0.16620481
5332.00   25.36292076   0.16724463
5334.00   25.67117119   0.16845445
5336.00   25.78700447   0.16928037
5338.00   25.53275299   0.16912298
5340.00   25.37315178   0.16906290
5342.00   26.01765633   0.17164531
5344.00   25.90140343   0.17246334
5346.00   25.93325043   0.17239109
5348.00   26.22833633   0.17354791
5350.00   26.26682663   0.17418173
5352.00   26.29581070   0.17472495
5354.00   26.77145386   0.17656465
5356.00   27.04000854   0.17787030
5358.00   27.03265762   0.17835665
5360.00   27.04403114   0.17872725
5362.00   26.97479630   0.17897493
5364.00   27.22021103   0.18012910
5366.00   27.52778625   0.18175574
5368.00   27.43403244   0.18159978
5370.00   28.00413895   0.18354341
5372.00   27.48490906   0.18268695
5374.00   27.82026672   0.18427871
5376.00   27.92400169   0.18514599
5378.00   27.27167130   0.09370362
5380.00   27.51365471   0.09601362
5382.00   27.39247704   0.09380097
5384.00   27.19635773   0.09106615
5386.00   27.21623993   0.09102234
5388.00   27.38959503   0.09031778
5390.00   27.12060738   0.09406793
5392.00   26.84784508   0.09367832
5394.00   26.79451180   0.09010403
5396.00   26.76558304   0.08793452
5398.00   26.48542786   0.08969162
5400.00   26.05634880   0.09206897
5402.00   26.08273697   0.08895548
5404.00   26.05289268   0.08995775
5406.00   25.91888046   0.08676072
5408.00   26.02149010   0.09535986
5410.00   25.88547134   0.10097463
5412.00   25.47310257   0.09303802
5414.00   25.48632050   0.08450834
5416.00   25.45148087   0.08829023
5418.00   25.20041275   0.08935545
5420.00   24.60892487   0.08813416
5422.00   24.21453285   0.08825146
5424.00   24.31724739   0.08820625
5426.00   24.44111061   0.08824196
5428.00   23.93744278   0.09083878
5430.00   23.71026993   0.08273759
5432.00   23.68957329   0.07899781
5434.00   23.26540184   0.08653533
5436.00   22.62407303   0.09615552
5438.00   22.23453522   0.09942506
5440.00   22.08998871   0.10019150
5442.00   21.69846153   0.10777719
5444.00   21.37817192   0.10642637
5446.00   22.12526131   0.09554892
5448.00   22.37664032   0.09012496
5450.00   22.21425056   0.08396573
5452.00   21.86762810   0.07618863
5454.00   21.63551331   0.07328425
5456.00   21.91248322   0.07460934
5458.00   21.57762718   0.07515923
5460.00   21.46071815   0.08075036
5462.00   21.15115356   0.09034193
5464.00   21.15202141   0.08357166
5466.00   21.33104134   0.07152833
5468.00   21.36549187   0.07804283
5470.00   21.61111832   0.08445682
5472.00   21.48753929   0.07533841
5474.00   20.94684792   0.08249675
5476.00   21.10737991   0.09510157
5478.00   21.71690178   0.08775561
5480.00   22.28415871   0.07379506
5482.00   22.66957283   0.08249759
5484.00   22.92111206   0.08792855
5486.00   23.07424927   0.08247290
5488.00   23.55046272   0.09182640
5490.00   23.53528595   0.08581687
5492.00   23.60740662   0.07829788
5494.00   24.17815208   0.08128369
5496.00   24.84790802   0.08304025
5498.00   25.08862114   0.07427479
5500.00   24.89999008   0.07373455
5502.00   25.23227882   0.07833739
5504.00   25.80897141   0.07842017
5506.00   26.01080132   0.08235676
5508.00   26.00393295   0.08947459
5510.00   26.43668556   0.08953463
5512.00   27.14331818   0.08257731
5514.00   27.49992943   0.08420289
5516.00   27.57934761   0.08015992
5518.00   27.77571106   0.08018557
5520.00   28.20600319   0.08142865
5522.00   28.54804611   0.07976905
5524.00   28.55165863   0.08130556
5526.00   28.67988586   0.09585400
5528.00   28.41637421   0.10140789
5530.00   28.70019531   0.09149398
5532.00   29.44095993   0.08345824
5534.00   29.50134277   0.08866972
5536.00   29.19655800   0.09481725
5538.00   29.80941582   0.08781897
5540.00   29.93995667   0.08157594
5542.00   29.57733536   0.09220581
5544.00   30.47102356   0.09631363
5546.00   30.87833023   0.09166961
5548.00   30.56748199   0.09071153
5550.00   30.50536537   0.09621498
5552.00   30.96503067   0.09677117
5554.00   30.54042053   0.09731404
5556.00   31.94305611   0.11906429
5558.00   31.72801971   0.09896170
5560.00   31.23650169   0.08674195
5562.00   31.39543915   0.09343053
5564.00   31.78747940   0.09134062
5566.00   31.72919273   0.07881093
5568.00   31.58545113   0.07794308
5570.00   31.73232269   0.08370650
5572.00   31.70735359   0.08216444
5574.00   31.62010574   0.08603188
5576.00   31.54148674   0.08831964
5578.00   31.42105865   0.08228371
5580.00   31.22855377   0.07926804
5582.00   31.02848816   0.07740133
5584.00   30.93412781   0.08363185
5586.00   30.99055862   0.07850918
5588.00   31.15620232   0.07415055
5590.00   31.22059059   0.07904881
5592.00   31.08467674   0.08532079
5594.00   30.97838593   0.08299755
5596.00   31.24676132   0.07492634
5598.00   31.39937401   0.07624466
5600.00   31.62661743   0.07728379
5602.00   31.55263519   0.07680754
5604.00   31.41274071   0.07545574
5606.00   31.50270844   0.07380834
5608.00   31.40409279   0.07295042
5610.00   31.21113396   0.07259900
5612.00   31.40648651   0.07287534
5614.00   31.50212669   0.07227883
5616.00   31.43222046   0.07207459
5618.00   31.35613060   0.07931428
5620.00   31.41885376   0.09133480
5622.00   31.63278008   0.09217601
5624.00   32.00673676   0.07280615
5626.00   31.37914085   0.07461439
5628.00   31.15228081   0.08010388
5630.00   31.54417229   0.07717428
5632.00   31.84908867   0.07136618
5634.00   31.72520256   0.07274781
5636.00   31.93248558   0.07511263
5638.00   31.97641945   0.08105785
5640.00   31.96706009   0.08681253
5642.00   31.78364563   0.08616715
5644.00   31.59351158   0.07728089
5646.00   31.52637863   0.06894523
5648.00   31.47123337   0.07094419
5650.00   31.23532867   0.07144970
5652.00   31.27291489   0.07170603
5654.00   31.64043427   0.07091332
5656.00   31.76218796   0.07060851
5658.00   31.57813072   0.07074355
5660.00   31.51476288   0.07093601
5662.00   31.80125809   0.07110390
5664.00   31.87467194   0.07076810
5666.00   31.76119232   0.07072752
5668.00   31.80717278   0.07086802
5670.00   31.86080933   0.07103229
5672.00   31.70435524   0.07051981
5674.00   31.36528587   0.07009413
5676.00   31.01274300   0.07547254
5678.00   30.56703186   0.09353415
5680.00   30.54867935   0.08760682
5682.00   30.75110054   0.07349741
5684.00   30.74868202   0.07435670
5686.00   30.72088623   0.08150909
5688.00   30.75992775   0.07997654
5690.00   30.63257408   0.07235122
5692.00   30.57336998   0.06968720
5694.00   30.80275917   0.06984449
5696.00   30.31683731   0.06881656
5698.00   30.05838585   0.06904527
5700.00   30.18450737   0.07028057
5702.00   30.27758598   0.07072847
5704.00   30.20322037   0.06995254
5706.00   30.19952202   0.06842645
5708.00   29.99922943   0.06848328
5710.00   29.48328781   0.06899700
5712.00   29.43225479   0.06749077
5714.00   29.34038925   0.07430030
5716.00   28.97800064   0.08765566
5718.00   29.17791176   0.09030841
5720.00   29.01022911   0.07379625
5722.00   28.71652222   0.06431877
5724.00   29.01534081   0.08156138
5726.00   28.99765396   0.08676593
5728.00   28.60004234   0.07576679
5730.00   28.35582924   0.06478757
5732.00   28.30007744   0.06435993
5734.00   28.14437675   0.06434315
5736.00   27.94383430   0.06545494
5738.00   27.45453453   0.07264008
5740.00   27.35945129   0.07275785
5742.00   27.63351440   0.06658935
5744.00   27.71167374   0.06318356
5746.00   27.43572235   0.06422669
5748.00   27.07512093   0.07400841
5750.00   27.30122185   0.06806497
5752.00   27.65229797   0.06513946
5754.00   27.35847664   0.06567733
5756.00   26.92261124   0.06507893
5758.00   27.06896400   0.06311443
5760.00   27.18700790   0.06295441
5762.00   27.00330544   0.06249638
5764.00   26.53752327   0.06235854
5766.00   26.66229630   0.07291322
5768.00   26.71795273   0.07280622
5770.00   26.48675537   0.06347056
5772.00   26.48104668   0.06198290
5774.00   26.78418541   0.06261991
5776.00   26.42131424   0.06178689
5778.00   26.56638336   0.06307229
5780.00   26.54051018   0.06847657
5782.00   26.32907486   0.07012172
5784.00   26.43383789   0.07302362
5786.00   26.84305573   0.08098286
5788.00   26.51966476   0.07649259
5790.00   26.40711403   0.06514454
5792.00   26.51114845   0.06506977
5794.00   26.43778801   0.06402963
5796.00   26.66985703   0.06943273
5798.00   26.97422028   0.07535311
5800.00   26.73405838   0.06902169
5802.00   26.71677971   0.06160802
5804.00   27.03014183   0.06313910
5806.00   27.35657310   0.07358855
5808.00   27.24620438   0.07175255
5810.00   27.13559914   0.06569765
5812.00   27.42556190   0.06449497
5814.00   27.81904602   0.06330693
5816.00   27.68862915   0.06185402
5818.00   27.48122215   0.06355096
5820.00   27.79013062   0.07631142
5822.00   28.25281143   0.07959726
5824.00   28.41266632   0.07157105
5826.00   28.28972435   0.06261096
5828.00   28.29180908   0.06401660
5830.00   28.52638245   0.06791890
5832.00   28.45342255   0.06742007
5834.00   28.54300117   0.06445764
5836.00   28.39137840   0.06305569
5838.00   28.40550995   0.06348418
5840.00   28.74554634   0.06480552
5842.00   28.84261322   0.06656674
5844.00   28.73762131   0.06507177
5846.00   28.71369553   0.06615601
5848.00   28.80872536   0.06730416
5850.00   29.14507675   0.07464947
5852.00   29.17205238   0.07371485
5854.00   28.81685448   0.06229886
5856.00   28.79888725   0.06408660
5858.00   28.76997948   0.07078531
5860.00   28.43782616   0.07525145
5862.00   28.63512421   0.06761283
5864.00   28.80348587   0.06418504
5866.00   28.85927582   0.06819224
5868.00   28.91932487   0.07278737
5870.00   28.75793648   0.07739479
5872.00   28.60045624   0.07371210
5874.00   28.19072151   0.07451295
5876.00   28.57415771   0.06916229
5878.00   28.76103592   0.06557521
5880.00   28.45175934   0.06517179
5882.00   28.13837624   0.06598493
5884.00   27.95313454   0.07268674
5886.00   27.29972458   0.08108695
5888.00   27.00641441   0.06917740
5890.00   27.06479073   0.06964429
5892.00   27.19366264   0.08293446
5894.00   27.23835182   0.09014198
5896.00   27.28409576   0.08591311
5898.00   27.48662567   0.08184443
5900.00   27.86597061   0.06947489
5902.00   28.04243088   0.07326460
5904.00   28.46918106   0.06649125
5906.00   28.64222527   0.06566770
5908.00   28.50187683   0.07776118
5910.00   28.53392792   0.08331980
5912.00   28.84797096   0.06912951
5914.00   28.48257637   0.08074518
5916.00   28.36843681   0.07638478
5918.00   28.22264671   0.06439605
5920.00   28.17281532   0.05934753
5922.00   28.29204178   0.06362154
5924.00   28.48029518   0.06614716
5926.00   28.70560074   0.06412303
5928.00   28.95745850   0.06076610
5930.00   29.23214149   0.06372222
5932.00   29.47403145   0.06825739
5934.00   29.43813896   0.06698515
5936.00   29.23958778   0.06272139
5938.00   29.08959389   0.06322388
5940.00   28.63411903   0.06370568
5942.00   27.97989655   0.06163396
5944.00   28.00728416   0.06098392
5946.00   28.00546265   0.06950834
5948.00   28.07297325   0.07988628
5950.00   28.45362854   0.07714200
5952.00   28.88254547   0.05730603
5954.00   28.79466057   0.06025925
5956.00   28.61002159   0.05985228
5958.00   28.37133026   0.06059382
5960.00   28.38790703   0.05976890
5962.00   28.60932159   0.06498358
5964.00   28.72537613   0.07544702
5966.00   28.49534225   0.07827309
5968.00   28.01328468   0.06001417
5970.00   28.19260979   0.06458270
5972.00   28.03174400   0.07768837
5974.00   27.82843018   0.07647786
5976.00   27.89696121   0.06765462
5978.00   28.13940048   0.06738823
5980.00   28.20543480   0.07472556
5982.00   28.02645111   0.07162990
5984.00   27.93163872   0.06361470
5986.00   27.77648735   0.06289654
5988.00   27.50576019   0.06669176
5990.00   27.20533562   0.06459468
5992.00   26.95283890   0.05783441
5994.00   26.73735046   0.06058354
5996.00   26.59910393   0.06700181
5998.00   26.40925217   0.06526274
6000.00   26.02870369   0.06112012
6002.00   25.73031235   0.06029853
6004.00   25.41517639   0.06274929
6006.00   24.94159317   0.06560966
6008.00   24.50312996   0.06614760
6010.00   24.27298164   0.05310103
6012.00   23.49793816   0.05489575
6014.00   22.81685448   0.05832730
6016.00   22.40003777   0.05725376
6018.00   22.13557816   0.05417665
6020.00   21.85608673   0.05660243
6022.00   21.47994232   0.06553101
6024.00   20.90912247   0.06626026
6026.00   20.21526909   0.05483352
6028.00   19.47195244   0.05408938
6030.00   18.89335632   0.06042995
6032.00   18.33108902   0.05868679
6034.00   17.70369911   0.04734288
6036.00   17.31432724   0.04562219
6038.00   16.71088982   0.04480676
6040.00   15.85507011   0.04645792
6042.00   15.35343647   0.04925402
6044.00   15.04455757   0.04863824
6046.00   14.71427822   0.04502851
6048.00   14.35251713   0.04329394
6050.00   13.97990036   0.04562735
6052.00   13.53324318   0.04494785
6054.00   13.08381557   0.04250557
6056.00   12.64586544   0.04267825
6058.00   12.36635780   0.04154847
6060.00   12.17557240   0.03880367
6062.00   11.87639427   0.03872568
6064.00   11.48856544   0.04123883
6066.00   11.26678658   0.04191882
6068.00   11.06159592   0.03915138
6070.00   10.73007011   0.03640110
6072.00   10.56486607   0.03999259
6074.00   10.50978565   0.04509630
6076.00   10.25514984   0.04443917
6078.00   9.95197392   0.04091252
6080.00   9.85630512   0.04397691
6082.00   9.61768436   0.03641669
6084.00   9.44014263   0.03449397
6086.00   9.22615623   0.03784250
6088.00   9.02572823   0.03820052
6090.00   9.02739620   0.03569637
6092.00   9.08431816   0.03861844
6094.00   9.06832981   0.04830169
6096.00   8.88883972   0.04475627
6098.00   8.62953186   0.03648278
6100.00   8.48240280   0.03706541
6102.00   8.45924377   0.04250852
6104.00   8.39039230   0.03978343
6106.00   8.24235821   0.03457340
6108.00   8.24814606   0.03597246
6110.00   8.20739460   0.03348543
6112.00   8.18219471   0.03410068
6114.00   8.18554115   0.03622454
6116.00   8.15110874   0.03499785
6118.00   8.07520199   0.03217609
6120.00   8.17740822   0.03844844
6122.00   8.20889378   0.04044703
6124.00   8.09938049   0.03444791
6126.00   8.08409882   0.03177184
6128.00   8.12589264   0.03255689
6130.00   8.15650749   0.03216575
6132.00   8.24586964   0.03257730
6134.00   8.30574894   0.03260085
6136.00   8.44004059   0.03458308
6138.00   8.59172821   0.03581626
6140.00   8.66920376   0.03453881
6142.00   8.67020512   0.03333894
6144.00   8.70303059   0.03371784
6146.00   8.86506367   0.03317460
6148.00   9.03925896   0.03350468
6150.00   9.09327412   0.03367495
6152.00   9.19244671   0.03348329
6154.00   9.37010288   0.03532589
6156.00   9.55330753   0.03798779
6158.00   9.71626091   0.03821028
6160.00   9.93173409   0.03513640
6162.00   10.15051937   0.03529501
6164.00   10.29521275   0.03989614
6166.00   10.55151939   0.04392618
6168.00   10.73024082   0.04017123
6170.00   10.88247490   0.03501815
6172.00   11.09258270   0.03690597
6174.00   11.19794083   0.03738678
6176.00   11.34439754   0.03757969
6178.00   11.60380173   0.03752699
6180.00   11.81575203   0.03946432
6182.00   12.13010502   0.04191140
6184.00   12.47034740   0.04121869
6186.00   12.68997669   0.03784299
6188.00   12.91375828   0.03878474
6190.00   13.14809799   0.03954675
6192.00   13.50533962   0.03957208
6194.00   13.89696789   0.04177091
6196.00   14.08790398   0.04455998
6198.00   14.28958988   0.04483758
6200.00   14.71507454   0.04345061
6202.00   15.00099277   0.04591710
6204.00   15.52751064   0.04407376
6206.00   15.94327068   0.04651622
6208.00   16.11215210   0.04443410
6210.00   16.35957146   0.04412932
6212.00   16.78517342   0.04741045
6214.00   17.18072701   0.04818374
6216.00   17.46487045   0.04516791
6218.00   17.64912605   0.04535016
6220.00   17.80209923   0.04496006
6222.00   18.10137367   0.04507891
6224.00   18.40826797   0.04549036
6226.00   18.60321426   0.04575785
6228.00   18.76298714   0.04595900
6230.00   19.02505493   0.04622605
6232.00   19.42246628   0.04630075
6234.00   19.72532845   0.04836314
6236.00   19.92747879   0.05358176
6238.00   20.07307243   0.05551152
6240.00   20.30437469   0.05306474
6242.00   20.63990021   0.05169454
6244.00   20.71270370   0.05317532
6246.00   20.94546509   0.04958869
6248.00   21.22550011   0.04898364
6250.00   21.56932640   0.05015842
6252.00   21.81536865   0.05077088
6254.00   21.94730759   0.05066536
6256.00   22.12817192   0.05120387
6258.00   22.31341362   0.05219095
6260.00   22.50888062   0.05257212
6262.00   22.64678764   0.05095826
6264.00   22.68213081   0.05082946
6266.00   22.73929787   0.05089289
6268.00   22.84897614   0.05007197
6270.00   22.95040321   0.05023917
6272.00   23.29743576   0.05024353
6274.00   23.41772461   0.05231519
6276.00   23.50968742   0.05702180
6278.00   23.60438919   0.05596366
6280.00   23.95205688   0.05318253
6282.00   24.28001785   0.05345216
6284.00   23.99901390   0.05347744
6286.00   24.01258850   0.05713860
6288.00   24.49209785   0.05563092
6290.00   24.61154556   0.05866613
6292.00   24.28102875   0.05789577
6294.00   23.98255730   0.05591843
6296.00   24.12878227   0.05673517
6298.00   24.56217384   0.05642082
6300.00   24.73245239   0.06362189
6302.00   24.52969742   0.05964829
6304.00   24.61696625   0.05464860
6306.00   24.81317902   0.05639736
6308.00   24.96730614   0.05737245
6310.00   25.04867554   0.05421686
6312.00   25.05737305   0.05767947
6314.00   25.51420593   0.05390588
6316.00   25.25142288   0.05184940
6318.00   25.27551079   0.05269244
6320.00   25.56319618   0.05841678
6322.00   25.71409988   0.06030733
6324.00   25.53573799   0.06252231
6326.00   25.29086494   0.08000384
6328.00   25.58631516   0.06863794
6330.00   25.47899437   0.06074980
6332.00   25.36134529   0.06405177
6334.00   25.29031372   0.06661686
6336.00   25.40485191   0.06192775
6338.00   25.63001823   0.05737737
6340.00   25.52880669   0.06388745
6342.00   26.08561516   0.05542551
6344.00   26.10714722   0.05299773
6346.00   26.10511208   0.05310129
6348.00   25.96100807   0.05307706
6350.00   25.87289619   0.05280558
6352.00   26.10961151   0.05303768
6354.00   26.22505760   0.05379679
6356.00   26.12333488   0.05664252
6358.00   25.63798714   0.06326226
6360.00   25.30656815   0.06201993
6362.00   25.42341232   0.06180361
6364.00   25.66971970   0.06124808
6366.00   25.66735649   0.05437243
6368.00   25.71643448   0.05924747
6370.00   25.49169159   0.06096272
6372.00   25.45260429   0.06025085
6374.00   25.51490974   0.05986115
6376.00   25.19376564   0.06825202
6378.00   24.97213173   0.07344916
6380.00   25.41610146   0.06283329
6382.00   25.13623238   0.05746703
6384.00   24.86181068   0.05931748
6386.00   25.15649223   0.06089878
6388.00   25.00789261   0.05624930
6390.00   24.76189041   0.05105247
6392.00   24.84395409   0.05052860
6394.00   24.96524620   0.05112140
6396.00   24.95915604   0.05097564
6398.00   24.84083176   0.05088283
6400.00   24.83048248   0.05090605
6402.00   24.79784203   0.05085184
6404.00   24.54835701   0.05015811
6406.00   24.42593956   0.05210710
6408.00   24.79655075   0.05771694
6410.00   24.61524391   0.05471496
6412.00   24.47346497   0.05109197
6414.00   24.46415329   0.04954206
6416.00   24.29714012   0.05407263
6418.00   24.30235863   0.05614445
6420.00   24.50349236   0.05221064
6422.00   24.33614922   0.04952271
6424.00   24.02636909   0.04932569
6426.00   24.03097153   0.05581534
6428.00   24.15721321   0.05754628
6430.00   23.90705109   0.05711356
6432.00   23.51896477   0.05749692
6434.00   23.54337120   0.05771921
6436.00   23.98634720   0.05619942
6438.00   24.02313995   0.06085930
6440.00   23.72993469   0.05554872
6442.00   23.39483261   0.04951829
6444.00   23.22970390   0.04976586
6446.00   23.19225311   0.05243071
6448.00   23.13465691   0.05149108
6450.00   23.01816750   0.04904385
6452.00   22.89912415   0.05401594
6454.00   22.98674583   0.05634281
6456.00   23.03004837   0.05381060
6458.00   22.76483536   0.05064191
6460.00   22.54910088   0.05113550
6462.00   22.60652161   0.05348812
6464.00   22.45500374   0.05251630
6466.00   22.34969902   0.05193183
6468.00   22.45125198   0.05637007
6470.00   22.16147995   0.05941145
6472.00   21.73786163   0.05897798
6474.00   21.56193161   0.05654388
6476.00   21.64467049   0.05377411
6478.00   21.69409370   0.04986241
6480.00   21.81450081   0.04673507
6482.00   21.52057266   0.05083057
6484.00   21.32761765   0.05403694
6486.00   21.47327042   0.05238316
6488.00   21.60355949   0.05076211
6490.00   21.39089966   0.05314499
6492.00   21.19275284   0.05224383
6494.00   21.06064415   0.05465569
6496.00   21.15046120   0.05642265
6498.00   21.42006111   0.05084744
6500.00   21.37394714   0.05045659
6502.00   21.11627579   0.05763296
6504.00   21.19315529   0.06102499
6506.00   21.54744339   0.05801763
6508.00   21.26500320   0.05608121
6510.00   20.80565071   0.05168877
6512.00   20.38911819   0.05036649
6514.00   20.21749306   0.05626333
6516.00   20.27590752   0.06318635
6518.00   20.31944275   0.06290255
6520.00   20.13574219   0.05416939
6522.00   20.32691193   0.05436097
6524.00   20.52356529   0.05676913
6526.00   20.18820000   0.05663168
6528.00   19.97387123   0.05530136
6530.00   20.07174683   0.05407646
6532.00   19.93681335   0.05117524
6534.00   19.80427933   0.04529015
6536.00   19.81393814   0.04538255
6538.00   20.02486229   0.04748515
6540.00   20.00921822   0.05607127
6542.00   19.60131836   0.05924572
6544.00   19.22569275   0.05355018
6546.00   19.27921867   0.05007166
6548.00   19.07887459   0.05726147
6550.00   19.37663651   0.04938628
6552.00   19.32720184   0.04831121
6554.00   19.08757210   0.05296821
6556.00   18.94387627   0.05193381
6558.00   18.97332382   0.04470096
6560.00   19.05567360   0.04356423
6562.00   19.14145279   0.04585556
6564.00   19.24521637   0.05375599
6566.00   18.86612511   0.05489782
6568.00   18.71064758   0.04908574
6570.00   18.67055511   0.04449931
6572.00   18.57073212   0.04612648
6574.00   18.74843979   0.04718420
6576.00   18.83999825   0.04655517
6578.00   18.93014908   0.05390217
6580.00   18.83371162   0.04801874
6582.00   18.62882996   0.04255052
6584.00   18.51878738   0.04312444
6586.00   18.53284454   0.04492079
6588.00   18.48368835   0.04718406
6590.00   18.41694450   0.04446439
6592.00   18.58481789   0.04965590
6594.00   18.52628326   0.04755885
6596.00   18.42290306   0.04390160
6598.00   18.48544884   0.04686455
6600.00   18.50152779   0.05255393
6602.00   18.13188171   0.05093453
6604.00   18.35057449   0.04605319
6606.00   18.20271492   0.04337012
6608.00   18.19418335   0.04412126
6610.00   18.00943184   0.04615255
6612.00   17.84013557   0.04916961
6614.00   17.96233559   0.05034506
6616.00   17.96415520   0.04358139
6618.00   17.81357574   0.04230706
6620.00   17.62351608   0.04210654
6622.00   17.50844193   0.04197728
6624.00   17.58663559   0.04664906
6626.00   17.68693733   0.04879395
6628.00   17.59713173   0.04311159
6630.00   17.46294022   0.04250755
6632.00   17.64799500   0.05229283
6634.00   17.41569901   0.04694233
6636.00   17.36231995   0.04208581
6638.00   17.33321571   0.04135519
6640.00   17.28991318   0.04191286
6642.00   17.29986382   0.04214282
6644.00   17.06055260   0.04256443
6646.00   17.08481789   0.04335229
6648.00   17.32379150   0.04773552
6650.00   17.29616737   0.04603373
6652.00   17.20715904   0.04166156
6654.00   17.10285759   0.04308366
6656.00   16.87887955   0.04835087
6658.00   16.91009712   0.04464531
6660.00   16.79684448   0.04789985
6662.00   16.78036118   0.04555597
6664.00   16.87778473   0.04138774
6666.00   16.84281731   0.04232258
6668.00   16.78731918   0.04878681
6670.00   16.92595100   0.05284395
6672.00   16.76220131   0.04609530
6674.00   16.61670494   0.04226916
6676.00   16.35305214   0.05167591
6678.00   16.33837700   0.05138707
6680.00   16.40197182   0.04385541
6682.00   16.39768982   0.03919461
6684.00   16.43094254   0.04092933
6686.00   16.36953735   0.04670641
6688.00   16.21852112   0.04518229
6690.00   16.16262245   0.04102606
6692.00   16.14054489   0.03981003
6694.00   16.08059692   0.04009771
6696.00   15.99832153   0.04033390
6698.00   15.94212818   0.04231193
6700.00   15.83803940   0.04339489
6702.00   15.56452274   0.05189261
6704.00   15.58176231   0.05283008
6706.00   15.72674370   0.04663401
6708.00   15.75037575   0.04115783
6710.00   15.67021370   0.04057401
6712.00   15.70256233   0.03916029
6714.00   15.77332401   0.04177189
6716.00   15.73867893   0.04231480
6718.00   15.57554340   0.04006254
6720.00   15.41057587   0.03898039
6722.00   15.29288578   0.03932856
6724.00   15.22324753   0.03929710
6726.00   15.20756817   0.03905164
6728.00   15.16204357   0.03897034
6730.00   15.07010651   0.03742008
6732.00   14.91409588   0.04180038
6734.00   14.79340458   0.04881871
6736.00   14.87719822   0.05065415
6738.00   15.01048279   0.04613785
6740.00   14.81982040   0.04320063
6742.00   14.92286491   0.04278793
6744.00   15.10900497   0.04868640
6746.00   14.85619354   0.04326399
6748.00   14.68549919   0.03810678
6750.00   14.77300358   0.03942342
6752.00   14.82782936   0.04101311
6754.00   14.67237282   0.04086865
6756.00   14.37904167   0.03968390
6758.00   14.51965714   0.03810455
6760.00   14.51070595   0.03724983
6762.00   14.45007324   0.03878677
6764.00   14.35661125   0.04242021
6766.00   14.21169853   0.04361789
6768.00   14.26648617   0.03712047
6770.00   14.43672562   0.03942670
6772.00   14.35207844   0.04306075
6774.00   14.25103855   0.04134193
6776.00   14.24557686   0.04037018
6778.00   14.15954113   0.04536739
6780.00   14.01861668   0.05026914
6782.00   14.29996586   0.04578990
6784.00   13.95899105   0.04621957
6786.00   13.86758900   0.04879294
6788.00   14.02920532   0.04436224
6790.00   14.01317692   0.04254832
6792.00   13.90169716   0.04295203
6794.00   14.02646637   0.03740279
6796.00   14.08080387   0.03801996
6798.00   14.20314693   0.04021550
6800.00   13.98998260   0.03804782
6802.00   13.87403107   0.03641522
6804.00   13.91097736   0.03785987
6806.00   13.83158779   0.04350557
6808.00   13.60291004   0.04825089
6810.00   13.79332447   0.03920639
6812.00   13.90191174   0.03889938
6814.00   13.70256042   0.04321731
6816.00   13.63708782   0.04232836
6818.00   13.62242031   0.03950430
6820.00   13.55606842   0.03831058
6822.00   13.55917263   0.03677824
6824.00   13.59109020   0.03649406
6826.00   13.58069229   0.03657505
6828.00   13.58691883   0.03625019
6830.00   13.73909855   0.04183880
6832.00   13.70995712   0.04631244
6834.00   13.51017380   0.04470961
6836.00   13.49943161   0.03969042
6838.00   13.31938839   0.03699527
6840.00   13.35894775   0.03635619
6842.00   13.53593540   0.03698556
6844.00   13.59364414   0.03645740
6846.00   13.56954288   0.03957815
6848.00   13.53286648   0.04313886
6850.00   13.43021584   0.03868921
6852.00   13.39292431   0.03598861
6854.00   13.41402340   0.03590547
6856.00   13.36617661   0.03682184
6858.00   13.25124741   0.04047054
6860.00   13.19502354   0.04404967
6862.00   13.32076168   0.04718042
6864.00   13.49980640   0.05283223
6866.00   13.08742237   0.05849849
6868.00   12.78339195   0.05197603
6870.00   12.89537525   0.04607460
6872.00   12.99505138   0.04489490
6874.00   12.97646809   0.04404827
6876.00   12.98455048   0.04064158
6878.00   12.99989510   0.03871357
6880.00   12.89422894   0.03694044
6882.00   12.80643368   0.03827254
6884.00   12.57517910   0.03891237
6886.00   12.44315624   0.03810718
6888.00   12.51727772   0.03765256
6890.00   12.64942169   0.03833745
6892.00   12.67765427   0.03818277
6894.00   12.82014656   0.03785008
6896.00   12.77198505   0.03919311
6898.00   12.59576607   0.03871024
6900.00   12.50120068   0.03902352
6902.00   12.51078224   0.04039203
6904.00   12.57678032   0.03999321
6906.00   12.76324463   0.03669561
6908.00   12.85242558   0.03736487
6910.00   12.38489532   0.03605923
6912.00   12.00213146   0.03589036
6914.00   12.12159061   0.03647551
6916.00   12.37714672   0.03946527
6918.00   12.26361275   0.04455670
6920.00   12.03868961   0.04565813
6922.00   12.16621494   0.03423260
6924.00   12.10022926   0.03901284
6926.00   11.89632416   0.04486749
6928.00   11.75820351   0.04134069
6930.00   11.79998493   0.03493486
6932.00   11.96094990   0.03691506
6934.00   12.09544373   0.03521324
6936.00   12.06622219   0.03569807
6938.00   12.00308704   0.03599257
6940.00   12.14115524   0.03624141
6942.00   12.21325779   0.03607582
6944.00   12.16388130   0.03561759
6946.00   12.17916012   0.03572606
6948.00   12.12775326   0.03694522
6950.00   12.10257912   0.03775686
6952.00   11.99225998   0.03544199
6954.00   11.87805843   0.03391398
6956.00   11.89577675   0.03513979
6958.00   12.13307571   0.03912270
6960.00   12.43474770   0.04211485
6962.00   12.34600925   0.03550031
6964.00   12.26494217   0.03463392
6966.00   12.28653908   0.03474102
6968.00   12.17396736   0.03464342
6970.00   12.01119423   0.03435386
6972.00   11.94785786   0.03420982
6974.00   11.98458099   0.03427090
6976.00   12.08850002   0.03429449
6978.00   12.04761600   0.03478491
6980.00   12.03512669   0.04008148
6982.00   12.07187080   0.04279540
6984.00   12.13980675   0.04312976
6986.00   12.17979527   0.04189521
6988.00   12.16470623   0.03951494
6990.00   12.22989655   0.04532657
6992.00   12.02019691   0.04032676
6994.00   11.93453979   0.03552005
6996.00   11.74584866   0.03550057
6998.00   11.70398331   0.04060285
7000.00   11.79278564   0.04261986
7002.00   11.54298306   0.03575537
7004.00   11.40456867   0.04205932
7006.00   11.33079529   0.04396745
7008.00   11.57983875   0.03834287
7010.00   11.81015587   0.03484549
7012.00   11.92557812   0.03826194
7014.00   11.92201996   0.04083410
7016.00   11.73563004   0.03608065
7018.00   11.80783749   0.03556118
7020.00   11.75787163   0.03601691
7022.00   11.64982319   0.03499055
7024.00   11.44331264   0.03376931
7026.00   11.34077549   0.03383252
7028.00   11.54723263   0.03632515
7030.00   11.90212536   0.04025065
7032.00   11.84642887   0.03632973
7034.00   11.56535530   0.03281405
7036.00   11.64575863   0.03959837
7038.00   11.71872807   0.04066950
7040.00   11.64365959   0.03749242
7042.00   11.57868385   0.03794880
7044.00   11.52716923   0.03614363
7046.00   11.47805023   0.03379539
7048.00   11.40744114   0.03737494
7050.00   11.32336712   0.04243412
7052.00   11.35869408   0.04100902
7054.00   11.49308300   0.03740711
7056.00   11.54441261   0.03860809
7058.00   11.40961933   0.03712935
7060.00   11.42102528   0.03363024
7062.00   11.42203140   0.03296554
7064.00   11.40677643   0.03690273
7066.00   11.43404961   0.03868879
7068.00   11.50260735   0.03611914
7070.00   11.51520824   0.03292636
7072.00   11.37646103   0.03368062
7074.00   11.23924351   0.03324256
7076.00   11.27908039   0.03406280
7078.00   11.37446117   0.03442774
7080.00   11.41615582   0.03425805
7082.00   11.43626976   0.03565527
7084.00   11.49259663   0.03954746
7086.00   11.48674679   0.04296184
7088.00   11.46602631   0.04325844
7090.00   11.39844322   0.03986616
7092.00   11.43918705   0.03757899
7094.00   11.62010479   0.04010350
7096.00   11.65554905   0.04290753
7098.00   11.36406898   0.04018858
7100.00   11.23114872   0.03435956
7102.00   11.17801571   0.03319069
7104.00   11.29736328   0.03264475
7106.00   11.31544018   0.03507563
7108.00   11.19160843   0.03867192
7110.00   11.15442944   0.03828622
7112.00   11.32203102   0.03249934
7114.00   11.30806160   0.03337567
7116.00   11.38619709   0.03435880
7118.00   11.32513428   0.03522948
7120.00   11.25457191   0.03569973
7122.00   11.28209496   0.03884848
7124.00   11.26129436   0.04243031
7126.00   11.06793594   0.04112433
7128.00   11.18385220   0.03701209
7130.00   11.16744804   0.03296705
7132.00   11.14089203   0.03426395
7134.00   11.01414299   0.03883416
7136.00   10.95356369   0.03796687
7138.00   11.01625252   0.03429885
7140.00   11.05505657   0.04044792
7142.00   11.27882481   0.04576883
7144.00   11.45314789   0.04228770
7146.00   11.28481293   0.03659756
7148.00   11.06476688   0.03871802
7150.00   11.02526665   0.03890609
7152.00   11.05752373   0.03252400
7154.00   10.90613174   0.03415220
7156.00   10.71928692   0.03867853
7158.00   10.89542580   0.03631683
7160.00   11.02362728   0.03366613
7162.00   11.04864693   0.03329408
7164.00   11.04052734   0.03518331
7166.00   11.00420475   0.03753433
7168.00   10.83684349   0.03965919
7170.00   10.48520184   0.04639619
7172.00   10.37938309   0.03846979
7174.00   10.41535473   0.03497589
7176.00   10.34307480   0.03721929
7178.00   10.34204960   0.03766811
7180.00   10.51636410   0.03755184
7182.00   10.48248577   0.04418011
7184.00   10.41234684   0.03860392
7186.00   10.34326839   0.03696445
7188.00   10.52073479   0.03722281
7190.00   10.79215813   0.04599208
7192.00   10.85095024   0.04924898
7194.00   10.70742702   0.03913434
7196.00   10.77454853   0.03626854
7198.00   10.92442417   0.05013456
7200.00   10.59904575   0.05053931
7202.00   10.65205956   0.04770944
7204.00   10.71116161   0.04305460
7206.00   10.67213154   0.03814628
7208.00   10.76624489   0.03586961
7210.00   10.77117729   0.03513446
7212.00   10.58294487   0.03294692
7214.00   10.37019253   0.03240988
7216.00   10.34787560   0.03241517
7218.00   10.57695580   0.03406817
7220.00   10.65566635   0.03519767
7222.00   10.37381268   0.03338391
7224.00   10.38369846   0.03241979
7226.00   10.35741329   0.03987215
7228.00   10.48558521   0.03866344
7230.00   10.60677338   0.04438089
7232.00   10.42776775   0.04623180
7234.00   10.26290894   0.03995609
7236.00   10.51519871   0.03444803
7238.00   10.57813835   0.03567969
7240.00   10.32311821   0.03648269
7242.00   10.17495918   0.03642616
7244.00   10.02597809   0.03513894
7246.00   10.02791786   0.03415051
7248.00   10.13468170   0.03425465
7250.00   10.09081554   0.03457615
7252.00   9.99202442   0.03474982
7254.00   10.41396427   0.03460390
7256.00   10.27054405   0.03722358
7258.00   10.03519154   0.04009407
7260.00   10.08349991   0.04131354
7262.00   10.24443054   0.04050391
7264.00   10.21814728   0.03815808
7266.00   10.35980701   0.03489932
7268.00   10.24881172   0.03725772
7270.00   10.19736099   0.03775826
7272.00   10.19462967   0.04103645
7274.00   10.01645947   0.04393734
7276.00   9.81503487   0.04184885
7278.00   9.97626781   0.03580724
7280.00   10.07466221   0.03638693
7282.00   10.00048351   0.03382071
7284.00   9.84589195   0.03458903
7286.00   9.65965366   0.03908715
7288.00   9.58511925   0.04055388
7290.00   9.64998817   0.03676564
7292.00   9.69571400   0.03313673
7294.00   9.66617298   0.03275590
7296.00   9.77745724   0.03265804
7298.00   9.73582745   0.03667709
7300.00   9.35898685   0.04157346
7302.00   9.11974335   0.04350878
7304.00   9.29937172   0.04258567
7306.00   9.44384098   0.04250873
7308.00   9.35382557   0.04383758
7310.00   9.33317852   0.04113907
7312.00   9.50721931   0.03795002
7314.00   9.47625542   0.03954890
7316.00   9.27546501   0.04087167
7318.00   9.22098541   0.03686099
7320.00   9.34695911   0.03216799
7322.00   9.35237312   0.03246814
7324.00   9.34894085   0.03113341
7326.00   9.38678455   0.03241908
7328.00   9.40789509   0.03526206
7330.00   9.40684605   0.03673570
7332.00   9.39328575   0.03690252
7334.00   9.31822109   0.03825406
7336.00   9.20985413   0.03372579
7338.00   9.33825016   0.03388323
7340.00   9.24775124   0.03295276
7342.00   9.04467297   0.03154116
7344.00   8.91403103   0.03103449
7346.00   8.93250084   0.03157820
7348.00   9.09864807   0.03303352
7350.00   9.04379940   0.03187032
7352.00   9.01342869   0.03410402
7354.00   8.83748245   0.03626443
7356.00   8.78380108   0.03657810
7358.00   8.87829876   0.03422649
7360.00   8.85872841   0.03137970
7362.00   8.65321159   0.03440693
7364.00   8.49912930   0.03842274
7366.00   8.87445164   0.03393800
7368.00   8.86291409   0.03324779
7370.00   8.53501415   0.03530513
7372.00   8.38632965   0.03415700
7374.00   8.55478764   0.02999110
7376.00   8.62065220   0.03077216
7378.00   8.55509090   0.03209832
7380.00   8.52359962   0.03116626
7382.00   8.44730377   0.02990319
7384.00   8.47557259   0.02995963
7386.00   8.56927204   0.03458781
7388.00   8.46896935   0.03978140
7390.00   8.13551617   0.03049187
7392.00   8.01003265   0.02899135
7394.00   8.03020000   0.02924731
7396.00   8.03518391   0.02920384
7398.00   7.98216915   0.03049633
7400.00   7.94906616   0.03344913
7402.00   7.95188284   0.03485600
7404.00   7.77987289   0.03085912
7406.00   7.82754326   0.03715391
7408.00   7.64216948   0.03316950
7410.00   7.52749586   0.02997531
7412.00   7.44605350   0.02935874
7414.00   7.36322880   0.02883844
7416.00   7.39406300   0.02980171
7418.00   7.31808472   0.02841282
7420.00   7.25758791   0.02832361
7422.00   7.21472549   0.03190779
7424.00   7.10861826   0.03092307
7426.00   7.08450747   0.02792756
7428.00   7.15940046   0.02768919
7430.00   7.12466192   0.02801306
7432.00   7.06646538   0.02782577
7434.00   6.98664236   0.02934613
7436.00   7.06559563   0.02916491
7438.00   7.07527065   0.02859630
7440.00   7.01687193   0.02811541
7442.00   6.99617672   0.02827395
7444.00   6.99048471   0.02967466
7446.00   6.99609518   0.02822815
7448.00   6.81730223   0.02709231
7450.00   6.88290691   0.02793786
7452.00   7.05884314   0.03320064
7454.00   7.05558205   0.03452526
7456.00   6.90643263   0.02904155
7458.00   6.94651890   0.02707597
7460.00   6.94996023   0.02927937
7462.00   7.00755119   0.02858223
7464.00   6.98324537   0.02777801
7466.00   6.97195339   0.02762285
7468.00   6.96956110   0.02787774
7470.00   6.90619612   0.02803318
7472.00   6.81826210   0.02785898
7474.00   6.83103037   0.02767988
7476.00   6.81295586   0.02770867
7478.00   6.84984684   0.02780184
7480.00   6.87851143   0.02798717
7482.00   6.89950323   0.02807948
7484.00   6.92765856   0.02796688
7486.00   6.88945770   0.02834564
7488.00   6.86593151   0.03198033
7490.00   6.95975256   0.03013603
7492.00   6.83681107   0.03075206
7494.00   6.74171638   0.03113086
7496.00   6.69434738   0.03213800
7498.00   6.61713743   0.03476660
7500.00   6.79798603   0.03251419
7502.00   6.81692171   0.03203923
7504.00   6.85403776   0.03035828
7506.00   6.90231371   0.02854965
7508.00   6.92756128   0.02785301
7510.00   6.95376348   0.02797888
7512.00   6.98448563   0.02789421
7514.00   6.91440773   0.02781963
7516.00   6.94588232   0.02784435
7518.00   6.93698120   0.02679655
7520.00   7.08183718   0.03242810
7522.00   7.16172743   0.03602908
7524.00   7.07662344   0.03361705
7526.00   6.99497223   0.02895624
7528.00   7.00476313   0.02792103
7530.00   7.24130154   0.03453209
7532.00   7.26417446   0.03398022
7534.00   7.16351414   0.02975171
7536.00   7.15217352   0.02763347
7538.00   7.20460463   0.02844355
7540.00   7.19702530   0.02817529
7542.00   7.36446238   0.02837996
7544.00   7.39447021   0.02874957
7546.00   7.37308168   0.03023928
7548.00   7.33772707   0.03288243
7550.00   7.30075502   0.03294925
7552.00   7.36056376   0.03056964
7554.00   7.53124666   0.02993161
7556.00   7.40880680   0.02941580
7558.00   7.48028660   0.03189892
7560.00   7.62119818   0.03202606
7562.00   7.70480251   0.03138128
7564.00   7.79809999   0.03380980
7566.00   7.81925535   0.03680555
7568.00   7.59171057   0.03470813
7570.00   7.50530958   0.03074021
7572.00   7.67155027   0.02964249
7574.00   7.80421400   0.02989794
7576.00   7.86169147   0.02930645
7578.00   7.83106947   0.03113649
7580.00   7.75622892   0.03455023
7582.00   7.73981810   0.03346268
7584.00   7.80528975   0.02897605
7586.00   7.75581837   0.02971867
7588.00   7.75876284   0.02924570
7590.00   7.70940447   0.03171880
7592.00   7.57091808   0.03942298
7594.00   7.37973070   0.04989386
7596.00   7.13141966   0.06165119
7598.00   6.69519234   0.07758540
7600.00   7.43465757   0.08915218
7602.00   7.83579636   0.08659192
7604.00   7.47746277   0.07788903
7606.00   7.04841566   0.07082164
7608.00   7.08303833   0.06817430
7610.00   7.25127792   0.06935128
7612.00   8.13927269   0.07270791
7614.00   8.12184525   0.08329021
7616.00   7.91480684   0.07488361
7618.00   7.76478100   0.05701611
7620.00   7.87264442   0.04955123
7622.00   8.36125183   0.05839717
7624.00   8.94991493   0.06546682
7626.00   8.48924923   0.05985551
7628.00   8.21706390   0.04793190
7630.00   8.04731655   0.04362906
7632.00   8.01952362   0.04521558
7634.00   8.22000980   0.04714551
7636.00   8.55653477   0.04816044
7638.00   8.72926140   0.04714012
7640.00   8.93278313   0.04953907
7642.00   8.98198891   0.04744280
7644.00   8.98214912   0.04519776
7646.00   8.89262486   0.04483090
7648.00   8.61745834   0.04329245
7650.00   8.29963398   0.03844889
7652.00   8.39519405   0.03661053
7654.00   8.72819042   0.03926156
7656.00   8.89658356   0.04003708
7658.00   8.82060814   0.03789099
7660.00   8.69972801   0.03577183
7662.00   8.58946896   0.03498133
7664.00   8.44127560   0.03408981
7666.00   8.44035721   0.03359387
7668.00   8.48771858   0.03350879
7670.00   8.51078701   0.03290968
7672.00   8.55554295   0.03485304
7674.00   8.57736301   0.03649204
7676.00   8.51133919   0.03540198
7678.00   8.39748955   0.03322662
7680.00   8.42380428   0.03406902
7682.00   8.70161438   0.03303079
7684.00   8.82257938   0.03338274
7686.00   8.76811695   0.03396407
7688.00   8.70765114   0.03316563
7690.00   8.65972137   0.03261795
7692.00   8.53599930   0.03480092
7694.00   8.54148483   0.03606758
7696.00   8.64427662   0.03237430
7698.00   8.77006435   0.03408556
7700.00   8.78566456   0.03670446
7702.00   8.60870934   0.03543255
7704.00   8.46732616   0.03176007
7706.00   8.63399029   0.03143559
7708.00   8.70709229   0.03213593
7710.00   8.66249657   0.03384716
7712.00   8.59455681   0.03353550
7714.00   8.68303776   0.03697542
7716.00   8.80129337   0.04112827
7718.00   8.78003311   0.04008010
7720.00   8.68951130   0.03309555
7722.00   8.73773193   0.03270927
7724.00   8.57738400   0.03232290
7726.00   8.51209164   0.03128177
7728.00   8.53579807   0.03314181
7730.00   8.58831310   0.03566444
7732.00   8.65984344   0.03490805
7734.00   8.77316284   0.03168710
7736.00   8.87755775   0.03554835
7738.00   8.92881775   0.03840303
7740.00   8.88026524   0.03916730
7742.00   8.91432476   0.03727757
7744.00   9.09193897   0.03522220
7746.00   9.25741291   0.03521387
7748.00   9.20384407   0.03593204
7750.00   8.96065044   0.03825020
7752.00   8.97296810   0.03827424
7754.00   9.04775810   0.03464560
7756.00   9.05240250   0.03284397
7758.00   9.05252171   0.03362731
7760.00   9.09475040   0.03375228
7762.00   9.04225254   0.03345640
7764.00   8.97666740   0.03293310
7766.00   9.00463009   0.03268588
7768.00   9.10875034   0.03301865
7770.00   9.02413082   0.03575562
7772.00   8.90258980   0.03760630
7774.00   9.02298546   0.03562854
7776.00   9.21087742   0.03304163
7778.00   9.22957134   0.03319412
7780.00   9.30486774   0.03755319
7782.00   9.34288597   0.03817923
7784.00   9.35994053   0.03550425
7786.00   9.33864784   0.03343613
7788.00   9.26952648   0.03390498
7790.00   9.26147747   0.03403467
7792.00   9.37516689   0.03780001
7794.00   9.29280376   0.03736040
7796.00   9.29130363   0.03508957
7798.00   9.31928349   0.03385925
7800.00   9.29702091   0.03381732
7802.00   9.26516151   0.03357788
7804.00   9.26449966   0.03430611
7806.00   9.23412037   0.03724623
7808.00   9.27934551   0.03632735
7810.00   9.31089878   0.03561804
7812.00   9.22938251   0.03465549
7814.00   9.17506504   0.03549944
7816.00   9.32746792   0.04016336
7818.00   9.47604847   0.04257872
7820.00   9.38627338   0.04315516
7822.00   9.29132080   0.03951242
7824.00   9.43956661   0.03589766
7826.00   9.53526688   0.03752089
7828.00   9.47408867   0.04021542
7830.00   9.49742985   0.03746111
7832.00   9.53283596   0.03470224
7834.00   9.57382774   0.03568040
7836.00   9.59946156   0.03546138
7838.00   9.59680367   0.03503900
7840.00   9.61279869   0.03499752
7842.00   9.58919430   0.03572695
7844.00   9.45330238   0.03684190
7846.00   9.45208263   0.03529492
7848.00   9.47408867   0.03464042
7850.00   9.52854633   0.03564169
7852.00   9.54221630   0.03610941
7854.00   9.41518974   0.03972336
7856.00   9.34674454   0.04345780
7858.00   9.60105991   0.04004116
7860.00   9.65047073   0.03674169
7862.00   9.50316143   0.03577340
7864.00   9.57726097   0.03536018
7866.00   9.62584114   0.03939220
7868.00   9.58489990   0.04351952
7870.00   9.58860493   0.04286693
7872.00   9.66699696   0.03813542
7874.00   9.56231022   0.03599437
7876.00   9.50837612   0.03572213
7878.00   9.36969566   0.03764378
7880.00   9.34241867   0.03892332
7882.00   9.40331745   0.03800684
7884.00   9.38430214   0.03699594
7886.00   9.28268147   0.03889270
7888.00   9.40068913   0.03711556
7890.00   9.47488499   0.03698939
7892.00   9.29209232   0.03648735
7894.00   9.17812061   0.03792613
7896.00   9.19606209   0.03868686
7898.00   9.17041492   0.03710960
7900.00   9.09263706   0.03742527
7902.00   9.23312759   0.03727990
7904.00   9.29615688   0.04009897
7906.00   9.23568630   0.03992001
7908.00   9.10524464   0.03784817
7910.00   9.10229206   0.03809875
7912.00   9.23256683   0.04023245
7914.00   9.19233799   0.03820931
7916.00   9.25642300   0.03746995
7918.00   9.24999619   0.03762823
7920.00   9.28122616   0.03768279
7922.00   9.24977493   0.03825792
7924.00   9.06711960   0.04185477
7926.00   8.89608002   0.04460447
7928.00   9.04675770   0.03638698
7930.00   8.98476505   0.03709023
7932.00   8.95962048   0.03907928
7934.00   9.02389431   0.04065484
7936.00   9.13137245   0.03930444
7938.00   9.11276531   0.03888910
7940.00   8.95713425   0.04176904
7942.00   8.99445724   0.03912245
7944.00   8.99812794   0.03992068
7946.00   8.89223766   0.04408431
7948.00   8.83421421   0.04605015
7950.00   8.78375816   0.04119762
7952.00   8.75752449   0.03454766
7954.00   8.82633972   0.03577850
7956.00   8.88251877   0.03602686
7958.00   8.81141758   0.03649239
7960.00   8.75447655   0.03707290
7962.00   8.73000050   0.03769634
7964.00   8.66076469   0.03809214
7966.00   8.61523438   0.03764070
7968.00   8.67624760   0.03696202
7970.00   8.59663582   0.03928047
7972.00   8.67063999   0.04020093
7974.00   8.88971138   0.03761575
7976.00   8.81623745   0.03682218
7978.00   8.55851269   0.03689664
7980.00   8.43666172   0.03609727
7982.00   8.51848030   0.03633604
7984.00   8.57256413   0.03889865
7986.00   8.62713528   0.03875448
7988.00   8.74221039   0.04095627
7990.00   8.85802555   0.04331442
7992.00   8.75584126   0.04244681
7994.00   8.53654194   0.03957675
7996.00   8.55004311   0.03917231
7998.00   8.60176182   0.03790129
8000.00   8.59627914   0.03877519
8002.00   8.48366737   0.04333606
8004.00   8.35106659   0.04258738
8006.00   8.38691044   0.03830775
8008.00   8.52190685   0.03652169
8010.00   8.45974541   0.03743739
8012.00   8.32324982   0.03716056
8014.00   8.16172314   0.03917824
8016.00   8.22641087   0.03838475
8018.00   8.39083099   0.03904958
8020.00   8.39842796   0.03961331
8022.00   8.35781193   0.03899696
8024.00   8.63222980   0.04091313
8026.00   8.73302841   0.04087462
8028.00   8.71031666   0.03958135
8030.00   8.51363277   0.03839270
8032.00   8.21763992   0.03745912
8034.00   8.17728138   0.03790466
8036.00   8.39668083   0.03905047
8038.00   8.32087708   0.03889052
