# File created by shivutils (I.Shivvers)
# wl(A)   flm    er(optional)
3446.00   6.21413000   0.14891413
3448.00   6.16658989   0.15096078
3450.00   6.01401072   0.15208485
3452.00   5.84998290   0.15046254
3454.00   5.93166257   0.15253260
3456.00   5.79581455   0.15115640
3458.00   5.76528426   0.14955394
3460.00   5.79306429   0.15077504
3462.00   5.79984088   0.15218376
3464.00   5.82372965   0.15448984
3466.00   6.18553527   0.15729539
3468.00   6.15082865   0.15829394
3470.00   6.12422303   0.15947290
3472.00   6.49674886   0.16037731
3474.00   6.49523700   0.15869530
3476.00   6.42806691   0.15902991
3478.00   6.71887326   0.16461839
3480.00   6.81161271   0.16772188
3482.00   7.19266134   0.16908655
3484.00   7.27229620   0.16890495
3486.00   7.13256593   0.16989025
3488.00   7.30937819   0.17087083
3490.00   7.51148730   0.17035256
3492.00   7.67003167   0.17003028
3494.00   7.77576054   0.17166724
3496.00   7.97347222   0.17244677
3498.00   8.19763099   0.17663785
3500.00   8.35717798   0.17928190
3502.00   8.59661291   0.18087663
3504.00   8.64366819   0.17968251
3506.00   8.92650695   0.18163876
3508.00   8.75006460   0.18035084
3510.00   8.72293646   0.17934428
3512.00   8.80233531   0.17988363
3514.00   8.61285662   0.17730569
3516.00   8.78525582   0.18114041
3518.00   9.13110114   0.18276611
3520.00   9.04011786   0.18020672
3522.00   9.23652646   0.17960415
3524.00   9.03604414   0.17772393
3526.00   9.38958525   0.17943948
3528.00   9.79920065   0.18386033
3530.00   9.57283238   0.18289658
3532.00   10.46644564   0.18801038
3534.00   9.89676146   0.18356216
3536.00   10.59592561   0.18819592
3538.00   10.33739174   0.18691810
3540.00   10.65658903   0.18927342
3542.00   10.72748806   0.19032853
3544.00   10.54183759   0.18927559
3546.00   10.47591679   0.18881324
3548.00   10.79075481   0.19046771
3550.00   10.43400705   0.18711251
3552.00   11.11360995   0.18984119
3554.00   10.79322213   0.18627970
3556.00   11.26877823   0.18841477
3558.00   11.25868054   0.18897146
3560.00   11.70543740   0.19044227
3562.00   11.80850109   0.18987774
3564.00   11.79819534   0.18652511
3566.00   11.94543182   0.18501261
3568.00   11.60003673   0.18260259
3570.00   11.50167781   0.18133566
3572.00   11.97481637   0.18460094
3574.00   11.88450726   0.18413586
3576.00   12.32888023   0.18522123
3578.00   11.92011886   0.18162910
3580.00   11.84982552   0.17837189
3582.00   11.51880209   0.17512834
3584.00   11.63753792   0.17422900
3586.00   11.20227070   0.17160332
3588.00   11.19081755   0.17192536
3590.00   11.09260365   0.17339820
3592.00   10.88406915   0.17137453
3594.00   11.00180734   0.17109693
3596.00   10.87424634   0.16965535
3598.00   10.56275858   0.16859011
3600.00   10.47388076   0.16680453
3602.00   10.36774075   0.16442657
3604.00   10.76954378   0.16473798
3606.00   11.07451918   0.16718013
3608.00   11.25721797   0.16529764
3610.00   11.20107306   0.16551866
3612.00   11.22967798   0.16565509
3614.00   11.49207491   0.16759132
3616.00   11.12111236   0.16378427
3618.00   11.82836093   0.16503768
3620.00   11.80105081   0.16520752
3622.00   11.97572064   0.16558319
3624.00   12.41670638   0.16780737
3626.00   12.61597210   0.16949511
3628.00   13.02521498   0.17031493
3630.00   13.19797248   0.16955216
3632.00   13.81860533   0.17067111
3634.00   14.17318010   0.17218892
3636.00   14.49808500   0.17401222
3638.00   14.57389639   0.17394710
3640.00   15.07017869   0.17731060
3642.00   15.24227409   0.17645007
3644.00   15.50627056   0.17717499
3646.00   16.03891517   0.17833925
3648.00   16.30259647   0.18411114
3650.00   16.81091771   0.18930181
3652.00   16.96770117   0.18719834
3654.00   17.20223157   0.18593975
3656.00   17.40972862   0.18394653
3658.00   17.59480752   0.18200436
3660.00   18.02234720   0.18412041
3662.00   18.33109324   0.18532432
3664.00   18.34111748   0.18359638
3666.00   18.74951201   0.18209725
3668.00   19.13245284   0.18209153
3670.00   19.14954536   0.18137090
3672.00   18.64908815   0.17938267
3674.00   18.63718144   0.17868928
3676.00   18.69567423   0.17744467
3678.00   18.07895847   0.17363526
3680.00   17.46845364   0.17041957
3682.00   16.94735270   0.16789041
3684.00   16.36341439   0.16521594
3686.00   15.76950730   0.16137053
3688.00   15.55770501   0.15974868
3690.00   14.98735683   0.15775212
3692.00   14.78285601   0.15672740
3694.00   14.14808752   0.15312517
3696.00   14.12098735   0.15219821
3698.00   13.78446767   0.15147103
3700.00   13.50981806   0.15024121
3702.00   13.74585700   0.14932266
3704.00   13.50200048   0.14638830
3706.00   13.77213158   0.14653598
3708.00   13.59638354   0.14556589
3710.00   13.46682727   0.14564530
3712.00   12.96213828   0.14509596
3714.00   13.25486620   0.14567484
3716.00   13.16800262   0.14430575
3718.00   13.15586463   0.14137833
3720.00   12.92193944   0.13880474
3722.00   13.02321023   0.13893653
3724.00   12.98934414   0.13999950
3726.00   13.13202372   0.14004729
3728.00   12.70929449   0.13830661
3730.00   12.73712500   0.13794640
3732.00   12.50601737   0.13527829
3734.00   12.55350345   0.13344282
3736.00   12.10560677   0.13153725
3738.00   12.22192457   0.13271652
3740.00   12.13808375   0.13376329
3742.00   11.89077555   0.13200859
3744.00   12.06047426   0.13419350
3746.00   11.90195524   0.12815122
3748.00   11.61015244   0.12573013
3750.00   11.29210966   0.12482452
3752.00   10.74190806   0.12429235
3754.00   10.92757511   0.12579506
3756.00   10.81022271   0.12356345
3758.00   10.59964981   0.12118334
3760.00   10.40802869   0.12051048
3762.00   10.20070509   0.11945063
3764.00   10.13976727   0.11876974
3766.00   10.23100339   0.11856103
3768.00   10.24445324   0.11840909
3770.00   10.29840003   0.11885834
3772.00   9.87475184   0.11789903
3774.00   9.83936631   0.11813124
3776.00   9.78949016   0.11681236
3778.00   9.86152853   0.11708239
3780.00   9.69962205   0.11614421
3782.00   9.73096230   0.11649576
3784.00   9.60970229   0.11529843
3786.00   9.46559829   0.11367849
3788.00   9.33458134   0.11254856
3790.00   9.38559802   0.11294398
3792.00   9.21692586   0.11148767
3794.00   9.13117934   0.11055802
3796.00   9.13807939   0.10973674
3798.00   9.42809663   0.11030350
3800.00   9.39880118   0.11105160
3802.00   9.28125873   0.11141202
3804.00   9.53184516   0.11193660
3806.00   9.21033814   0.10983730
3808.00   9.36167488   0.11054996
3810.00   9.68970682   0.11184180
3812.00   9.71795748   0.11183998
3814.00   9.98400230   0.11038866
3816.00   10.37724840   0.11230270
3818.00   10.26602826   0.11133991
3820.00   10.63428320   0.11215660
3822.00   10.57233352   0.11171383
3824.00   10.85751116   0.11237367
3826.00   11.03325067   0.11211375
3828.00   11.42589297   0.11397150
3830.00   11.35083041   0.11350620
3832.00   11.54715204   0.11325371
3834.00   12.09448632   0.11504234
3836.00   12.10907741   0.11608335
3838.00   12.33406320   0.11530159
3840.00   12.84896600   0.11707126
3842.00   12.93197363   0.11845737
3844.00   13.43830244   0.12019503
3846.00   13.65300144   0.12062134
3848.00   13.64822795   0.12034502
3850.00   14.15626482   0.12164551
3852.00   14.57747792   0.12250273
3854.00   14.72331392   0.12263421
3856.00   14.92944841   0.12278086
3858.00   15.31070296   0.12347156
3860.00   15.61686320   0.12453462
3862.00   16.10082789   0.12706081
3864.00   16.11061847   0.12717058
3866.00   16.62542506   0.12810395
3868.00   17.11174095   0.12892741
3870.00   17.61368063   0.12964852
3872.00   17.73360840   0.13021262
3874.00   18.58356925   0.13361609
3876.00   18.65281377   0.13332582
3878.00   19.35063574   0.13446824
3880.00   19.65973154   0.13492409
3882.00   20.07060998   0.13615225
3884.00   20.59978206   0.13780529
3886.00   21.03297060   0.13820300
3888.00   21.27399583   0.13846781
3890.00   21.27801291   0.13889391
3892.00   21.76614777   0.14054346
3894.00   22.27482399   0.14180498
3896.00   22.60947635   0.14260951
3898.00   22.67392226   0.14233477
3900.00   23.08850878   0.14331453
3902.00   23.50176069   0.14408663
3904.00   23.73254510   0.14479411
3906.00   23.90731682   0.14628309
3908.00   24.72636752   0.14891250
3910.00   25.07330906   0.15029811
3912.00   24.92998209   0.14982290
3914.00   25.81484363   0.15099263
3916.00   25.93193537   0.14978362
3918.00   26.16546387   0.14956487
3920.00   26.23515152   0.14876137
3922.00   26.44155188   0.14886979
3924.00   27.05047897   0.14990220
3926.00   27.12721406   0.14984874
3928.00   27.11338269   0.14853256
3930.00   26.83310129   0.14752545
3932.00   25.70601925   0.14563800
3934.00   26.79959776   0.14803170
3936.00   27.81171130   0.14889259
3938.00   27.98484699   0.14911673
3940.00   27.81583455   0.14916249
3942.00   27.96592270   0.14957201
3944.00   27.48820687   0.14846815
3946.00   27.39805180   0.14776760
3948.00   26.98064820   0.14643173
3950.00   26.74306754   0.14558562
3952.00   26.05091622   0.14359877
3954.00   25.75229063   0.14262081
3956.00   25.56882027   0.14185627
3958.00   25.21598011   0.14107280
3960.00   24.43253153   0.13910894
3962.00   24.31481515   0.13776150
3964.00   23.85593356   0.13532648
3966.00   22.76332946   0.13240344
3968.00   22.37811753   0.13108796
3970.00   22.61052659   0.13158374
3972.00   22.10059729   0.13001721
3974.00   21.83881268   0.12987264
3976.00   21.43955043   0.12874676
3978.00   20.83594281   0.12733915
3980.00   20.56100741   0.12659255
3982.00   20.14877162   0.12488337
3984.00   19.90765824   0.12392621
3986.00   19.33006215   0.12235504
3988.00   18.93666012   0.12131820
3990.00   18.95140145   0.12156601
3992.00   18.80273510   0.12105871
3994.00   18.48896913   0.12067160
3996.00   18.36328539   0.12033554
3998.00   18.26906157   0.11970742
4000.00   18.04671087   0.11913991
4002.00   18.01797087   0.11847763
4004.00   17.75160473   0.11743210
4006.00   17.78741491   0.11718155
4008.00   17.77319870   0.11743750
4010.00   17.70305276   0.11745479
4012.00   17.78516086   0.11725612
4014.00   17.84594561   0.11706840
4016.00   17.95568233   0.11733460
4018.00   18.08653956   0.11828847
4020.00   18.05120094   0.11917275
4022.00   18.26636819   0.11937412
4024.00   18.29143327   0.11898536
4026.00   18.64792748   0.11920250
4028.00   18.81495745   0.11876613
4030.00   18.78209516   0.11795464
4032.00   19.34777032   0.11891423
4034.00   19.30132926   0.11864576
4036.00   19.47140191   0.11904719
4038.00   19.75182312   0.11952857
4040.00   19.47606213   0.11869058
4042.00   19.52185768   0.11893859
4044.00   19.52303778   0.12453068
4046.00   19.32899295   0.12891203
4048.00   19.55080289   0.12561246
4050.00   19.42310445   0.11865833
4052.00   19.21718086   0.11693661
4054.00   19.41850157   0.11710928
4056.00   19.36264624   0.11647166
4058.00   19.74173680   0.11662574
4060.00   19.86476412   0.11659707
4062.00   19.90150085   0.11611235
4064.00   19.89013206   0.11576097
4066.00   20.13260279   0.11651167
4068.00   20.42501887   0.11726903
4070.00   20.37082232   0.11660522
4072.00   20.67720530   0.11704745
4074.00   20.68936652   0.11714411
4076.00   20.71884538   0.11805619
4078.00   20.68480820   0.11794761
4080.00   20.99378362   0.11828318
4082.00   20.84957038   0.11751429
4084.00   20.75352617   0.11713286
4086.00   20.99875806   0.11729415
4088.00   20.69336844   0.11645835
4090.00   20.76722294   0.11590103
4092.00   20.71625863   0.11544754
4094.00   20.77839836   0.11518576
4096.00   20.74034030   0.11456024
4098.00   20.97688683   0.11481533
4100.00   20.72954308   0.11363591
4102.00   20.64713781   0.11330484
4104.00   20.98651912   0.11439579
4106.00   20.81717112   0.11409117
4108.00   20.94456151   0.11441816
4110.00   20.96187157   0.11408807
4112.00   20.82990580   0.11375581
4114.00   21.23327898   0.11460092
4116.00   21.31428044   0.11444858
4118.00   21.48744647   0.11403903
4120.00   21.58003663   0.11411615
4122.00   21.92734121   0.11467141
4124.00   21.92808055   0.11456816
4126.00   22.12455668   0.11480966
4128.00   22.31277209   0.11495407
4130.00   22.49913631   0.11527817
4132.00   22.53332136   0.11514020
4134.00   22.65913448   0.11538313
4136.00   22.75285262   0.11521865
4138.00   23.02968945   0.11579398
4140.00   23.02044294   0.11552623
4142.00   22.98682756   0.11473951
4144.00   23.16418888   0.11440647
4146.00   23.24663300   0.11450745
4148.00   23.23202248   0.11439312
4150.00   23.23298078   0.11457296
4152.00   23.38536090   0.11477094
4154.00   23.12877254   0.11383433
4156.00   23.42185971   0.11378435
4158.00   23.33791510   0.11360522
4160.00   23.41357056   0.11361086
4162.00   23.05035403   0.11304735
4164.00   23.08396372   0.11345865
4166.00   22.91234178   0.11263960
4168.00   22.74310563   0.11148055
4170.00   22.95601978   0.11122993
4172.00   22.80059889   0.11062890
4174.00   22.82334785   0.11035368
4176.00   22.87856716   0.11046249
4178.00   22.75638913   0.11047220
4180.00   22.87887143   0.11049422
4182.00   23.28851099   0.11105207
4184.00   23.06899680   0.11045564
4186.00   23.00449687   0.11031306
4188.00   22.98366735   0.11005615
4190.00   23.11173452   0.11052371
4192.00   22.98659059   0.11017665
4194.00   23.16632349   0.11025251
4196.00   23.18780704   0.10983327
4198.00   23.10892123   0.10951452
4200.00   23.23621682   0.10956182
4202.00   23.24818088   0.10950375
4204.00   23.11517530   0.10946396
4206.00   23.15395090   0.10948076
4208.00   23.27561992   0.10956706
4210.00   23.37318073   0.10959691
4212.00   23.21080908   0.10904862
4214.00   23.12038386   0.10833529
4216.00   22.88887623   0.10754057
4218.00   22.95206146   0.10734948
4220.00   22.54702666   0.10658741
4222.00   22.35753162   0.10596918
4224.00   22.41899836   0.10531061
4226.00   22.44589048   0.10495641
4228.00   22.34342632   0.10493915
4230.00   22.16152090   0.10495590
4232.00   21.79293277   0.10418684
4234.00   21.58159778   0.10355710
4236.00   21.47363027   0.10342427
4238.00   21.64594321   0.10349528
4240.00   21.33231658   0.10240672
4242.00   20.96450002   0.10147282
4244.00   20.82894940   0.10167267
4246.00   20.97389155   0.10225127
4248.00   20.93744108   0.10160888
4250.00   20.88835830   0.10055309
4252.00   20.98925847   0.10052232
4254.00   20.94250557   0.10040984
4256.00   20.75119345   0.09987284
4258.00   20.83381862   0.09974432
4260.00   20.70677706   0.09921809
4262.00   20.46907223   0.09883930
4264.00   20.65864784   0.09923072
4266.00   20.52154176   0.09871874
4268.00   20.51447915   0.09825883
4270.00   20.53918168   0.09787777
4272.00   20.55153152   0.09757052
4274.00   20.11186806   0.09692227
4276.00   19.97945206   0.09682362
4278.00   19.74125623   0.09651814
4280.00   19.69245782   0.09609738
4282.00   19.29497472   0.09531376
4284.00   18.95496213   0.09441507
4286.00   18.89764850   0.09380789
4288.00   18.63880420   0.09299787
4290.00   18.40647998   0.09241640
4292.00   18.18135058   0.09287529
4294.00   18.17780980   0.09179236
4296.00   17.95654252   0.09119369
4298.00   17.82390376   0.09051832
4300.00   17.73647477   0.09000054
4302.00   17.66373213   0.08974451
4304.00   17.39317970   0.08900312
4306.00   16.93999436   0.08808186
4308.00   16.89459691   0.08767730
4310.00   16.79069720   0.08764705
4312.00   16.44696374   0.08771963
4314.00   16.36517317   0.08806061
4316.00   16.18720806   0.08747469
4318.00   15.74860006   0.08650629
4320.00   15.57674778   0.08613351
4322.00   15.53489206   0.08533178
4324.00   15.34049794   0.08425300
4326.00   15.35313119   0.08423126
4328.00   15.17869691   0.08392367
4330.00   15.02600210   0.08384418
4332.00   14.95205471   0.08382383
4334.00   14.78793708   0.08360662
4336.00   14.77009479   0.08335992
4338.00   14.39738721   0.08203905
4340.00   14.35718837   0.08163033
4342.00   14.08839235   0.08119645
4344.00   14.01861798   0.08140883
4346.00   13.83194902   0.08170403
4348.00   13.53046938   0.08117277
4350.00   13.50400855   0.08064524
4352.00   13.27168148   0.07977928
4354.00   13.13116921   0.08155424
4356.00   13.04396249   0.09237425
4358.00   12.70709969   0.09742927
4360.00   12.77869683   0.09066625
4362.00   12.42488842   0.08107547
4364.00   12.34756186   0.07837998
4366.00   12.45729099   0.07810576
4368.00   12.08662276   0.07671591
4370.00   11.98233300   0.07646134
4372.00   12.01361282   0.07668094
4374.00   11.81590588   0.07629448
4376.00   11.97601163   0.07624915
4378.00   11.81475232   0.07556163
4380.00   11.71927256   0.07504890
4382.00   11.66837319   0.07440844
4384.00   11.65584894   0.07394277
4386.00   11.57680531   0.07390023
4388.00   11.53628420   0.07401761
4390.00   11.52733485   0.07392728
4392.00   11.63288007   0.07428810
4394.00   11.78299524   0.07445279
4396.00   11.67902491   0.07416192
4398.00   11.79611333   0.07467025
4400.00   12.02468066   0.07505400
4402.00   12.08712277   0.07473006
4404.00   12.09425125   0.07446170
4406.00   12.24200432   0.07473226
4408.00   12.22260751   0.07529556
4410.00   12.57598559   0.07612322
4412.00   12.56591254   0.07622306
4414.00   12.73131501   0.07675670
4416.00   12.71584240   0.07673558
4418.00   12.83005260   0.07695669
4420.00   12.74217480   0.07665094
4422.00   13.05259430   0.07694738
4424.00   13.15416367   0.07713801
4426.00   13.08527176   0.07706905
4428.00   13.40115197   0.07777397
4430.00   13.20898724   0.07752153
4432.00   13.59302143   0.07821856
4434.00   13.65301471   0.07823932
4436.00   14.01013167   0.07915462
4438.00   14.24837489   0.07978782
4440.00   14.44194815   0.08006934
4442.00   14.63248159   0.08035921
4444.00   14.73734103   0.08040130
4446.00   14.98353690   0.08089106
4448.00   15.20405726   0.08126168
4450.00   15.33114385   0.08155193
4452.00   15.57993311   0.08176752
4454.00   15.46667647   0.08124583
4456.00   15.72079372   0.08167261
4458.00   15.78102538   0.08185859
4460.00   15.95225965   0.08223937
4462.00   16.21634758   0.08279051
4464.00   16.26780715   0.08300944
4466.00   16.42454227   0.08348311
4468.00   16.69055960   0.08378644
4470.00   16.98296098   0.08431269
4472.00   17.21979282   0.08481625
4474.00   17.45052604   0.08521963
4476.00   17.60305165   0.08551118
4478.00   18.02562590   0.08626618
4480.00   18.13486403   0.08627255
4482.00   18.59175698   0.08720290
4484.00   18.86716489   0.08791343
4486.00   19.15210178   0.08852065
4488.00   19.34698832   0.08874243
4490.00   19.78920156   0.08954512
4492.00   19.90402030   0.08994239
4494.00   20.29819437   0.09058231
4496.00   20.41960556   0.09079387
4498.00   20.65388099   0.09131907
4500.00   21.04729296   0.09191115
4502.00   21.30910411   0.09221607
4504.00   21.85673033   0.09319643
4506.00   22.10168450   0.09362897
4508.00   22.27545717   0.09386724
4510.00   22.17179395   0.09360395
4512.00   22.89506110   0.09461275
4514.00   22.79528322   0.09458058
4516.00   23.19321560   0.09514177
4518.00   23.23363292   0.09534084
4520.00   23.40490699   0.09558167
4522.00   23.63498997   0.09597177
4524.00   23.82318453   0.09623904
4526.00   23.90979930   0.09628182
4528.00   24.14897144   0.09642722
4530.00   24.16833365   0.09651294
4532.00   24.21196046   0.09645284
4534.00   24.27799785   0.09641529
4536.00   24.47036021   0.09679296
4538.00   24.75772033   0.09728395
4540.00   24.83825828   0.09750167
4542.00   24.84077962   0.09749380
4544.00   25.12433782   0.09781301
4546.00   25.30742430   0.09782117
4548.00   25.43228860   0.09780906
4550.00   25.39467130   0.09782580
4552.00   25.64097428   0.09803852
4554.00   25.97812524   0.09860166
4556.00   25.79006338   0.09836904
4558.00   26.05033139   0.09882583
4560.00   25.79089751   0.09856593
4562.00   26.04331712   0.09882162
4564.00   26.08329273   0.09881253
4566.00   26.13210252   0.09889857
4568.00   26.25791185   0.09899376
4570.00   26.29787988   0.09917835
4572.00   26.21945758   0.09909782
4574.00   26.09365014   0.09895303
4576.00   26.18195213   0.09897166
4578.00   26.16538899   0.09883174
4580.00   25.87807152   0.09815280
4582.00   25.75734848   0.09779385
4584.00   25.84973106   0.09771197
4586.00   25.77529646   0.09776733
4588.00   25.57560420   0.09744375
4590.00   25.57464400   0.09746806
4592.00   25.43441468   0.09719214
4594.00   25.69773199   0.09761753
4596.00   25.43651516   0.09710201
4598.00   25.23123993   0.09698091
4600.00   25.10809128   0.09677291
4602.00   25.01503097   0.09634124
4604.00   24.98509523   0.09641125
4606.00   24.82640702   0.09615034
4608.00   24.51980033   0.09573218
4610.00   24.26459776   0.09512885
4612.00   24.02389671   0.09468528
4614.00   23.65956738   0.09402644
4616.00   23.49094166   0.09356978
4618.00   23.29218780   0.09327729
4620.00   23.23933533   0.09319149
4622.00   23.05183082   0.09279804
4624.00   22.63984716   0.09221246
4626.00   22.55380111   0.09193632
4628.00   22.18873150   0.09136772
4630.00   22.05121688   0.09104667
4632.00   21.94807309   0.09074825
4634.00   21.82337657   0.09053712
4636.00   21.60450219   0.09002810
4638.00   21.44568602   0.08968652
4640.00   21.45360076   0.08957197
4642.00   21.10423930   0.08906323
4644.00   21.08123726   0.08896065
4646.00   20.83422052   0.08831769
4648.00   20.64852266   0.08801754
4650.00   20.43857820   0.08772620
4652.00   20.22484319   0.08735252
4654.00   20.12772124   0.08712313
4656.00   19.93134180   0.08679678
4658.00   19.96771833   0.08683803
4660.00   19.75693405   0.08649620
4662.00   19.72194615   0.08645788
4664.00   19.28915288   0.08568299
4666.00   19.37490319   0.08576014
4668.00   19.27068168   0.08557915
4670.00   19.20026796   0.08559220
4672.00   19.04907458   0.08532348
4674.00   19.02833227   0.08528116
4676.00   18.87114359   0.08469390
4678.00   18.86187007   0.08459651
4680.00   18.88090479   0.08464644
4682.00   18.57660949   0.08405081
4684.00   18.35656544   0.08327173
4686.00   18.37145748   0.08323063
4688.00   18.18019939   0.08289699
4690.00   17.91546311   0.08241954
4692.00   17.85761014   0.08231638
4694.00   17.83410430   0.08223199
4696.00   17.85003189   0.08210267
4698.00   17.64569457   0.08151067
4700.00   17.55726747   0.08118503
4702.00   17.24862807   0.08068721
4704.00   17.11998318   0.08046624
4706.00   16.83896338   0.07983561
4708.00   16.54572550   0.07933388
4710.00   16.36823433   0.07897240
4712.00   16.02325062   0.07835694
4714.00   15.78191780   0.07772088
4716.00   15.55447228   0.07709545
4718.00   15.31244278   0.07660236
4720.00   15.03128413   0.07600417
4722.00   14.86269206   0.07564329
4724.00   14.49915515   0.07497392
4726.00   14.50378125   0.07505973
4728.00   14.38742079   0.07502848
4730.00   14.24796304   0.07470078
4732.00   14.06741023   0.07442446
4734.00   14.02351896   0.07459070
4736.00   14.05665992   0.07472546
4738.00   13.79353882   0.07448347
4740.00   13.68393433   0.07458332
4742.00   13.74983001   0.07494348
4744.00   13.63908049   0.07431017
4746.00   13.65073554   0.07362537
4748.00   13.40664963   0.07274171
4750.00   13.36372329   0.07248472
4752.00   13.34853647   0.07258316
4754.00   13.25448942   0.07227434
4756.00   13.20310284   0.07178961
4758.00   13.33552833   0.07201660
4760.00   13.25275197   0.07173801
4762.00   13.32503632   0.07183035
4764.00   13.29313896   0.07171510
4766.00   13.31481303   0.07169231
4768.00   13.29264085   0.07154430
4770.00   13.47436570   0.07192478
4772.00   13.39477894   0.07168400
4774.00   13.49444166   0.07182796
4776.00   13.40467569   0.07181995
4778.00   13.49502081   0.07221361
4780.00   13.43265359   0.07193130
4782.00   13.47412257   0.07167937
4784.00   13.41337716   0.07122809
4786.00   13.31962491   0.07103724
4788.00   13.09077369   0.07055697
4790.00   13.20536589   0.07079919
4792.00   12.85686557   0.07008812
4794.00   12.94843630   0.07035815
4796.00   12.79761780   0.06986102
4798.00   12.70753287   0.06965441
4800.00   12.54693090   0.06911523
4802.00   12.54080006   0.06910097
4804.00   12.43867571   0.06880224
4806.00   12.21350414   0.06841994
4808.00   12.28659607   0.06839154
4810.00   12.15940190   0.06810636
4812.00   12.17630580   0.06825489
4814.00   11.95471813   0.06780530
4816.00   12.06693780   0.06811279
4818.00   11.92415443   0.06771451
4820.00   12.00617344   0.06806572
4822.00   11.99367620   0.06792838
4824.00   11.89147982   0.06778831
4826.00   11.84126291   0.06779184
4828.00   11.69412264   0.06840474
4830.00   11.82236184   0.06749723
4832.00   11.83268987   0.06756820
4834.00   11.81476179   0.06748092
4836.00   11.67570167   0.06720246
4838.00   11.61739229   0.06719147
4840.00   11.67333388   0.06734200
4842.00   11.51291580   0.06682282
4844.00   11.59983815   0.06691151
4846.00   11.41182843   0.06656404
4848.00   11.54808854   0.06667481
4850.00   11.57997262   0.06677102
4852.00   11.54536056   0.06663787
4854.00   11.61587901   0.06659987
4856.00   11.48656540   0.06615032
4858.00   11.50932052   0.06602527
4860.00   11.43349349   0.06559521
4862.00   11.59025800   0.06584726
4864.00   11.62344920   0.06624436
4866.00   11.62804686   0.06631551
4868.00   11.65791909   0.06628107
4870.00   11.79610575   0.06650245
4872.00   11.87998022   0.06658961
4874.00   11.82401636   0.06650721
4876.00   11.80707549   0.06642204
4878.00   11.82422631   0.06657296
4880.00   12.01451709   0.06686003
4882.00   11.90113248   0.06642337
4884.00   12.06548993   0.06660357
4886.00   12.19826992   0.06668591
4888.00   12.33569970   0.06701682
4890.00   12.47151810   0.06712572
4892.00   12.48756749   0.06722363
4894.00   12.55896937   0.06754299
4896.00   12.83768062   0.06806236
4898.00   12.79378081   0.06788795
4900.00   13.06474651   0.06823973
4902.00   12.90741803   0.06788571
4904.00   13.15741345   0.06838137
4906.00   13.37852007   0.06885150
4908.00   13.57610237   0.06945787
4910.00   13.77097233   0.06936454
4912.00   13.88802189   0.06964884
4914.00   14.05513527   0.07006091
4916.00   14.16530469   0.07026685
4918.00   14.22280837   0.07035073
4920.00   14.36577516   0.07051839
4922.00   14.51491212   0.07086967
4924.00   14.64889828   0.07108023
4926.00   14.78050054   0.07129158
4928.00   14.97258991   0.07156489
4930.00   14.89699654   0.07121260
4932.00   14.83457766   0.07100925
4934.00   14.51906760   0.07037131
4936.00   14.37463446   0.07000246
4938.00   14.16083831   0.06954483
4940.00   14.01398145   0.06916161
4942.00   13.75658977   0.06868360
4944.00   13.40715580   0.06796903
4946.00   13.28387302   0.06760199
4948.00   12.96703452   0.06712021
4950.00   12.91491239   0.06700849
4952.00   12.70764661   0.06670734
4954.00   12.42289741   0.06600881
4956.00   12.49292724   0.06586168
4958.00   12.13936623   0.06511411
4960.00   12.16997448   0.06519485
4962.00   12.18135085   0.06529141
4964.00   11.95533330   0.06496333
4966.00   11.94476783   0.06509539
4968.00   11.71200048   0.06461628
4970.00   11.73345796   0.06486386
4972.00   11.68686951   0.06499561
4974.00   11.76251265   0.06533108
4976.00   11.70326914   0.06544381
4978.00   11.59119071   0.06553527
4980.00   11.55809334   0.06566244
4982.00   11.47361650   0.06572803
4984.00   11.43831343   0.06551541
4986.00   11.29554523   0.06496736
4988.00   11.22233054   0.06453057
4990.00   11.25629142   0.06431374
4992.00   11.14592010   0.06382575
4994.00   11.19306401   0.06365333
4996.00   11.14207221   0.06329321
4998.00   11.01150456   0.06283936
5000.00   10.93717375   0.06236655
5002.00   10.88529333   0.06224486
5004.00   11.00028506   0.06219743
5006.00   10.92847796   0.06200155
5008.00   10.89887872   0.06205644
5010.00   10.91760917   0.06208412
5012.00   10.69227125   0.06156172
5014.00   10.88034164   0.06196704
5016.00   10.92306229   0.06199205
5018.00   10.86664771   0.06200104
5020.00   11.11256871   0.06258942
5022.00   11.04146778   0.06252493
5024.00   11.15175995   0.06255232
5026.00   11.20470815   0.06263695
5028.00   11.22680166   0.06280498
5030.00   11.30325997   0.06302676
5032.00   11.28547691   0.06301593
5034.00   11.45385334   0.06328964
5036.00   11.36437362   0.06301047
5038.00   11.46078182   0.06310378
5040.00   11.47914307   0.06299397
5042.00   11.50620675   0.06323928
5044.00   11.51574520   0.06341264
5046.00   11.64921619   0.06383511
5048.00   11.70756680   0.06394209
5050.00   11.92218665   0.06455374
5052.00   11.93589242   0.06457318
5054.00   11.93924505   0.06469045
5056.00   12.06519277   0.06485499
5058.00   12.21185721   0.06516990
5060.00   12.31248249   0.06547784
5062.00   12.34673626   0.06574161
5064.00   12.47833283   0.06610915
5066.00   12.41059733   0.06621662
5068.00   12.65249745   0.06689871
5070.00   12.48768692   0.06669920
5072.00   12.70166553   0.06688546
5074.00   12.69658920   0.06684399
5076.00   12.71478694   0.06693053
5078.00   12.88210839   0.06720461
5080.00   12.98308391   0.06819426
5082.00   12.95486382   0.06908044
5084.00   12.97659192   0.06968072
5086.00   13.12342508   0.06987377
5088.00   12.98068958   0.06920437
5090.00   13.13130855   0.06863855
5092.00   13.31764148   0.06859505
5094.00   13.27539809   0.06843819
5096.00   13.44748686   0.06866230
5098.00   13.46700073   0.06901987
5100.00   13.53253858   0.06932014
5102.00   13.55512783   0.06891908
5104.00   13.65224693   0.06899340
5106.00   13.81560531   0.06912944
5108.00   14.04432383   0.06963333
5110.00   14.14843776   0.07000463
5112.00   14.22651408   0.07028052
5114.00   14.40078154   0.07068708
5116.00   14.48275789   0.07096256
5118.00   14.68836962   0.07141620
5120.00   14.81491024   0.07149220
5122.00   14.93386550   0.07166070
5124.00   14.95327036   0.07161505
5126.00   15.18518558   0.07214151
5128.00   15.42473923   0.07246790
5130.00   15.62882536   0.07298919
5132.00   15.76433997   0.07349352
5134.00   15.80556535   0.07363732
5136.00   15.94284395   0.07388937
5138.00   16.26233176   0.07458999
5140.00   16.28770917   0.07456119
5142.00   16.51046840   0.07519119
5144.00   16.67549078   0.07544295
5146.00   16.69068519   0.07573572
5148.00   16.96481110   0.07642768
5150.00   16.96183004   0.07668206
5152.00   17.11818222   0.07731156
5154.00   17.22796728   0.07757927
5156.00   17.50115385   0.07817432
5158.00   17.63757699   0.07823428
5160.00   17.68788062   0.07828209
5162.00   17.64462111   0.07818575
5164.00   17.65167423   0.07805845
5166.00   17.74004257   0.07814444
5168.00   18.03301125   0.07864236
5170.00   18.10794775   0.07888547
5172.00   18.15135419   0.07907384
5174.00   18.18204538   0.07932804
5176.00   18.31468887   0.07988010
5178.00   18.41129517   0.08029285
5180.00   18.42210851   0.08047733
5182.00   18.28729202   0.07993835
5184.00   18.45088263   0.08027262
5186.00   18.60141818   0.08071400
5188.00   18.63304066   0.08087866
5190.00   18.75630068   0.08119150
5192.00   18.75116605   0.08129426
5194.00   18.83896045   0.08169443
5196.00   19.10404839   0.08242296
5198.00   18.91620786   0.08253245
5200.00   19.14583159   0.08303304
5202.00   19.19754567   0.08321433
5204.00   19.32041564   0.08335708
5206.00   19.33355980   0.08338857
5208.00   19.20906801   0.08339325
5210.00   19.54465688   0.08424998
5212.00   19.61186489   0.08459793
5214.00   19.44369605   0.08437607
5216.00   19.39550806   0.08443516
5218.00   19.63658163   0.08515681
5220.00   19.66986146   0.08542078
5222.00   19.68117244   0.08561843
5224.00   19.83004637   0.08558911
5226.00   19.75759567   0.08557514
5228.00   19.67867953   0.08562414
5230.00   19.98809477   0.08645549
5232.00   19.98750614   0.08655168
5234.00   19.88935859   0.08654517
5236.00   19.70827593   0.08652583
5238.00   19.57700400   0.08664365
5240.00   19.61266015   0.08688016
5242.00   19.68740565   0.08718734
5244.00   19.51978373   0.08697143
5246.00   19.60079847   0.08715496
5248.00   19.42234804   0.08692828
5250.00   19.16622509   0.08667888
5252.00   19.15237571   0.08676175
5254.00   18.91013910   0.08646242
5256.00   18.59769968   0.08624622
5258.00   18.40527570   0.08606395
5260.00   18.35131849   0.08605157
5262.00   18.11167905   0.08546940
5264.00   17.80683257   0.08485109
5266.00   17.72422351   0.08474458
5268.00   17.35610695   0.08405268
5270.00   17.16881714   0.08374617
5272.00   16.98522972   0.08362164
5274.00   16.77827153   0.08333427
5276.00   16.49554935   0.08305322
5278.00   16.23176332   0.08265322
5280.00   16.20669775   0.08261741
5282.00   15.96917255   0.08229005
5284.00   15.86895817   0.08233961
5286.00   15.71389131   0.08214203
5288.00   15.40382441   0.08155160
5290.00   15.19841173   0.08124374
5292.00   15.05955303   0.08104731
5294.00   14.95227130   0.08094826
5296.00   14.86085129   0.08099181
5298.00   14.82801838   0.08126053
5300.00   14.75676011   0.08130242
5302.00   14.62839389   0.08189367
5304.00   14.63317307   0.08174057
5306.00   14.43743912   0.08150875
5308.00   14.30711554   0.08147266
5310.00   14.46199520   0.08208833
5312.00   14.42446179   0.08211784
5314.00   14.43544527   0.08228166
5316.00   14.41430722   0.08248673
5318.00   14.45068186   0.08266898
5320.00   14.52421503   0.08296291
5322.00   14.61361180   0.08322989
5324.00   14.61800283   0.08346439
5326.00   14.53157337   0.08359058
5328.00   14.50135422   0.08373315
5330.00   14.65102816   0.08445281
5332.00   14.56592477   0.08445973
5334.00   14.60305013   0.08467163
5336.00   14.61999147   0.08493203
5338.00   14.71671720   0.08532309
5340.00   14.58028031   0.08540696
5342.00   14.66522114   0.08578434
5344.00   14.66721451   0.08590568
5346.00   14.62127062   0.08609515
5348.00   14.74835768   0.08668425
5350.00   14.55023747   0.08643238
5352.00   14.68975968   0.08684582
5354.00   14.60740418   0.08712977
5356.00   14.70748396   0.08774242
5358.00   14.64261862   0.08748351
5360.00   14.45480369   0.08726325
5362.00   14.48688304   0.08720437
5364.00   14.30929660   0.08697422
5366.00   14.37281359   0.08731055
5368.00   14.35578742   0.08733173
5370.00   14.31728291   0.08754419
5372.00   14.30623781   0.08794738
5374.00   14.65962015   0.08933228
5376.00   14.62511093   0.08957798
5378.00   14.65805190   0.08988468
5380.00   14.44568562   0.08967407
5382.00   14.68802839   0.09043849
5384.00   14.45408154   0.05202644
5386.00   14.68137693   0.05313062
5388.00   14.76891041   0.05280207
5390.00   14.46943903   0.05261523
5392.00   14.57543612   0.05461066
5394.00   14.59189367   0.05600211
5396.00   14.54261541   0.04923213
5398.00   14.55672979   0.04702145
5400.00   14.51954412   0.04839502
5402.00   14.36807919   0.04672450
5404.00   14.23976994   0.04673355
5406.00   14.21985960   0.04618271
5408.00   14.25455666   0.04610032
5410.00   14.02152681   0.04798716
5412.00   13.67428112   0.04855385
5414.00   13.74067640   0.04716156
5416.00   14.09774923   0.04516179
5418.00   13.89005280   0.04294843
5420.00   13.84024763   0.04257810
5422.00   13.65688515   0.04409582
5424.00   13.64336729   0.04345132
5426.00   13.65767288   0.04401188
5428.00   13.72916937   0.04509668
5430.00   13.83534718   0.04539449
5432.00   13.70890856   0.04613982
5434.00   13.77901793   0.04655163
5436.00   13.83736658   0.04577828
5438.00   13.81395102   0.04331790
5440.00   13.65027285   0.04325917
5442.00   13.42824745   0.04437673
5444.00   13.31245422   0.04415945
5446.00   13.41296482   0.04826955
5448.00   13.01057434   0.05285014
5450.00   13.01382780   0.04522162
5452.00   12.84095287   0.04074212
5454.00   12.78066540   0.04099409
5456.00   12.94293976   0.04393441
5458.00   12.93323612   0.04786956
5460.00   12.55654240   0.04703722
5462.00   12.30779266   0.04809678
5464.00   12.48927355   0.04393839
5466.00   12.59315395   0.04335532
5468.00   12.47915936   0.04346343
5470.00   12.12870502   0.04126078
5472.00   11.82120323   0.04038162
5474.00   11.86471558   0.04155241
5476.00   11.73347855   0.03934461
5478.00   11.86661243   0.04096082
5480.00   11.84688044   0.04154628
5482.00   11.58824110   0.04020941
5484.00   11.42706108   0.03978033
5486.00   11.41050720   0.04169846
5488.00   11.09780550   0.04237953
5490.00   11.26120758   0.04012905
5492.00   11.12288618   0.03908103
5494.00   11.08107042   0.03682563
5496.00   11.10026836   0.03556614
5498.00   11.07272911   0.03690113
5500.00   11.09313631   0.03835515
5502.00   11.11297178   0.03693118
5504.00   11.25741625   0.03768940
5506.00   11.04278088   0.03473840
5508.00   11.16991806   0.03618999
5510.00   11.55378723   0.04114926
5512.00   11.70450544   0.04225815
5514.00   11.57376528   0.03679403
5516.00   11.65757322   0.03613675
5518.00   11.79408407   0.03869566
5520.00   12.01409340   0.04004421
5522.00   12.01018476   0.03990110
5524.00   12.01338100   0.03837862
5526.00   12.26745510   0.03674299
5528.00   12.47603416   0.03672824
5530.00   12.45108747   0.03698843
5532.00   12.53151798   0.03452492
5534.00   12.78693581   0.03646922
5536.00   12.98219681   0.03807560
5538.00   13.07008219   0.03675258
5540.00   13.11138296   0.03563630
5542.00   13.20364952   0.03882091
5544.00   13.38648224   0.03726257
5546.00   13.31161070   0.03654043
5548.00   13.40463924   0.03603572
5550.00   13.69539690   0.03827573
5552.00   13.86185598   0.03994711
5554.00   13.73749113   0.03857613
5556.00   13.62148476   0.03865753
5558.00   13.68653774   0.03755599
5560.00   13.84393692   0.03812288
5562.00   13.91814184   0.03684652
5564.00   13.88989162   0.03758677
5566.00   13.97384262   0.03865973
5568.00   14.18143129   0.03716911
5570.00   14.14646053   0.03859074
5572.00   13.93734503   0.03794961
5574.00   14.19572639   0.03910057
5576.00   14.34624338   0.04465329
5578.00   14.27271414   0.04625026
5580.00   14.23841619   0.04167814
5582.00   14.34075165   0.03634351
5584.00   14.33151722   0.03550152
5586.00   14.44099903   0.03931837
5588.00   14.28161097   0.03664077
5590.00   14.47325802   0.03699641
5592.00   14.63247728   0.03696298
5594.00   14.56755304   0.03477207
5596.00   14.47302532   0.03516853
5598.00   14.49656153   0.03826644
5600.00   14.34063911   0.03450472
5602.00   14.23798084   0.03444160
5604.00   14.33137131   0.03662128
5606.00   14.49070168   0.03687618
5608.00   14.61079884   0.03576478
5610.00   14.59066534   0.03553890
5612.00   14.38705158   0.03370720
5614.00   14.65540791   0.03566779
5616.00   14.70230293   0.03887470
5618.00   14.53714848   0.03701820
5620.00   14.40275955   0.03424937
5622.00   14.32051754   0.03487934
5624.00   14.20077658   0.03611301
5626.00   14.20150518   0.03636315
5628.00   14.20501566   0.03502173
5630.00   14.22804356   0.03294144
5632.00   14.07315874   0.03303026
5634.00   13.94365072   0.03511498
5636.00   13.91189337   0.03638747
5638.00   13.83555412   0.03476572
5640.00   13.91620970   0.03203117
5642.00   13.98829031   0.03631509
5644.00   14.12130022   0.04062062
5646.00   14.07595158   0.03731405
5648.00   13.98176432   0.03254765
5650.00   14.00372791   0.03402180
5652.00   13.97515488   0.03480803
5654.00   13.82121992   0.03323082
5656.00   13.75154448   0.03149638
5658.00   13.74677086   0.03270856
5660.00   13.65992594   0.03519898
5662.00   13.55232954   0.03556246
5664.00   13.52369070   0.03327984
5666.00   13.53573036   0.03166766
5668.00   13.50484943   0.03180246
5670.00   13.49357605   0.03213993
5672.00   13.47254896   0.03277055
5674.00   13.40627813   0.03427593
5676.00   13.33025312   0.03474649
5678.00   13.36257172   0.03375541
5680.00   13.56753922   0.03394917
5682.00   13.58323956   0.03418914
5684.00   13.49964094   0.03454763
5686.00   13.47034454   0.03405096
5688.00   13.45728970   0.03369146
5690.00   13.35581684   0.03330525
5692.00   13.24400520   0.03312305
5694.00   13.29568148   0.03383327
5696.00   13.34357119   0.03321243
5698.00   13.19696188   0.03245770
5700.00   13.20928955   0.03298773
5702.00   13.25156546   0.03315607
5704.00   13.17431402   0.03230200
5706.00   13.10072756   0.03128347
5708.00   13.21219397   0.03128902
5710.00   13.19152641   0.03171004
5712.00   13.00746918   0.03119114
5714.00   12.94140053   0.03090022
5716.00   12.86401701   0.03128968
5718.00   12.70474958   0.03166472
5720.00   12.56442356   0.03111018
5722.00   12.47855854   0.02988545
5724.00   12.37492275   0.03056052
5726.00   12.38787794   0.03213558
5728.00   12.34976816   0.03144395
5730.00   12.31639624   0.03008886
5732.00   12.29002094   0.02989535
5734.00   12.18120241   0.02974147
5736.00   12.11040783   0.02864023
5738.00   12.15682888   0.03322987
5740.00   12.28194523   0.03285098
5742.00   12.10826731   0.03007628
5744.00   11.81270933   0.03027789
5746.00   11.74027014   0.03157885
5748.00   11.90652180   0.03025021
5750.00   11.90119457   0.03291305
5752.00   11.94100046   0.03298632
5754.00   11.96131516   0.03196328
5756.00   11.84496689   0.03036945
5758.00   11.66118670   0.02882706
5760.00   11.61608362   0.02833789
5762.00   11.77929926   0.02930896
5764.00   11.73215961   0.02991561
5766.00   11.60076618   0.02950204
5768.00   11.60288811   0.03192831
5770.00   11.57775307   0.03203093
5772.00   11.58268547   0.03095764
5774.00   11.63615274   0.03145919
5776.00   11.55171299   0.03223264
5778.00   11.45845175   0.03399854
5780.00   11.53578234   0.03004717
5782.00   11.54392958   0.02813681
5784.00   11.59129000   0.02951107
5786.00   11.60249996   0.03118037
5788.00   11.52140236   0.03167253
5790.00   11.41079617   0.03167265
5792.00   11.46517277   0.03355219
5794.00   11.60280371   0.03187751
5796.00   11.78565454   0.03004448
5798.00   11.92200518   0.02933132
5800.00   11.76130438   0.03634566
5802.00   11.50040913   0.04319009
5804.00   11.92861891   0.03424357
5806.00   12.20201015   0.03059765
5808.00   12.11253881   0.02965583
5810.00   11.96225357   0.03476686
5812.00   11.97139502   0.03311156
5814.00   12.19949484   0.02983711
5816.00   12.50734997   0.03138500
5818.00   12.59933949   0.03133033
5820.00   12.56252050   0.03174894
5822.00   12.47170210   0.03163175
5824.00   12.54336882   0.03129212
5826.00   12.52397251   0.03272698
5828.00   12.56571627   0.03304519
5830.00   12.76441002   0.03122523
5832.00   12.69721699   0.03370292
5834.00   12.66197491   0.03520601
5836.00   12.90589285   0.03342148
5838.00   12.95800877   0.03248385
5840.00   13.08616495   0.03320950
5842.00   13.23362303   0.03321825
5844.00   13.15798712   0.03168173
5846.00   13.14813423   0.03232491
5848.00   12.96316004   0.03454988
5850.00   13.13355494   0.03294527
5852.00   13.42581892   0.03065578
5854.00   13.48823071   0.03635440
5856.00   13.44149828   0.03937058
5858.00   13.48321772   0.03192210
5860.00   13.51761293   0.03029347
5862.00   13.71052837   0.03018927
5864.00   13.79786682   0.03143062
5866.00   13.81832790   0.03133960
5868.00   13.76664639   0.03143924
5870.00   13.73884296   0.03256787
5872.00   13.81042624   0.03338272
5874.00   13.81001472   0.03432254
5876.00   13.66518211   0.03458386
5878.00   13.67316532   0.03624437
5880.00   13.82044506   0.03587488
5882.00   13.78318644   0.03446727
5884.00   13.62826967   0.03376835
5886.00   13.65194607   0.03451274
5888.00   13.45965481   0.03738538
5890.00   13.57222795   0.03889635
5892.00   13.66868114   0.04011300
5894.00   13.62453890   0.03884342
5896.00   13.56412458   0.03695276
5898.00   13.67875099   0.03582689
5900.00   13.91374111   0.03404608
5902.00   13.76896763   0.03312228
5904.00   13.99752903   0.03306716
5906.00   14.01528549   0.03219401
5908.00   13.89348364   0.03294716
5910.00   13.93159819   0.03558635
5912.00   14.08582926   0.03657068
5914.00   13.98803616   0.03440726
5916.00   13.69512892   0.03342456
5918.00   13.76468706   0.03452801
5920.00   13.61136055   0.03457951
5922.00   13.62736511   0.03233581
5924.00   13.80844021   0.03111742
5926.00   13.90926552   0.03203049
5928.00   13.97494459   0.03119334
5930.00   13.85482693   0.03161156
5932.00   13.88250494   0.03303190
5934.00   14.04092407   0.03438075
5936.00   13.97343540   0.03164545
5938.00   13.70147562   0.02956186
5940.00   13.46314383   0.03141546
5942.00   13.36527061   0.03160077
5944.00   13.41876602   0.02976409
5946.00   13.39441013   0.03154458
5948.00   13.44949579   0.03092309
5950.00   13.53718138   0.02936170
5952.00   13.56863928   0.02873154
5954.00   13.49830532   0.02890267
5956.00   13.31262350   0.02849448
5958.00   13.19077063   0.02882956
5960.00   13.21703529   0.02952225
5962.00   13.21665478   0.02917162
5964.00   13.17397928   0.02936674
5966.00   13.07298517   0.03018937
5968.00   13.01986313   0.03013205
5970.00   13.15116644   0.02863684
5972.00   13.08489418   0.02800941
5974.00   12.96614647   0.02795752
5976.00   12.87737560   0.03031571
5978.00   12.82439709   0.03184400
5980.00   12.85869694   0.03173067
5982.00   12.97556973   0.03221426
5984.00   12.96955824   0.03462158
5986.00   12.93183947   0.03318446
5988.00   12.81802273   0.03416531
5990.00   12.70501375   0.03089069
5992.00   12.60776377   0.02785605
5994.00   12.58199024   0.02876577
5996.00   12.58455801   0.02935532
5998.00   12.57151937   0.02923866
6000.00   12.60329676   0.03293551
6002.00   12.43581629   0.03052343
6004.00   12.34685278   0.02767091
6006.00   12.32906151   0.02708890
6008.00   12.26000834   0.02766087
6010.00   12.19821930   0.02809601
6012.00   12.21724510   0.02995113
6014.00   12.37299538   0.03218385
6016.00   12.10025883   0.03286348
6018.00   11.89798307   0.03074017
6020.00   11.81755257   0.02754342
6022.00   11.73257542   0.02622279
6024.00   11.58858204   0.02619406
6026.00   11.55331516   0.02602411
6028.00   11.56856203   0.02667808
6030.00   11.64708948   0.02870508
6032.00   11.51427412   0.02916455
6034.00   11.22735214   0.02896557
6036.00   10.95580435   0.02884161
6038.00   10.70831251   0.02753011
6040.00   10.44441843   0.02513740
6042.00   10.32559443   0.02437082
6044.00   10.08765745   0.02434641
6046.00   9.72131300   0.02533824
6048.00   9.35794258   0.02617851
6050.00   9.09444022   0.02583047
6052.00   8.91035986   0.02491621
6054.00   8.56428695   0.02538354
6056.00   8.14522624   0.02484733
6058.00   7.78790712   0.02298570
6060.00   7.55885410   0.02280647
6062.00   7.40232491   0.02502934
6064.00   7.16170883   0.02626966
6066.00   6.76710844   0.02405754
6068.00   6.48359370   0.02205805
6070.00   6.23671508   0.02209156
6072.00   5.96395659   0.02279570
6074.00   5.78115582   0.02386480
6076.00   5.61800146   0.02334542
6078.00   5.39321828   0.02054504
6080.00   5.22297049   0.01972991
6082.00   5.10082793   0.01985891
6084.00   4.93356371   0.02036194
6086.00   4.76555848   0.01917593
6088.00   4.64442968   0.01895800
6090.00   4.56439352   0.01978503
6092.00   4.49597955   0.02000757
6094.00   4.46196139   0.02000155
6096.00   4.29455900   0.02015073
6098.00   4.18310380   0.01925693
6100.00   4.15008521   0.01837929
6102.00   4.10626423   0.01845498
6104.00   4.02295363   0.01866011
6106.00   3.91744232   0.01850074
6108.00   3.78035665   0.01971971
6110.00   3.80566049   0.02115926
6112.00   3.85333216   0.02021717
6114.00   3.83149457   0.01999706
6116.00   3.82056975   0.02106176
6118.00   3.79082322   0.02079353
6120.00   3.69784009   0.01810201
6122.00   3.66554105   0.01786910
6124.00   3.64697254   0.01853904
6126.00   3.61602247   0.01783172
6128.00   3.60658562   0.01749163
6130.00   3.60868335   0.01792982
6132.00   3.62200952   0.01789979
6134.00   3.65346420   0.01723668
6136.00   3.65553296   0.01803708
6138.00   3.71474802   0.01907188
6140.00   3.73201072   0.01873102
6142.00   3.62649071   0.01785836
6144.00   3.56591582   0.01732535
6146.00   3.58525932   0.01795896
6148.00   3.59101665   0.01889700
6150.00   3.62687480   0.01799551
6152.00   3.71509182   0.01771942
6154.00   3.74259579   0.01869083
6156.00   3.73898184   0.01880810
6158.00   3.76012695   0.01821776
6160.00   3.83967865   0.01863942
6162.00   3.94322014   0.01967054
6164.00   3.98798156   0.01923757
6166.00   3.95816231   0.02027523
6168.00   4.03149474   0.02064734
6170.00   4.12635064   0.01839341
6172.00   4.23429942   0.01733444
6174.00   4.34402668   0.01889621
6176.00   4.38439369   0.01986060
6178.00   4.36139250   0.01877306
6180.00   4.66143370   0.02056020
6182.00   4.69331598   0.01980101
6184.00   4.75655031   0.01891414
6186.00   4.84758806   0.01867544
6188.00   4.88763332   0.01868503
6190.00   4.99760079   0.01884923
6192.00   5.15743232   0.01809626
6194.00   5.21295547   0.01916858
6196.00   5.30955458   0.02045840
6198.00   5.46424484   0.01957394
6200.00   5.60394263   0.01866628
6202.00   5.72130942   0.01907560
6204.00   5.86027241   0.01918664
6206.00   5.96502018   0.01990884
6208.00   6.04000473   0.02017386
6210.00   6.19787979   0.01979365
6212.00   6.38079047   0.01978977
6214.00   6.55160737   0.02023907
6216.00   6.67020249   0.02055332
6218.00   6.77608442   0.02020070
6220.00   7.00588727   0.02130459
6222.00   7.17290640   0.02074423
6224.00   7.24308634   0.02113400
6226.00   7.41697955   0.02299736
6228.00   7.66966128   0.02389065
6230.00   7.82315278   0.02390566
6232.00   7.90483642   0.02658399
6234.00   7.83092737   0.02263609
6236.00   7.98312044   0.02195945
6238.00   8.05862141   0.02273412
6240.00   8.12648296   0.02226187
6242.00   8.29509377   0.02133104
6244.00   8.49748278   0.02148042
6246.00   8.59647894   0.02193135
6248.00   8.65631509   0.02284281
6250.00   8.82104707   0.02210936
6252.00   8.89222336   0.02197158
6254.00   8.90865993   0.02341029
6256.00   9.07002711   0.02551221
6258.00   9.29130912   0.02630836
6260.00   9.21748829   0.02428140
6262.00   9.37063909   0.02568605
6264.00   9.46572065   0.02547412
6266.00   9.54819679   0.02388671
6268.00   9.68751383   0.02454940
6270.00   9.82669497   0.02540059
6272.00   9.89836073   0.02382915
6274.00   9.95552683   0.02482948
6276.00   9.90940285   0.02451604
6278.00   9.92195082   0.02518365
6280.00   10.04885912   0.02436118
6282.00   10.17845058   0.02426294
6284.00   10.26987457   0.02532366
6286.00   10.32828712   0.02497346
6288.00   10.25582600   0.02353922
6290.00   10.30588484   0.02420379
6292.00   10.46167517   0.02434226
6294.00   10.47056150   0.02606033
6296.00   10.46429014   0.02710988
6298.00   10.57318830   0.02656763
6300.00   10.60920668   0.02683839
6302.00   10.42896748   0.02763808
6304.00   10.48720360   0.03018928
6306.00   10.63703012   0.02825684
6308.00   10.66362715   0.02758109
6310.00   10.69879198   0.02716543
6312.00   10.82201576   0.02499251
6314.00   10.89531136   0.02396568
6316.00   10.93573427   0.02502042
6318.00   10.87780380   0.02435999
6320.00   10.85621071   0.02380776
6322.00   10.79587793   0.02475704
6324.00   10.78425217   0.02535433
6326.00   10.80138493   0.02513591
6328.00   10.71490049   0.02570605
6330.00   10.79279900   0.02560483
6332.00   11.07131767   0.02505106
6334.00   11.04048681   0.02498728
6336.00   10.91635323   0.02699170
6338.00   10.91609192   0.02702533
6340.00   11.00213575   0.02436320
6342.00   10.98427200   0.02442817
6344.00   10.98816395   0.02443548
6346.00   11.02035236   0.02487331
6348.00   11.01744366   0.02540303
6350.00   10.98880863   0.02512169
6352.00   10.96186781   0.02407158
6354.00   10.97204065   0.02341804
6356.00   10.98973417   0.02343668
6358.00   11.00554276   0.02394099
6360.00   10.97937155   0.02381579
6362.00   10.89333534   0.02672453
6364.00   10.88749981   0.02735001
6366.00   10.90351200   0.02537315
6368.00   10.84694910   0.02400592
6370.00   10.75520277   0.02733144
6372.00   10.76964092   0.02900802
6374.00   10.91917944   0.02626320
6376.00   10.93981409   0.02382067
6378.00   10.96718454   0.02324965
6380.00   10.95170832   0.02474510
6382.00   10.83036232   0.02731969
6384.00   10.72711992   0.02815451
6386.00   10.77772093   0.02444959
6388.00   10.80316353   0.02504682
6390.00   10.94095135   0.02503510
6392.00   10.93864918   0.02485506
6394.00   10.84628677   0.02503433
6396.00   10.84273672   0.02547647
6398.00   10.73109722   0.02744848
6400.00   10.60197020   0.02761292
6402.00   10.59884214   0.02611802
6404.00   10.68081188   0.02447427
6406.00   10.77253962   0.02356537
6408.00   10.81739950   0.02328765
6410.00   10.78426933   0.02401697
6412.00   10.57960939   0.02700542
6414.00   10.62980509   0.02637952
6416.00   10.78670597   0.02389308
6418.00   10.77159452   0.02276011
6420.00   10.70627260   0.02255993
6422.00   10.69067621   0.02310244
6424.00   10.68790483   0.02517227
6426.00   10.67156792   0.02672953
6428.00   10.68185568   0.02428532
6430.00   10.64186478   0.02412550
6432.00   10.76857662   0.02378077
6434.00   10.74123335   0.02509415
6436.00   10.54375696   0.02629070
6438.00   10.54442787   0.02429056
6440.00   10.66990852   0.02273242
6442.00   10.64588356   0.02267882
6444.00   10.58715916   0.02417768
6446.00   10.57347775   0.02472541
6448.00   10.54458666   0.02406931
6450.00   10.49952936   0.02340656
6452.00   10.50797224   0.02333402
6454.00   10.40670490   0.02449497
6456.00   10.41581059   0.02525506
6458.00   10.39471912   0.02491810
6460.00   10.38851070   0.02418755
6462.00   10.40485430   0.02330627
6464.00   10.41227102   0.02272900
6466.00   10.35837317   0.02355010
6468.00   10.28119707   0.02387970
6470.00   10.18235683   0.02370519
6472.00   10.21232319   0.02318558
6474.00   10.22291422   0.02319700
6476.00   10.21049881   0.02334641
6478.00   10.22266388   0.02298312
6480.00   10.20669508   0.02246225
6482.00   10.12275171   0.02344470
6484.00   10.18377924   0.02287118
6486.00   10.17708015   0.02363658
6488.00   10.07484484   0.02436757
6490.00   10.08085394   0.02410460
6492.00   10.22902584   0.02379433
6494.00   10.25256872   0.02513992
6496.00   10.18829679   0.02389420
6498.00   10.20592451   0.02387974
6500.00   10.19096041   0.02550916
6502.00   10.18892717   0.02559500
6504.00   10.19443417   0.02434150
6506.00   10.19291878   0.02385840
6508.00   10.24701357   0.02437738
6510.00   10.21151495   0.02389683
6512.00   10.03666925   0.02231076
6514.00   9.84524441   0.02278253
6516.00   9.74582624   0.02404672
6518.00   9.79632568   0.02348342
6520.00   9.90681601   0.02211589
6522.00   9.87822628   0.02530084
6524.00   9.93882370   0.03049511
6526.00   10.21013498   0.03115634
6528.00   10.18567896   0.02684574
6530.00   10.01773119   0.02379083
6532.00   9.88070202   0.02479207
6534.00   9.77172136   0.02595254
6536.00   9.75005388   0.02489404
6538.00   9.77552700   0.02510429
6540.00   9.83165503   0.02529703
6542.00   9.79471731   0.02415431
6544.00   9.62782621   0.02313840
6546.00   9.50660801   0.02314756
6548.00   9.56655908   0.02345079
6550.00   9.62224770   0.02301664
6552.00   9.44205785   0.02226526
6554.00   9.39505744   0.02165873
6556.00   9.46000934   0.02138439
6558.00   9.47819495   0.02174421
6560.00   9.38411355   0.02252686
6562.00   9.27349615   0.02279555
6564.00   9.27855802   0.02158754
6566.00   9.33378506   0.02141396
6568.00   9.32545590   0.02287268
6570.00   9.25448275   0.02298253
6572.00   9.14808631   0.02211362
6574.00   9.05820990   0.02236094
6576.00   9.05912280   0.02415811
6578.00   9.06674361   0.02430703
6580.00   9.05739379   0.02256642
6582.00   9.01780725   0.02136872
6584.00   9.03140569   0.02174543
6586.00   8.99178910   0.02168098
6588.00   8.90311360   0.02141787
6590.00   8.90813994   0.02275006
6592.00   8.78622222   0.02209313
6594.00   8.88216853   0.02098971
6596.00   8.82594848   0.02068310
6598.00   8.74613118   0.02065273
6600.00   8.71029258   0.02055118
6602.00   8.70150328   0.02043906
6604.00   8.63670397   0.02045447
6606.00   8.41916585   0.02044804
6608.00   8.48855114   0.02090700
6610.00   8.51584053   0.02057220
6612.00   8.44837642   0.02049493
6614.00   8.39066553   0.02092441
6616.00   8.37505555   0.02116557
6618.00   8.29048181   0.02073836
6620.00   8.26219058   0.02092972
6622.00   8.33205462   0.02029179
6624.00   8.28758192   0.02178980
6626.00   8.21843791   0.02149774
6628.00   8.16582727   0.02043479
6630.00   8.12003446   0.02075346
6632.00   8.06085348   0.01990556
6634.00   8.02999139   0.01955354
6636.00   8.04740286   0.02029001
6638.00   7.99750805   0.02023728
6640.00   7.88222265   0.02109362
6642.00   7.81772494   0.02150208
6644.00   7.83225274   0.02036756
6646.00   7.79072189   0.02015380
6648.00   7.79642010   0.01947609
6650.00   7.79059148   0.02044722
6652.00   7.70767260   0.02102701
6654.00   7.72460675   0.02112891
6656.00   7.77907681   0.02063267
6658.00   7.70435500   0.01965060
6660.00   7.65160131   0.02002394
6662.00   7.60970497   0.02043814
6664.00   7.56926918   0.01983204
6666.00   7.49323940   0.02009739
6668.00   7.44047213   0.02020151
6670.00   7.41382289   0.01935379
6672.00   7.41912007   0.01939899
6674.00   7.49234915   0.02159290
6676.00   7.50112939   0.02164799
6678.00   7.31840158   0.02065613
6680.00   7.29826880   0.02029346
6682.00   7.28186226   0.02054886
6684.00   7.22059202   0.02192954
6686.00   7.24919581   0.02321933
6688.00   7.28841829   0.02115825
6690.00   7.21663833   0.01951988
6692.00   7.23512077   0.01923981
6694.00   7.21559620   0.01914204
6696.00   7.16714954   0.01976455
6698.00   7.11979866   0.02039383
6700.00   7.05391717   0.01954209
6702.00   7.00538993   0.01936547
6704.00   7.10687351   0.02027552
6706.00   7.05342174   0.01983220
6708.00   6.94097328   0.01946219
6710.00   6.91296196   0.02014645
6712.00   6.91756582   0.02089892
6714.00   6.83230019   0.02032060
6716.00   6.74058032   0.01998158
6718.00   6.74520087   0.01969582
6720.00   6.82413363   0.01920041
6722.00   6.81855130   0.02005500
6724.00   6.75965834   0.02019743
6726.00   6.72682929   0.01874853
6728.00   6.67314577   0.01793171
6730.00   6.57709002   0.01806847
6732.00   6.62374353   0.01845611
6734.00   6.64912343   0.01911616
6736.00   6.61425424   0.01937317
6738.00   6.54725480   0.01911591
6740.00   6.50173640   0.01874171
6742.00   6.49740744   0.01897625
6744.00   6.42202401   0.02158850
6746.00   6.33332658   0.02309489
6748.00   6.36886978   0.02035249
6750.00   6.41214728   0.01832137
6752.00   6.41084099   0.01841292
6754.00   6.40630770   0.01808878
6756.00   6.38441133   0.01849294
6758.00   6.35144901   0.01925531
6760.00   6.33180666   0.01943108
6762.00   6.30482578   0.01932555
6764.00   6.36608839   0.01913417
6766.00   6.39617753   0.01924749
6768.00   6.30299926   0.01954625
6770.00   6.28067732   0.01962829
6772.00   6.22681952   0.01789125
6774.00   6.22188139   0.01753159
6776.00   6.20277810   0.01752328
6778.00   6.15601492   0.01751157
6780.00   6.12220693   0.01787139
6782.00   6.10924172   0.01852471
6784.00   6.07209969   0.01857618
6786.00   6.10982013   0.01790821
6788.00   6.06033444   0.01848457
6790.00   6.06940460   0.01929937
6792.00   6.07680893   0.01856225
6794.00   6.03928351   0.01716309
6796.00   5.98620391   0.01806574
6798.00   5.91604042   0.02065572
6800.00   5.94488263   0.01794923
6802.00   6.00964332   0.01838735
6804.00   6.04532909   0.01866606
6806.00   6.06930470   0.01860949
6808.00   6.03630853   0.01812211
6810.00   5.91371131   0.01768726
6812.00   5.81848598   0.01994660
6814.00   5.92937446   0.02088371
6816.00   5.91249704   0.02010699
6818.00   5.93516278   0.01873470
6820.00   5.94293857   0.01753865
6822.00   5.90302086   0.01696093
6824.00   5.90951133   0.01723706
6826.00   5.99040651   0.01834066
6828.00   5.97754455   0.01853456
6830.00   5.95251274   0.01808976
6832.00   5.91997552   0.01790913
6834.00   5.94610620   0.01757420
6836.00   5.99687386   0.01773413
6838.00   5.99641824   0.01917969
6840.00   6.00213766   0.02013323
6842.00   5.82739735   0.02084827
6844.00   5.87672496   0.01918947
6846.00   5.92032075   0.01789766
6848.00   5.92455077   0.01750961
6850.00   5.95998836   0.01764800
6852.00   6.01645517   0.01821931
6854.00   5.93964219   0.01784858
6856.00   5.90474963   0.01714613
6858.00   5.86924314   0.01700764
6860.00   5.91768551   0.01748157
6862.00   6.02781105   0.01854490
6864.00   5.99634409   0.01934747
6866.00   5.67429733   0.01924899
6868.00   5.45398021   0.02000378
6870.00   5.56012511   0.02050336
6872.00   5.70860982   0.02001235
6874.00   5.76576185   0.01925317
6876.00   5.76030254   0.01910661
6878.00   5.82716918   0.01930782
6880.00   6.01025438   0.01870753
6882.00   5.94832182   0.01845730
6884.00   5.66363335   0.01985992
6886.00   5.63117695   0.02068527
6888.00   5.72639990   0.02024162
6890.00   5.74623609   0.01912113
6892.00   5.66862893   0.01886532
6894.00   5.61262512   0.02027458
6896.00   5.61543059   0.02034675
6898.00   5.70865512   0.01863476
6900.00   5.71296000   0.01878524
6902.00   5.66868830   0.01896610
6904.00   5.65685987   0.01824920
6906.00   5.67075992   0.01752203
6908.00   5.64478564   0.01765985
6910.00   5.62559462   0.01751321
6912.00   5.55884051   0.01800312
6914.00   5.48902202   0.01856360
6916.00   5.46571040   0.01809802
6918.00   5.50573111   0.01721227
6920.00   5.55236602   0.01723384
6922.00   5.51163149   0.01727931
6924.00   5.45687079   0.01738473
6926.00   5.44660044   0.01757982
6928.00   5.43475962   0.01739284
6930.00   5.42028594   0.01710104
6932.00   5.41960502   0.01692321
6934.00   5.43841386   0.01689524
6936.00   5.44703889   0.01710578
6938.00   5.27348614   0.01712655
6940.00   5.25556588   0.01734843
6942.00   5.38258529   0.01701644
6944.00   5.43400049   0.01690487
6946.00   5.37944055   0.01745809
6948.00   5.32539129   0.01813546
6950.00   5.25263476   0.01809180
6952.00   5.16762090   0.01723935
6954.00   5.18294716   0.01697465
6956.00   5.24490595   0.01766634
6958.00   5.25538492   0.01796716
6960.00   5.24293709   0.01753640
6962.00   5.29313755   0.01722669
6964.00   5.25986409   0.01737695
6966.00   5.26072288   0.01653387
6968.00   5.22764277   0.01636109
6970.00   5.20344043   0.01668511
6972.00   5.19114089   0.01673285
6974.00   5.17919040   0.01650941
6976.00   5.16524935   0.01648205
6978.00   5.10731936   0.01649614
6980.00   5.13871789   0.01729513
6982.00   5.13979554   0.01696501
6984.00   5.14558172   0.01684995
6986.00   5.08602929   0.01706682
6988.00   5.00443745   0.01701815
6990.00   5.03558302   0.01643819
6992.00   5.06825376   0.01649607
6994.00   5.11225247   0.01632844
6996.00   4.96976924   0.01795575
6998.00   4.91448116   0.01873860
7000.00   4.95517492   0.01788702
7002.00   4.98158789   0.01679141
7004.00   5.02646279   0.01651364
7006.00   5.07642651   0.01740862
7008.00   5.06250238   0.01671781
7010.00   5.01122522   0.01626154
7012.00   4.99134827   0.01617433
7014.00   4.97794414   0.01613371
7016.00   4.97086453   0.01613830
7018.00   5.01947093   0.01632243
7020.00   4.97708845   0.01599234
7022.00   5.00045943   0.01961934
7024.00   4.92780709   0.01873010
7026.00   4.85445690   0.01659409
7028.00   4.83596134   0.01572420
7030.00   4.88236809   0.01613382
7032.00   4.98164058   0.01731131
7034.00   4.93211293   0.01756709
7036.00   4.85791492   0.01666193
7038.00   4.81985378   0.01650157
7040.00   4.81844187   0.01629818
7042.00   4.86178279   0.01679568
7044.00   4.91409898   0.01763010
7046.00   4.90108013   0.01684928
7048.00   4.92761922   0.01851833
7050.00   4.88242722   0.01846232
7052.00   4.79233873   0.01688725
7054.00   4.81696796   0.01636053
7056.00   4.87145877   0.01656042
7058.00   4.85026908   0.01614406
7060.00   4.83894277   0.01621200
7062.00   4.83588135   0.01636608
7064.00   4.83161736   0.01678430
7066.00   4.81436956   0.01687338
7068.00   4.75585091   0.01664184
7070.00   4.73823559   0.01675432
7072.00   4.79880047   0.01711526
7074.00   4.80881548   0.01636384
7076.00   4.77283013   0.01633301
7078.00   4.73783946   0.01657238
7080.00   4.74575031   0.01634869
7082.00   4.80952275   0.01644004
7084.00   4.84312630   0.01658191
7086.00   4.77308953   0.01650632
7088.00   4.70860875   0.01702939
7090.00   4.69971848   0.01662174
7092.00   4.73674476   0.01637595
7094.00   4.78993893   0.01678314
7096.00   4.77932048   0.01636212
7098.00   4.73906851   0.01611455
7100.00   4.76872087   0.01761403
7102.00   4.78084278   0.01792488
7104.00   4.70656455   0.01624334
7106.00   4.70899320   0.01623279
7108.00   4.70128417   0.01712489
7110.00   4.70788598   0.01714973
7112.00   4.76435053   0.01629708
7114.00   4.79888296   0.01634885
7116.00   4.72987390   0.01594742
7118.00   4.66857409   0.01691615
7120.00   4.61387134   0.01711787
7122.00   4.65948832   0.01608644
7124.00   4.69171953   0.01546773
7126.00   4.65030050   0.01599179
7128.00   4.63321066   0.01641760
7130.00   4.58078706   0.01555651
7132.00   4.60742140   0.01604682
7134.00   4.62318361   0.01627736
7136.00   4.59949899   0.01644863
7138.00   4.57682812   0.01632074
7140.00   4.58746672   0.01591225
7142.00   4.60215938   0.01590932
7144.00   4.53447592   0.01608962
7146.00   4.50967240   0.01606877
7148.00   4.50911736   0.01583529
7150.00   4.55905187   0.01608656
7152.00   4.58824742   0.01633412
7154.00   4.55639625   0.01589662
7156.00   4.49328661   0.01561610
7158.00   4.43780029   0.01539665
7160.00   4.50861955   0.01542877
7162.00   4.52995145   0.01579023
7164.00   4.49490464   0.01667964
7166.00   4.47232091   0.01677356
7168.00   4.46812975   0.01643194
7170.00   4.44205165   0.01722570
7172.00   4.44411218   0.01640363
7174.00   4.33241689   0.01612654
7176.00   4.31013620   0.01641466
7178.00   4.45694244   0.01723471
7180.00   4.55753028   0.01752867
7182.00   4.44069195   0.01738645
7184.00   4.24979436   0.01718004
7186.00   4.38707888   0.01699364
7188.00   4.47231448   0.01751673
7190.00   4.41503143   0.01710761
7192.00   4.31847394   0.01788180
7194.00   4.34984159   0.01848884
7196.00   4.46866548   0.01723172
7198.00   4.38957202   0.01745376
7200.00   4.37315619   0.01807396
7202.00   4.36215842   0.01684773
7204.00   4.30236852   0.01676394
7206.00   4.30388653   0.01659419
7208.00   4.36127412   0.01617253
7210.00   4.37832344   0.01643194
7212.00   4.39772475   0.01644789
7214.00   4.40075374   0.01632304
7216.00   4.40718472   0.01615663
7218.00   4.42263818   0.01628101
7220.00   4.39502430   0.01615103
7222.00   4.35750163   0.01589619
7224.00   4.39787424   0.01572070
7226.00   4.49863100   0.01558243
7228.00   4.57529223   0.01622943
7230.00   4.33452010   0.01739290
7232.00   4.15015531   0.01711286
7234.00   4.21684790   0.01641832
7236.00   4.40003049   0.01652033
7238.00   4.43793511   0.01725517
7240.00   4.30727005   0.01745151
7242.00   4.29973888   0.01773289
7244.00   4.37210751   0.01766897
7246.00   4.41926050   0.01694944
7248.00   4.39999700   0.01688740
7250.00   4.31422889   0.01776226
7252.00   4.22689199   0.01820882
7254.00   4.34050453   0.01735455
7256.00   4.44437683   0.01643254
7258.00   4.47319841   0.01601975
7260.00   4.45761871   0.01601106
7262.00   4.36373091   0.01701512
7264.00   4.28474700   0.01813414
7266.00   4.36232352   0.01725918
7268.00   4.42757535   0.01633317
7270.00   4.37643242   0.01735000
7272.00   4.41329002   0.01789126
7274.00   4.35652244   0.01780219
7276.00   4.23859143   0.01773984
7278.00   4.22409451   0.01754673
7280.00   4.34473920   0.01681701
7282.00   4.43095207   0.01799475
7284.00   4.44703948   0.01819164
7286.00   4.33688414   0.01734819
7288.00   4.24005890   0.01712710
7290.00   4.26075470   0.01688530
7292.00   4.34552276   0.01598977
7294.00   4.36935723   0.01607248
7296.00   4.38620973   0.01625281
7298.00   4.45147288   0.01738756
7300.00   4.37879741   0.01810720
7302.00   4.26175261   0.01795408
7304.00   4.26319802   0.01693184
7306.00   4.36413264   0.01613722
7308.00   4.39411914   0.01725307
7310.00   4.37777221   0.01838994
7312.00   4.34027922   0.01749152
7314.00   4.31930184   0.01736185
7316.00   4.20648444   0.01718645
7318.00   4.08166575   0.01678648
7320.00   4.11274624   0.01651669
7322.00   4.27806318   0.01568080
7324.00   4.26670742   0.01529845
7326.00   4.20366383   0.01572771
7328.00   4.16885579   0.01641719
7330.00   4.16494238   0.01623628
7332.00   4.16335833   0.01557791
7334.00   4.18992698   0.01558059
7336.00   4.23675096   0.01650883
7338.00   4.19517577   0.01810372
7340.00   4.08728075   0.01875804
7342.00   4.08816588   0.01702112
7344.00   4.07794976   0.01645186
7346.00   3.99109352   0.01711426
7348.00   3.92353547   0.01635549
7350.00   3.96222901   0.01506160
7352.00   3.95894396   0.01634995
7354.00   3.99648595   0.01678681
7356.00   3.96003711   0.01596833
7358.00   3.90720236   0.01582292
7360.00   3.90079975   0.01610483
7362.00   3.92305744   0.01533970
7364.00   3.90723550   0.01570831
7366.00   3.87862623   0.01624910
7368.00   3.84676623   0.01670551
7370.00   3.79639697   0.01585783
7372.00   3.78448355   0.01493581
7374.00   3.77964473   0.01460240
7376.00   3.70926714   0.01457965
7378.00   3.72039509   0.01508260
7380.00   3.70431328   0.01507506
7382.00   3.68616676   0.01458312
7384.00   3.62295961   0.01459825
7386.00   3.56271899   0.01516221
7388.00   3.55841708   0.01538052
7390.00   3.58933151   0.01506022
7392.00   3.52195883   0.01497172
7394.00   3.43852031   0.01838992
7396.00   3.43256938   0.01820486
7398.00   3.47400784   0.01647502
7400.00   3.50317132   0.01552143
7402.00   3.49373233   0.01569605
7404.00   3.47754395   0.01511868
7406.00   3.49716067   0.01559743
7408.00   3.33298385   0.01453516
7410.00   3.30469906   0.01481743
7412.00   3.21745491   0.01577665
7414.00   3.17115641   0.01661150
7416.00   3.21657646   0.01619266
7418.00   3.15537465   0.01416536
7420.00   3.12500358   0.01356657
7422.00   3.10048592   0.01346259
7424.00   3.08262634   0.01348534
7426.00   3.06018257   0.01405900
7428.00   3.03957832   0.01418592
7430.00   2.98848557   0.01405310
7432.00   2.93264556   0.01480920
7434.00   2.99002838   0.01461804
7436.00   2.90641558   0.01464084
7438.00   2.89022076   0.01439132
7440.00   2.84590268   0.01415561
7442.00   2.83474886   0.01436928
7444.00   2.88038194   0.01451671
7446.00   2.84492052   0.01413294
7448.00   2.85096204   0.01343135
7450.00   2.85533905   0.01332724
7452.00   2.81743944   0.01352575
7454.00   2.78349590   0.01337806
7456.00   2.77776134   0.01356712
7458.00   2.78306985   0.01443384
7460.00   2.78863823   0.01440158
7462.00   2.83061624   0.01394140
7464.00   2.82059109   0.01354154
7466.00   2.78207135   0.01337020
7468.00   2.77153385   0.01345004
7470.00   2.77537155   0.01362581
7472.00   2.74797761   0.01404868
7474.00   2.74686670   0.01488879
7476.00   2.74651921   0.01396066
7478.00   2.70766401   0.01354335
7480.00   2.73169458   0.01368732
7482.00   2.74059570   0.01429216
7484.00   2.71761012   0.01442213
7486.00   2.71552742   0.01401893
7488.00   2.73957336   0.01466630
7490.00   2.73317468   0.01478740
7492.00   2.71913052   0.01460917
7494.00   2.78286982   0.01552863
7496.00   2.79217374   0.01510558
7498.00   2.71848786   0.01362536
7500.00   2.67438829   0.01336047
7502.00   2.70885885   0.01379095
7504.00   2.76237917   0.01353767
7506.00   2.72651398   0.01329370
7508.00   2.69767582   0.01340998
7510.00   2.74045074   0.01362771
7512.00   2.78552210   0.01371538
7514.00   2.76333427   0.01372127
7516.00   2.75276792   0.01350440
7518.00   2.69746101   0.01334466
7520.00   2.71045852   0.01372123
7522.00   2.74572718   0.01443887
7524.00   2.76148009   0.01502687
7526.00   2.75102508   0.01541938
7528.00   2.73562384   0.01512657
7530.00   2.74262083   0.01420112
7532.00   2.77893186   0.01388435
7534.00   2.77889276   0.01429446
7536.00   2.79997730   0.01460102
7538.00   2.83738279   0.01453988
7540.00   2.85374129   0.01420837
7542.00   2.84230053   0.01406804
7544.00   2.79440749   0.01378558
7546.00   2.80370021   0.01344595
7548.00   2.87204814   0.01392646
7550.00   2.89868867   0.01525827
7552.00   2.89131725   0.01550502
7554.00   2.89893210   0.01442561
7556.00   2.92305624   0.01371665
7558.00   2.94063652   0.01406113
7560.00   3.01629674   0.01475905
7562.00   2.98014891   0.01452322
7564.00   2.94309282   0.01416675
7566.00   2.94557357   0.01417260
7568.00   2.94334328   0.01432817
7570.00   2.93249393   0.01448098
7572.00   2.98665667   0.01470071
7574.00   2.97184885   0.01444138
7576.00   2.93024457   0.01410391
7578.00   2.95187199   0.01388283
7580.00   2.99606526   0.01427660
7582.00   3.01293623   0.01505237
7584.00   3.02289653   0.01491470
7586.00   2.99178219   0.01428853
7588.00   2.99482214   0.01462750
7590.00   3.12451708   0.01657549
7592.00   3.08341622   0.01770466
7594.00   2.82711351   0.01777517
7596.00   2.63624740   0.01897769
7598.00   2.75865149   0.02265617
7600.00   2.86635900   0.02514142
7602.00   2.72493863   0.03187492
7604.00   2.61271846   0.03354559
7606.00   2.64309478   0.03109275
7608.00   2.85071373   0.02834157
7610.00   3.04527414   0.02648098
7612.00   2.97419238   0.02257004
7614.00   3.09833014   0.02148276
7616.00   3.32849276   0.01985742
7618.00   3.34157646   0.01888631
7620.00   3.19150865   0.01893355
7622.00   3.06188345   0.01909914
7624.00   3.02140081   0.01924843
7626.00   2.94561708   0.02062124
7628.00   2.89808547   0.02099889
7630.00   2.96147943   0.02023971
7632.00   3.05094039   0.02128622
7634.00   3.12664258   0.02180795
7636.00   3.16260755   0.02092100
7638.00   3.14548242   0.02013145
7640.00   3.11845207   0.01997055
7642.00   3.20418656   0.01901816
7644.00   3.22957087   0.01843158
7646.00   3.20221329   0.01866774
7648.00   3.17485154   0.01878367
7650.00   3.17538810   0.01792373
7652.00   3.19444311   0.01708428
7654.00   3.25924253   0.01826123
7656.00   3.31906891   0.01795476
7658.00   3.27068639   0.01699103
7660.00   3.22429502   0.01639006
7662.00   3.20441675   0.01680624
7664.00   3.19448864   0.01748506
7666.00   3.18443882   0.01704775
7668.00   3.19556034   0.01543583
7670.00   3.19597244   0.01525411
7672.00   3.26144969   0.01538894
7674.00   3.24000049   0.01527445
7676.00   3.19261992   0.01491480
7678.00   3.23487508   0.01500831
7680.00   3.30623460   0.01570333
7682.00   3.23154163   0.01541968
7684.00   3.16091824   0.01535035
7686.00   3.23024225   0.01552698
7688.00   3.24792826   0.01538140
7690.00   3.22308958   0.01511935
7692.00   3.24528563   0.01495348
7694.00   3.27781999   0.01475404
7696.00   3.24500871   0.01508646
7698.00   3.29004049   0.01556811
7700.00   3.29390430   0.01552814
7702.00   3.25889802   0.01530167
7704.00   3.25474119   0.01530948
7706.00   3.30877447   0.01579030
7708.00   3.37509739   0.01644160
7710.00   3.34737885   0.01766356
7712.00   3.29735529   0.01760679
7714.00   3.26941109   0.01703936
7716.00   3.27777267   0.01665320
7718.00   3.26871932   0.01630314
7720.00   3.25977242   0.01583657
7722.00   3.32207716   0.01585458
7724.00   3.36945784   0.01587658
7726.00   3.28555083   0.01558722
7728.00   3.28352213   0.01520859
7730.00   3.32416511   0.01560259
7732.00   3.32956433   0.01603087
7734.00   3.29757833   0.01578144
7736.00   3.32514632   0.01570412
7738.00   3.33371615   0.01552537
7740.00   3.26158679   0.01495455
7742.00   3.31296945   0.01552217
7744.00   3.34446049   0.01668496
7746.00   3.30476880   0.01749881
7748.00   3.31052792   0.01760185
7750.00   3.39117455   0.01749469
7752.00   3.34477520   0.01667513
7754.00   3.35544181   0.01639699
7756.00   3.39648700   0.01619502
7758.00   3.39459169   0.01661488
7760.00   3.36783552   0.01710664
7762.00   3.39222777   0.01646350
7764.00   3.44659758   0.01561184
7766.00   3.41692305   0.01565089
7768.00   3.43061352   0.01578294
7770.00   3.46476066   0.01585722
7772.00   3.49139655   0.01577408
7774.00   3.48006999   0.01585519
7776.00   3.46782970   0.01617353
7778.00   3.47319174   0.01600988
7780.00   3.45740509   0.01657510
7782.00   3.47354186   0.01612770
7784.00   3.54485631   0.01724939
7786.00   3.59311223   0.01799094
7788.00   3.54824293   0.01695006
7790.00   3.48456907   0.01629682
7792.00   3.51363981   0.01732309
7794.00   3.58889854   0.01739437
7796.00   3.62484002   0.01736807
7798.00   3.64969182   0.01649314
7800.00   3.61342502   0.01732548
7802.00   3.57394826   0.01931171
7804.00   3.67698014   0.01854469
7806.00   3.67886043   0.01780936
7808.00   3.73082769   0.01704054
7810.00   3.64969611   0.01666134
7812.00   3.66369557   0.01721128
7814.00   3.70627546   0.01734785
7816.00   3.71272290   0.01714634
7818.00   3.79149723   0.01848417
7820.00   3.72763407   0.01873322
7822.00   3.52717018   0.01858828
7824.00   3.61417866   0.01823280
7826.00   3.72320807   0.01826579
7828.00   3.74316180   0.01807657
7830.00   3.74118948   0.01694570
7832.00   3.74795699   0.01657969
7834.00   3.74830484   0.01653213
7836.00   3.75355697   0.01640054
7838.00   3.79285884   0.01706413
7840.00   3.79479063   0.01768139
7842.00   3.74571764   0.01903387
7844.00   3.69732213   0.02006981
7846.00   3.71553957   0.01752940
7848.00   3.85291612   0.01806672
7850.00   3.91775870   0.01867430
7852.00   3.82861471   0.01981641
7854.00   3.75681531   0.01958389
7856.00   3.78183794   0.01923646
7858.00   3.85436940   0.01972577
7860.00   3.91400909   0.01846310
7862.00   3.99535167   0.01883669
7864.00   3.94866633   0.01925370
7866.00   3.84422433   0.01963396
7868.00   3.78684700   0.02045224
7870.00   3.77654481   0.02020683
7872.00   3.79246116   0.01797871
7874.00   3.84323692   0.01719804
7876.00   3.96424448   0.01774222
7878.00   3.95974731   0.01851352
7880.00   3.95341897   0.01917050
7882.00   3.93814480   0.01890960
7884.00   3.95893967   0.01860768
7886.00   4.04573643   0.01982991
7888.00   4.07224977   0.02033875
7890.00   4.06507909   0.02100635
7892.00   3.96481359   0.01881091
7894.00   3.96049118   0.01761438
7896.00   3.99494946   0.01760569
7898.00   3.97854161   0.01754517
7900.00   3.95055997   0.01734929
7902.00   4.02039635   0.01762010
7904.00   4.01743793   0.01772400
7906.00   4.01726127   0.01885995
7908.00   4.01092100   0.01998579
7910.00   4.04108512   0.02207071
7912.00   4.11623728   0.02349968
7914.00   4.17302239   0.02219910
7916.00   4.05754244   0.01984388
7918.00   3.99595749   0.01986419
7920.00   4.02819836   0.01942747
7922.00   4.06351435   0.01884402
7924.00   4.06953263   0.01844642
7926.00   4.05632138   0.01855520
7928.00   4.05052376   0.01910761
7930.00   4.16999948   0.01938685
7932.00   4.07301450   0.02057284
7934.00   4.02221394   0.01987775
7936.00   4.04946351   0.01895230
7938.00   4.08802223   0.01855047
7940.00   4.07237446   0.01854860
7942.00   4.00915551   0.01882643
7944.00   4.01452112   0.01947425
7946.00   4.13554680   0.01931249
7948.00   4.01073551   0.01892027
7950.00   3.90210581   0.01922826
7952.00   3.89616752   0.01955822
7954.00   3.92725182   0.01974165
7956.00   3.96794534   0.01975960
7958.00   3.99339116   0.01841842
7960.00   3.98088455   0.01916570
7962.00   4.00067127   0.02023037
7964.00   3.96377516   0.02058699
7966.00   3.90934765   0.02038117
7968.00   3.91626835   0.01995420
7970.00   3.91793072   0.01927955
7972.00   3.84889627   0.01917206
7974.00   3.85521805   0.01891183
7976.00   3.90092087   0.01862111
7978.00   3.92641973   0.01914770
7980.00   3.90687943   0.01993893
7982.00   3.87495649   0.02055862
7984.00   3.92098641   0.02161170
7986.00   3.89938426   0.02104817
7988.00   3.91082060   0.02047527
7990.00   3.91645658   0.02183650
7992.00   3.90158641   0.02252470
7994.00   3.90031433   0.02173939
7996.00   3.91071224   0.02100746
7998.00   3.83310890   0.02053262
8000.00   3.83849454   0.01931706
8002.00   3.80174267   0.02085268
8004.00   3.81126761   0.02125078
8006.00   3.85494590   0.01992295
8008.00   3.82787895   0.01887246
8010.00   3.71725559   0.01939715
8012.00   3.70990264   0.01933099
8014.00   3.78591490   0.01924923
8016.00   3.81994689   0.01920026
8018.00   3.76190031   0.01883961
8020.00   3.67955256   0.01938576
8022.00   3.68781841   0.02113678
8024.00   3.78968060   0.02339600
8026.00   3.76588798   0.02332009
8028.00   3.62583530   0.02118561
8030.00   3.66197300   0.02012543
8032.00   3.59937716   0.02025262
8034.00   3.53085411   0.01959973
8036.00   3.54288840   0.01893539
8038.00   3.51848948   0.02004089
8040.00   3.51848948   0.02004089
