# File created by shivutils (I.Shivvers)
# wl(A)   flm    er(optional)
3444.00   4.60240030   0.16633554
3446.00   4.66429138   0.16908982
3448.00   5.03833628   0.17582595
3450.00   5.06809521   0.17891558
3452.00   4.94124317   0.17778403
3454.00   5.02766466   0.17961584
3456.00   4.73222542   0.17561187
3458.00   4.98438454   0.17797767
3460.00   5.19412088   0.17822927
3462.00   4.97588921   0.17979044
3464.00   4.73751974   0.17809030
3466.00   4.86683083   0.18057500
3468.00   4.92850828   0.18221067
3470.00   4.94131708   0.18319246
3472.00   5.07637835   0.18369606
3474.00   5.13326168   0.18336742
3476.00   5.53347349   0.18738642
3478.00   5.45513296   0.19186169
3480.00   5.62873983   0.19516739
3482.00   5.73100376   0.19529873
3484.00   6.02119827   0.19874929
3486.00   6.37235451   0.20354167
3488.00   6.25449514   0.20067133
3490.00   6.26320076   0.19930848
3492.00   6.48640394   0.20332806
3494.00   6.93375921   0.20754339
3496.00   6.86711407   0.20671965
3498.00   7.05865765   0.21043457
3500.00   7.20231915   0.21277401
3502.00   7.21787214   0.21453407
3504.00   7.45218277   0.21643014
3506.00   7.39302778   0.21539234
3508.00   7.61590099   0.21644513
3510.00   7.33515644   0.21217138
3512.00   7.22257376   0.21032770
3514.00   7.41493034   0.21255872
3516.00   7.29909325   0.21399094
3518.00   7.25229120   0.21543691
3520.00   7.38530970   0.21193624
3522.00   7.53108025   0.21132542
3524.00   7.57310295   0.21002744
3526.00   8.25286865   0.21710300
3528.00   7.88209152   0.21501678
3530.00   8.18229675   0.21832344
3532.00   8.24333572   0.21886273
3534.00   8.58725166   0.22233599
3536.00   8.51567936   0.22070959
3538.00   8.59999084   0.22268946
3540.00   9.16627312   0.22578031
3542.00   8.75213814   0.22213279
3544.00   8.60434818   0.22166809
3546.00   8.83499432   0.22199509
3548.00   9.15337753   0.22473983
3550.00   8.99589348   0.22356172
3552.00   9.31057167   0.22342986
3554.00   9.24588776   0.22260681
3556.00   8.98125648   0.21940050
3558.00   8.97777462   0.21706100
3560.00   9.12483597   0.21926200
3562.00   9.27305889   0.22011942
3564.00   9.38900948   0.21774882
3566.00   9.49338341   0.21609716
3568.00   9.32883930   0.21343468
3570.00   9.91699505   0.21688463
3572.00   9.68130970   0.21670499
3574.00   9.75013256   0.21696202
3576.00   9.89317417   0.21625976
3578.00   9.44246387   0.21104029
3580.00   9.73603344   0.21049409
3582.00   9.44808102   0.20696051
3584.00   9.20308399   0.20435436
3586.00   9.51966000   0.20500128
3588.00   9.72992516   0.20782708
3590.00   8.96374416   0.20328033
3592.00   9.15981960   0.20397277
3594.00   9.15280247   0.20345034
3596.00   9.07989693   0.20225362
3598.00   9.06773472   0.20199227
3600.00   9.09585762   0.20063806
3602.00   8.93415928   0.19704020
3604.00   9.23855877   0.19789098
3606.00   8.96499538   0.19355446
3608.00   8.44766140   0.18842459
3610.00   9.31979275   0.19544198
3612.00   9.05167866   0.19425674
3614.00   9.16468334   0.19439092
3616.00   9.37140465   0.19416925
3618.00   9.39918232   0.19205911
3620.00   9.52510262   0.19151431
3622.00   10.03287315   0.19574080
3624.00   10.25187874   0.19853535
3626.00   10.35268593   0.19904624
3628.00   10.56108379   0.19969967
3630.00   10.90217495   0.19984731
3632.00   11.13490677   0.19949348
3634.00   11.59368896   0.20194422
3636.00   11.39634800   0.20155394
3638.00   11.90701389   0.20396009
3640.00   12.27038097   0.20677276
3642.00   12.33744335   0.20647143
3644.00   12.51040363   0.20702054
3646.00   13.01513100   0.20962782
3648.00   13.40268421   0.21489727
3650.00   13.51129532   0.21709247
3652.00   13.33849430   0.21496987
3654.00   13.98671627   0.21620387
3656.00   14.18207836   0.21540929
3658.00   14.35020161   0.21490085
3660.00   14.79820824   0.21735281
3662.00   15.29583454   0.21983562
3664.00   15.92042065   0.22147067
3666.00   16.00959778   0.21953769
3668.00   16.46476364   0.21994416
3670.00   16.32522583   0.21910748
3672.00   16.78522301   0.22157706
3674.00   16.58675194   0.21909630
3676.00   17.05947304   0.22021554
3678.00   16.48218346   0.21619953
3680.00   16.39590645   0.21382599
3682.00   15.66754723   0.20972347
3684.00   14.83211040   0.20431025
3686.00   14.80432034   0.20331246
3688.00   14.51989365   0.20054129
3690.00   14.15103626   0.19926664
3692.00   14.09496498   0.19784173
3694.00   13.44584846   0.19314286
3696.00   13.32220173   0.19158618
3698.00   13.39063740   0.19155127
3700.00   12.74522400   0.18754718
3702.00   12.56872463   0.18460788
3704.00   12.51442432   0.18175884
3706.00   12.63581467   0.18049750
3708.00   12.47828579   0.17982174
3710.00   12.24424171   0.17879736
3712.00   12.45361042   0.18072037
3714.00   11.98822117   0.17734863
3716.00   12.08269405   0.17697836
3718.00   11.65839672   0.17179276
3720.00   11.80578518   0.17098942
3722.00   11.46594620   0.16869769
3724.00   12.07585430   0.17301974
3726.00   11.97747040   0.17239223
3728.00   11.67368317   0.17029086
3730.00   11.70739460   0.16956362
3732.00   11.57745457   0.16665643
3734.00   11.36804104   0.16328700
3736.00   11.58826351   0.16443652
3738.00   11.24850464   0.16522317
3740.00   11.03456211   0.16356787
3742.00   11.11686230   0.16298053
3744.00   11.50292301   0.16321088
3746.00   11.04479599   0.15897197
3748.00   10.58784580   0.15521140
3750.00   10.53840828   0.15533413
3752.00   10.12725067   0.15434483
3754.00   10.03191757   0.15437420
3756.00   9.89910316   0.15191346
3758.00   9.57780266   0.14845197
3760.00   9.74349976   0.14932205
3762.00   9.38020229   0.14664750
3764.00   9.28247261   0.14604476
3766.00   9.47803211   0.14678898
3768.00   9.01598930   0.14346348
3770.00   9.19420815   0.14479810
3772.00   8.95607758   0.14358544
3774.00   8.98947239   0.14352429
3776.00   9.12077427   0.14418907
3778.00   8.70597744   0.14158101
3780.00   8.96280479   0.14283840
3782.00   8.78530407   0.14168248
3784.00   8.59892654   0.13950011
3786.00   8.52599621   0.13784881
3788.00   8.23868847   0.13503952
3790.00   8.35429573   0.13580331
3792.00   8.22992897   0.13455147
3794.00   8.22987652   0.13373129
3796.00   8.34794235   0.13311690
3798.00   8.21692276   0.13180523
3800.00   8.22526073   0.13305283
3802.00   8.54073715   0.13531248
3804.00   8.59356785   0.13578421
3806.00   8.41647911   0.13357303
3808.00   8.61065006   0.13452485
3810.00   8.62380695   0.13480671
3812.00   9.04868507   0.13582474
3814.00   8.90653419   0.13329940
3816.00   9.24112701   0.13562758
3818.00   9.48863316   0.13616781
3820.00   9.10870457   0.13322683
3822.00   9.57670021   0.13585293
3824.00   9.79880428   0.13627084
3826.00   9.96541882   0.13573126
3828.00   10.17887402   0.13766588
3830.00   10.71011925   0.14003584
3832.00   10.85455704   0.14002608
3834.00   10.66148376   0.13888347
3836.00   10.86902809   0.14009100
3838.00   11.06124115   0.14028668
3840.00   11.22583008   0.14123434
3842.00   11.71053505   0.14434539
3844.00   12.02560520   0.14629149
3846.00   12.12370968   0.14628729
3848.00   12.45920277   0.14782515
3850.00   12.76643085   0.14895943
3852.00   13.07138348   0.15024531
3854.00   13.25817776   0.15039533
3856.00   13.26328087   0.14982231
3858.00   14.16505909   0.15307212
3860.00   14.08894348   0.15301810
3862.00   14.49253178   0.15572207
3864.00   14.81902409   0.15752025
3866.00   14.91810036   0.15745395
3868.00   15.27018356   0.15808408
3870.00   15.75463581   0.15955469
3872.00   16.16418839   0.16127823
3874.00   16.21966171   0.16199014
3876.00   16.73909569   0.16371319
3878.00   17.44105339   0.16596709
3880.00   18.10356903   0.16834003
3882.00   18.09321785   0.16828002
3884.00   18.64626503   0.17005949
3886.00   18.95293999   0.17091259
3888.00   19.19007874   0.17114797
3890.00   19.34668350   0.17249441
3892.00   19.66395569   0.17381044
3894.00   20.03475380   0.17492664
3896.00   20.42064095   0.17639516
3898.00   20.28247070   0.17557894
3900.00   20.42410851   0.17569466
3902.00   21.00833893   0.17768149
3904.00   21.22793770   0.17794317
3906.00   21.53458786   0.17987956
3908.00   21.78797722   0.18126294
3910.00   22.02270508   0.18206611
3912.00   22.30963516   0.18277043
3914.00   22.79605293   0.18362789
3916.00   23.18722725   0.18415336
3918.00   23.03895760   0.18233640
3920.00   23.48848152   0.18308775
3922.00   23.43153763   0.18278748
3924.00   23.68443108   0.18308629
3926.00   24.03265572   0.18356039
3928.00   24.07635880   0.18265943
3930.00   23.72322655   0.18041946
3932.00   23.38132477   0.17858678
3934.00   23.94051170   0.18042903
3936.00   25.07101440   0.18429230
3938.00   25.01393700   0.18435887
3940.00   24.93029213   0.18437608
3942.00   25.31351852   0.18573178
3944.00   25.04301262   0.18488294
3946.00   24.91424942   0.18433319
3948.00   24.64074516   0.18311001
3950.00   24.29734612   0.18174793
3952.00   24.27519608   0.18150495
3954.00   23.86878586   0.17951025
3956.00   24.17894745   0.18043366
3958.00   23.39532852   0.17770551
3960.00   22.95453072   0.17561066
3962.00   22.93587303   0.17445831
3964.00   22.19589043   0.17110227
3966.00   21.62569809   0.16751240
3968.00   21.11833191   0.16524415
3970.00   21.05064583   0.16521122
3972.00   20.42325974   0.16386977
3974.00   20.26535606   0.16342294
3976.00   20.18846512   0.16330458
3978.00   19.52195358   0.16102701
3980.00   19.45951653   0.16038135
3982.00   18.77602196   0.15774475
3984.00   18.12119675   0.15468499
3986.00   17.94859123   0.15398988
3988.00   17.83999252   0.15359917
3990.00   17.39857674   0.15191996
3992.00   17.49795914   0.15206836
3994.00   17.08960724   0.15047826
3996.00   16.77773666   0.14909866
3998.00   16.64351082   0.14846347
4000.00   16.36924934   0.14699456
4002.00   16.23608971   0.14606531
4004.00   16.05486679   0.14464936
4006.00   15.69838715   0.14300698
4008.00   16.27339363   0.14549778
4010.00   15.87327671   0.14407574
4012.00   15.63789082   0.14290021
4014.00   15.53008080   0.14183730
4016.00   15.92546272   0.14337772
4018.00   15.88452625   0.14335702
4020.00   16.02882576   0.14412999
4022.00   16.02776909   0.14412135
4024.00   16.30432510   0.14443606
4026.00   16.10292244   0.14329715
4028.00   16.01105499   0.14234498
4030.00   16.54802704   0.14339265
4032.00   16.62589455   0.14303169
4034.00   16.87070084   0.14362103
4036.00   17.04224586   0.14443617
4038.00   16.93371582   0.14414883
4040.00   16.75449371   0.14329170
4042.00   17.09599495   0.14432020
4044.00   16.74425316   0.14651144
4046.00   16.36999702   0.14752945
4048.00   16.61588860   0.14565888
4050.00   16.51129150   0.14158022
4052.00   16.52685928   0.14058216
4054.00   16.44926262   0.13993210
4056.00   16.38264847   0.13915491
4058.00   16.56927681   0.13940719
4060.00   16.61590195   0.13913186
4062.00   16.40734482   0.13780963
4064.00   16.56503487   0.13793327
4066.00   16.82039833   0.13897052
4068.00   17.02845764   0.13960676
4070.00   16.74044418   0.13837576
4072.00   17.04382896   0.13909096
4074.00   16.98011398   0.13893558
4076.00   17.02944183   0.13935959
4078.00   17.19027138   0.13976628
4080.00   16.97330475   0.13858613
4082.00   17.15110970   0.13967821
4084.00   16.84477425   0.13814524
4086.00   16.80937576   0.13735113
4088.00   16.91086197   0.13754809
4090.00   16.88528252   0.13689065
4092.00   16.78520393   0.13627292
4094.00   17.10176659   0.13677545
4096.00   17.21839714   0.13673027
4098.00   16.85015488   0.13519579
4100.00   16.86115837   0.13437364
4102.00   17.27833176   0.13557756
4104.00   16.92733002   0.13471502
4106.00   16.90647888   0.13489214
4108.00   17.10402298   0.13535656
4110.00   17.08987236   0.13489233
4112.00   17.03267097   0.13459869
4114.00   17.22962570   0.13499214
4116.00   17.30703354   0.13499802
4118.00   17.63093758   0.13547480
4120.00   17.54998016   0.13499567
4122.00   17.50320816   0.13482979
4124.00   17.75997925   0.13542797
4126.00   17.77489090   0.13533203
4128.00   18.29583549   0.13665937
4130.00   18.39185333   0.13677445
4132.00   18.55775452   0.13705856
4134.00   18.79396439   0.13744463
4136.00   19.08985710   0.13827540
4138.00   19.22073174   0.13916004
4140.00   19.14980698   0.13823700
4142.00   19.41436958   0.13831927
4144.00   19.57073593   0.13830757
4146.00   19.60118484   0.13828245
4148.00   19.74668694   0.13838708
4150.00   20.09725571   0.13955781
4152.00   19.97989082   0.13877803
4154.00   20.32070923   0.13942409
4156.00   19.92187500   0.13776015
4158.00   19.93923569   0.13772212
4160.00   20.02895927   0.13770741
4162.00   20.44082832   0.13899186
4164.00   20.05294418   0.13782042
4166.00   20.29054642   0.13802950
4168.00   20.21986198   0.13716735
4170.00   19.97208405   0.13593084
4172.00   20.04698181   0.13578576
4174.00   20.20189095   0.13587829
4176.00   19.85799026   0.13488075
4178.00   19.95908356   0.13518378
4180.00   20.12278366   0.13539167
4182.00   20.18468285   0.13510071
4184.00   20.35454369   0.13548018
4186.00   20.29161835   0.13513847
4188.00   20.38037872   0.13512926
4190.00   20.49241066   0.13538389
4192.00   20.22923660   0.13453265
4194.00   20.28213882   0.13448402
4196.00   20.35074425   0.13417087
4198.00   20.34817314   0.13380958
4200.00   20.11381340   0.13313414
4202.00   20.24187279   0.13330147
4204.00   20.21557045   0.13349137
4206.00   20.28022575   0.13358590
4208.00   20.39600182   0.13397807
4210.00   20.36033440   0.13373008
4212.00   20.38474464   0.13325901
4214.00   20.09038925   0.13217561
4216.00   20.18246078   0.13199255
4218.00   20.24843407   0.13219254
4220.00   20.34035110   0.13217929
4222.00   20.22399902   0.13149066
4224.00   19.95320320   0.12984991
4226.00   20.01102448   0.12955497
4228.00   19.61719131   0.12861998
4230.00   19.63680840   0.12893036
4232.00   19.31618118   0.12778062
4234.00   19.50119781   0.12809636
4236.00   19.14568520   0.12687801
4238.00   19.03323936   0.12637633
4240.00   18.91392326   0.12585141
4242.00   19.07248878   0.12632844
4244.00   19.12397194   0.12647210
4246.00   19.30721855   0.12704195
4248.00   19.04488754   0.12593289
4250.00   18.86787224   0.12472753
4252.00   18.82350922   0.12448467
4254.00   19.00884056   0.12475913
4256.00   18.72143936   0.12376971
4258.00   19.05245781   0.12427467
4260.00   19.03966904   0.12391566
4262.00   19.08225060   0.12404378
4264.00   18.94197464   0.12355147
4266.00   18.88661194   0.12309615
4268.00   18.97220039   0.12285321
4270.00   19.14787102   0.12282946
4272.00   19.00609970   0.12216292
4274.00   18.79399681   0.12161527
4276.00   18.83348274   0.12194978
4278.00   18.51380539   0.12073886
4280.00   18.68759727   0.12111861
4282.00   18.33116722   0.11987781
4284.00   18.26636887   0.11970060
4286.00   18.14859390   0.11880864
4288.00   17.91875267   0.11783360
4290.00   17.74967384   0.11725464
4292.00   17.89122009   0.11752367
4294.00   17.58473587   0.11666095
4296.00   17.29723167   0.11551962
4298.00   17.37616348   0.11523227
4300.00   17.36734009   0.11501244
4302.00   17.23305893   0.11449389
4304.00   16.86206436   0.11346300
4306.00   16.98360252   0.11360034
4308.00   16.81677437   0.11276028
4310.00   16.60648727   0.11234527
4312.00   16.12743950   0.11158675
4314.00   16.07852936   0.11184154
4316.00   15.78758526   0.11107092
4318.00   15.96170521   0.11158931
4320.00   15.49170303   0.11024808
4322.00   15.53565788   0.11381026
4324.00   14.63378716   0.10605978
4326.00   14.90536022   0.10695419
4328.00   14.61141777   0.10621292
4330.00   14.43498898   0.10587689
4332.00   14.37764263   0.10573352
4334.00   14.20401859   0.10513460
4336.00   14.00547218   0.10427382
4338.00   13.85121250   0.10329388
4340.00   13.71797562   0.10269377
4342.00   13.45820618   0.10177507
4344.00   13.27435970   0.10165653
4346.00   12.95307827   0.10097025
4348.00   12.82353020   0.10044330
4350.00   12.65855885   0.09955703
4352.00   12.45093536   0.09863853
4354.00   12.06778908   0.09906881
4356.00   12.02396584   0.10524765
4358.00   11.73999500   0.10752145
4360.00   11.51037312   0.10250902
4362.00   11.39058685   0.09726834
4364.00   11.27909756   0.09504782
4366.00   10.90755081   0.09316154
4368.00   11.02294159   0.09313905
4370.00   10.96523666   0.09274107
4372.00   10.70634270   0.09174230
4374.00   10.64153481   0.09155668
4376.00   10.69268227   0.09151483
4378.00   10.64832020   0.09133344
4380.00   10.36256981   0.08993922
4382.00   10.11001015   0.08840252
4384.00   10.27267647   0.08867029
4386.00   10.10858345   0.08802164
4388.00   10.14017773   0.08833204
4390.00   9.98383522   0.08780520
4392.00   9.98903942   0.08760500
4394.00   9.78869247   0.08700432
4396.00   9.92807102   0.08729935
4398.00   9.78783703   0.08695716
4400.00   9.95442486   0.08728425
4402.00   10.00417995   0.08727057
4404.00   10.03297520   0.08705864
4406.00   10.08599281   0.08715089
4408.00   10.40723705   0.08851183
4410.00   10.09813786   0.08751674
4412.00   10.09599304   0.08772613
4414.00   10.41934681   0.08869115
4416.00   10.41782761   0.08872938
4418.00   10.45508766   0.08897850
4420.00   10.59790611   0.08929043
4422.00   10.56682491   0.08890157
4424.00   10.49226475   0.08866298
4426.00   10.68093586   0.08917711
4428.00   10.60188484   0.08893941
4430.00   10.77490520   0.08945682
4432.00   10.77111435   0.08951531
4434.00   11.23712063   0.09089264
4436.00   11.06972504   0.09051675
4438.00   11.24337673   0.09098480
4440.00   11.48174667   0.09190998
4442.00   11.78753757   0.09284892
4444.00   12.09208298   0.09386028
4446.00   11.99983215   0.09362692
4448.00   12.31667805   0.09445415
4450.00   12.55029106   0.09520170
4452.00   12.50042343   0.09488405
4454.00   12.63251495   0.09508923
4456.00   12.91178608   0.09596801
4458.00   13.03304005   0.09633756
4460.00   13.20168781   0.09691224
4462.00   13.38191891   0.09744220
4464.00   13.41817856   0.09758554
4466.00   13.75423622   0.09853739
4468.00   13.91413307   0.09899542
4470.00   14.07673836   0.09947269
4472.00   14.20764923   0.09982906
4474.00   14.51057148   0.10061960
4476.00   14.73742962   0.10132050
4478.00   15.15680218   0.10230946
4480.00   15.24370480   0.10233041
4482.00   15.51196194   0.10321698
4484.00   15.71067619   0.10399257
4486.00   15.98587036   0.10477503
4488.00   16.41733742   0.10579340
4490.00   16.59187317   0.10629437
4492.00   16.67889214   0.10656855
4494.00   17.07442284   0.10768609
4496.00   17.28440475   0.10822910
4498.00   17.68338585   0.10929915
4500.00   17.80267525   0.10960066
4502.00   18.23870659   0.11067602
4504.00   18.57847023   0.11164342
4506.00   18.96120644   0.11257686
4508.00   19.21061134   0.11320469
4510.00   19.25249863   0.11327270
4512.00   19.96898270   0.11497707
4514.00   20.18042374   0.11548856
4516.00   20.33244514   0.11572741
4518.00   20.69230843   0.11658882
4520.00   21.13759041   0.11769264
4522.00   21.20019722   0.11795913
4524.00   21.37845421   0.11826402
4526.00   21.66566658   0.11859515
4528.00   21.67028046   0.11864201
4530.00   21.95360565   0.11922754
4532.00   21.93059921   0.11917798
4534.00   22.28277206   0.11994749
4536.00   22.30227661   0.12004010
4538.00   22.71388054   0.12102281
4540.00   22.90011024   0.12138876
4542.00   22.85452271   0.12123594
4544.00   23.47068596   0.12259176
4546.00   23.34975624   0.12205768
4548.00   23.61992073   0.12246068
4550.00   23.78815269   0.12280964
4552.00   23.96843910   0.12327550
4554.00   24.08744812   0.12346538
4556.00   24.22100067   0.12379624
4558.00   24.46920586   0.12429740
4560.00   24.55388832   0.12457786
4562.00   24.86379814   0.12511472
4564.00   24.80055428   0.12484293
4566.00   25.01970673   0.12534016
4568.00   25.08310318   0.12543535
4570.00   25.05820847   0.12534717
4572.00   25.32270241   0.12591864
4574.00   25.43530273   0.12611206
4576.00   25.35820580   0.12592202
4578.00   25.48728371   0.12607270
4580.00   25.66690254   0.12637167
4582.00   25.58872032   0.12602048
4584.00   25.39829063   0.12569034
4586.00   25.56612778   0.12613460
4588.00   25.64729118   0.12618372
4590.00   25.36892891   0.12560187
4592.00   25.63202477   0.12603393
4594.00   25.30924416   0.12528141
4596.00   25.43504333   0.12543216
4598.00   25.32683372   0.12512320
4600.00   25.31089401   0.12510389
4602.00   25.28407669   0.12494168
4604.00   24.96336555   0.12424285
4606.00   24.76875496   0.12392665
4608.00   24.57158470   0.12337495
4610.00   24.37371254   0.12288928
4612.00   24.20754814   0.12274596
4614.00   23.89942741   0.12206962
4616.00   23.50698853   0.12063991
4618.00   23.32636833   0.12010291
4620.00   23.04834175   0.11941024
4622.00   22.91734314   0.11917022
4624.00   22.55359840   0.11825709
4626.00   22.28781128   0.11757956
4628.00   22.10174561   0.11709703
4630.00   21.94915199   0.11660912
4632.00   21.61061287   0.11573174
4634.00   21.41426468   0.11530955
4636.00   20.99551964   0.11406439
4638.00   20.96049881   0.11382772
4640.00   20.83787727   0.11345114
4642.00   20.55068398   0.11273753
4644.00   19.88932228   0.11104961
4646.00   19.96681023   0.11098186
4648.00   19.80200386   0.11046148
4650.00   19.65118408   0.11012251
4652.00   19.43159866   0.10958224
4654.00   19.14887238   0.10878471
4656.00   18.89782143   0.10809208
4658.00   18.77452660   0.10788342
4660.00   18.41153336   0.10690001
4662.00   18.35438538   0.10658896
4664.00   18.38478279   0.10648475
4666.00   18.02864075   0.10554520
4668.00   18.02622223   0.10558341
4670.00   17.81826782   0.10503872
4672.00   17.67801857   0.10471992
4674.00   17.67524910   0.10479402
4676.00   17.52625465   0.10426777
4678.00   17.29286385   0.10344910
4680.00   17.50357628   0.10378373
4682.00   17.41816139   0.10368473
4684.00   17.35314941   0.10338490
4686.00   17.09468079   0.10265003
4688.00   17.02758980   0.10227171
4690.00   16.95547485   0.10208385
4692.00   16.72782516   0.10151514
4694.00   16.69866943   0.10143278
4696.00   16.59331703   0.10112702
4698.00   16.52615166   0.10092544
4700.00   16.43431091   0.10035735
4702.00   16.22283173   0.09975427
4704.00   15.97541809   0.09920681
4706.00   15.88663197   0.09902696
4708.00   15.38284779   0.09754235
4710.00   15.19211960   0.09704522
4712.00   14.97334576   0.09636801
4714.00   14.74712658   0.09561942
4716.00   14.41582108   0.09473441
4718.00   13.94675636   0.09343578
4720.00   13.82777596   0.09297902
4722.00   13.47987080   0.09186918
4724.00   13.35241508   0.09140304
4726.00   13.00558567   0.09033748
4728.00   13.03266621   0.09054904
4730.00   12.62339878   0.08926346
4732.00   12.39727116   0.08867047
4734.00   12.30707455   0.08836122
4736.00   12.22334957   0.08814082
4738.00   12.16771984   0.08822575
4740.00   12.04084873   0.08785273
4742.00   11.78612137   0.08719601
4744.00   11.64603043   0.08660047
4746.00   11.71105480   0.08651786
4748.00   11.60759544   0.08590362
4750.00   11.57661343   0.08580178
4752.00   11.46350956   0.08531211
4754.00   11.50880432   0.08537020
4756.00   11.50024414   0.08525655
4758.00   11.41287231   0.08499998
4760.00   11.31886101   0.08469085
4762.00   11.36006546   0.08464868
4764.00   11.41323280   0.08473634
4766.00   11.29806900   0.08428819
4768.00   11.62742233   0.08529107
4770.00   11.47134399   0.08485544
4772.00   11.42356300   0.08447008
4774.00   11.55971241   0.08487561
4776.00   11.69176674   0.08533321
4778.00   11.75549507   0.08548176
4780.00   11.67228985   0.08530587
4782.00   11.46711636   0.08440232
4784.00   11.72243786   0.08496565
4786.00   11.73812771   0.08498516
4788.00   11.68997574   0.08482165
4790.00   11.73056602   0.08510221
4792.00   11.71824265   0.08514775
4794.00   11.64461517   0.08492472
4796.00   11.52334881   0.08450421
4798.00   11.46048450   0.08426446
4800.00   11.35943317   0.08385577
4802.00   11.32304382   0.08357105
4804.00   11.13702965   0.08289732
4806.00   10.89166927   0.08202457
4808.00   10.86940670   0.08192458
4810.00   10.76020813   0.08151618
4812.00   10.73831272   0.08132904
4814.00   10.54093647   0.08064169
4816.00   10.50529766   0.08039778
4818.00   10.36920452   0.08001704
4820.00   10.45118141   0.08011475
4822.00   10.44528484   0.08002055
4824.00   10.37221241   0.07972979
4826.00   10.31151009   0.07955438
4828.00   10.28966141   0.07924812
4830.00   10.30490971   0.07933063
4832.00   10.30458546   0.07942463
4834.00   10.15950394   0.07890582
4836.00   10.13395691   0.07871602
4838.00   10.04088020   0.07847446
4840.00   10.05338383   0.07859223
4842.00   10.08361149   0.07830822
4844.00   10.14764404   0.07863077
4846.00   9.99367619   0.07805391
4848.00   10.10446453   0.07839009
4850.00   10.27574635   0.07880828
4852.00   10.28812027   0.07881414
4854.00   10.33351898   0.07892244
4856.00   10.13881874   0.07808443
4858.00   10.14359570   0.07785468
4860.00   10.33790874   0.07832041
4862.00   10.43114567   0.07866137
4864.00   10.53997326   0.07906277
4866.00   10.54925060   0.07920567
4868.00   10.51342583   0.07912862
4870.00   10.59166241   0.07952568
4872.00   10.68117714   0.07952087
4874.00   10.79496956   0.07981769
4876.00   10.77367687   0.07986141
4878.00   10.86943913   0.08004829
4880.00   10.94394398   0.08037807
4882.00   11.00032425   0.08039054
4884.00   11.23140144   0.08094866
4886.00   11.27188873   0.08094592
4888.00   11.36206818   0.08113927
4890.00   11.44837379   0.08136553
4892.00   11.61338425   0.08180761
4894.00   11.65103626   0.08212569
4896.00   11.87472343   0.08276631
4898.00   11.99501038   0.08310436
4900.00   12.02853870   0.08313639
4902.00   12.09543991   0.08316075
4904.00   12.27769661   0.08363172
4906.00   12.39829826   0.08382707
4908.00   12.52416897   0.08412731
4910.00   12.76019096   0.08478533
4912.00   12.94008732   0.08519318
4914.00   13.09940243   0.08559780
4916.00   13.14892292   0.08573271
4918.00   13.47332859   0.08644053
4920.00   13.33117390   0.08605240
4922.00   13.61321735   0.08673293
4924.00   13.71220684   0.08705200
4926.00   13.61793613   0.08672840
4928.00   13.92538071   0.08750731
4930.00   13.80472946   0.08714968
4932.00   13.77843475   0.08704428
4934.00   13.76947212   0.08680996
4936.00   13.67751598   0.08654724
4938.00   13.58877850   0.08620860
4940.00   13.19061279   0.08512341
4942.00   13.08247280   0.08486190
4944.00   12.76134300   0.08392631
4946.00   12.62674809   0.08349815
4948.00   12.25155640   0.08239548
4950.00   12.20229244   0.08225862
4952.00   11.97729397   0.08159947
4954.00   11.65709305   0.08059389
4956.00   11.69434071   0.08055019
4958.00   11.35109329   0.07956691
4960.00   11.22355175   0.07920688
4962.00   11.08543491   0.07879500
4964.00   10.83119202   0.07818216
4966.00   11.05292892   0.07875521
4968.00   11.00969124   0.07864067
4970.00   10.96052933   0.07851171
4972.00   10.71893978   0.07796083
4974.00   10.83909035   0.07841088
4976.00   10.66130447   0.07797683
4978.00   10.51571846   0.07765522
4980.00   10.57835293   0.07785492
4982.00   10.46220112   0.07756649
4984.00   10.38215828   0.07737702
4986.00   10.29113483   0.07694989
4988.00   10.27794266   0.07687416
4990.00   10.18873596   0.07636407
4992.00   10.23393917   0.07630564
4994.00   10.09051895   0.07584799
4996.00   10.22751522   0.07608325
4998.00   10.11134815   0.07567323
5000.00   10.15459442   0.07563863
5002.00   9.92873383   0.07487544
5004.00   9.86737823   0.07451785
5006.00   10.02539349   0.07484934
5008.00   9.82447052   0.07438218
5010.00   9.85245228   0.07444928
5012.00   9.81297684   0.07465835
5014.00   9.87900448   0.07468529
5016.00   9.71088600   0.07409528
5018.00   9.74468327   0.07420229
5020.00   9.94184685   0.07489169
5022.00   9.81913948   0.07446323
5024.00   9.81775951   0.07448624
5026.00   9.92479992   0.07482589
5028.00   9.95508862   0.07500439
5030.00   10.12176514   0.07552643
5032.00   10.06453896   0.07549997
5034.00   10.20967865   0.07587912
5036.00   10.34156799   0.07603852
5038.00   10.16687298   0.07541620
5040.00   10.26593018   0.07570022
5042.00   10.17901611   0.07561681
5044.00   10.27901840   0.07595467
5046.00   10.35391426   0.07627621
5048.00   10.35332012   0.07642770
5050.00   10.37728310   0.07640772
5052.00   10.55968571   0.07708848
5054.00   10.61723232   0.07727694
5056.00   10.58719826   0.07719146
5058.00   10.73418140   0.07759210
5060.00   10.86534786   0.07805688
5062.00   10.95877552   0.07845868
5064.00   10.85579777   0.07826117
5066.00   10.71155930   0.07787940
5068.00   11.08721161   0.07900432
5070.00   11.15144825   0.07933187
5072.00   11.12624454   0.07918976
5074.00   11.19815445   0.07941094
5076.00   11.34712410   0.07974999
5078.00   11.31403732   0.07978506
5080.00   11.29061604   0.08002292
5082.00   11.23226929   0.08028623
5084.00   11.25887203   0.08061337
5086.00   11.39940166   0.08110540
5088.00   11.22593403   0.08039094
5090.00   11.51552296   0.08098085
5092.00   11.57050037   0.08083093
5094.00   11.54691601   0.08069960
5096.00   11.48238277   0.08042736
5098.00   11.52311897   0.08065052
5100.00   11.57174587   0.08078767
5102.00   11.66870689   0.08109222
5104.00   11.69663334   0.08104727
5106.00   11.76265907   0.08115739
5108.00   11.83218670   0.08136002
5110.00   11.81942844   0.08140883
5112.00   11.86016846   0.08163596
5114.00   11.98529911   0.08215637
5116.00   12.13247967   0.08260860
5118.00   12.36417484   0.08322014
5120.00   12.36291218   0.08315877
5122.00   12.63901997   0.08391906
5124.00   12.69365120   0.08410969
5126.00   12.81390667   0.08442434
5128.00   12.96301651   0.08482610
5130.00   13.14041042   0.08537283
5132.00   13.22051048   0.08571760
5134.00   13.54776382   0.08678889
5136.00   13.53292942   0.08691539
5138.00   13.71994781   0.08744081
5140.00   13.84101677   0.08771695
5142.00   13.89321613   0.08802167
5144.00   14.06259251   0.08861544
5146.00   14.17747688   0.08899648
5148.00   14.33349705   0.08947029
5150.00   14.48767471   0.09015877
5152.00   14.60818672   0.09066460
5154.00   14.71530342   0.09113853
5156.00   14.96049213   0.09185774
5158.00   15.15304756   0.09238947
5160.00   15.21010113   0.09252182
5162.00   15.41039276   0.09310952
5164.00   15.58832836   0.09350533
5166.00   15.56074238   0.09344724
5168.00   15.76650906   0.09407603
5170.00   15.86487961   0.09427331
5172.00   16.05057144   0.09482493
5174.00   16.15555382   0.09534153
5176.00   16.30389595   0.09604479
5178.00   16.59550476   0.09697363
5180.00   16.63220787   0.09724440
5182.00   16.75645256   0.09757458
5184.00   16.87188148   0.09785015
5186.00   16.96550751   0.09823269
5188.00   17.08644867   0.09867768
5190.00   17.30800819   0.09932631
5192.00   17.37516975   0.09963802
5194.00   17.61926460   0.10034689
5196.00   17.83780479   0.10114356
5198.00   17.77994919   0.10137946
5200.00   18.04891968   0.10223999
5202.00   18.05647659   0.10244551
5204.00   18.04838181   0.10241966
5206.00   18.09046173   0.10257158
5208.00   18.27432251   0.10320719
5210.00   18.15333176   0.10318978
5212.00   18.40605545   0.10397853
5214.00   18.53083229   0.10443453
5216.00   18.54160309   0.10481928
5218.00   18.75586128   0.10553285
5220.00   18.75455093   0.10564175
5222.00   18.90155220   0.10603297
5224.00   18.94740868   0.10630463
5226.00   18.96229935   0.10647330
5228.00   19.06612778   0.10687324
5230.00   19.03849411   0.10690001
5232.00   19.26741409   0.10779148
5234.00   19.15478897   0.10766118
5236.00   19.19217491   0.10797378
5238.00   19.18448830   0.10824658
5240.00   19.17044449   0.10833499
5242.00   19.15842628   0.10855062
5244.00   19.05138206   0.10842775
5246.00   19.09627724   0.10886429
5248.00   19.08936119   0.10890211
5250.00   19.04327583   0.10894319
5252.00   19.11372948   0.10921322
5254.00   18.81567001   0.10874380
5256.00   18.70645523   0.10881539
5258.00   18.63515282   0.10880495
5260.00   18.59578133   0.10885141
5262.00   18.42301941   0.10837787
5264.00   18.34610939   0.10820635
5266.00   18.03036308   0.10757596
5268.00   17.78732491   0.10692047
5270.00   17.70605659   0.10690714
5272.00   17.63636780   0.10692028
5274.00   17.47697067   0.10678443
5276.00   17.29492378   0.10636692
5278.00   17.11921501   0.10618519
5280.00   17.00920296   0.10594025
5282.00   16.86931229   0.10574812
5284.00   16.66198349   0.10534088
5286.00   16.49460030   0.10509820
5288.00   16.26755333   0.10471880
5290.00   16.28064537   0.10475851
5292.00   16.09970856   0.10448322
5294.00   15.84499073   0.10395581
5296.00   15.49326134   0.10315987
5298.00   15.59638882   0.10368907
5300.00   15.71341324   0.10427488
5302.00   15.35065365   0.10347034
5304.00   15.31653690   0.10365634
5306.00   15.31660175   0.10399402
5308.00   15.32265282   0.10425832
5310.00   15.43318653   0.10484838
5312.00   15.44889545   0.10526360
5314.00   15.32272053   0.10513002
5316.00   14.94138908   0.10406089
5318.00   15.13767052   0.10487543
5320.00   15.07837963   0.10498775
5322.00   15.23408604   0.10569999
5324.00   14.94603825   0.10518975
5326.00   15.17521858   0.10600805
5328.00   15.37703991   0.10687342
5330.00   15.29446125   0.10692378
5332.00   15.26398849   0.10729947
5334.00   15.25059319   0.10755328
5336.00   15.14757061   0.10757346
5338.00   15.31164074   0.10807242
5340.00   15.24338055   0.10832551
5342.00   15.46034050   0.10936647
5344.00   15.49538422   0.10965453
5346.00   15.54472446   0.10993441
5348.00   15.28450584   0.10973215
5350.00   15.30341244   0.11006240
5352.00   15.55065918   0.11087856
5354.00   15.45593929   0.11101027
5356.00   15.25479889   0.11080713
5358.00   15.19460392   0.11074689
5360.00   15.23767757   0.11108841
5362.00   14.97345352   0.11051305
5364.00   14.91391087   0.11044741
5366.00   15.02003956   0.11089352
5368.00   15.10588932   0.11136825
5370.00   14.92408562   0.11092396
5372.00   15.05325985   0.11181960
5374.00   15.14959049   0.11260735
5376.00   14.67342567   0.11153101
5378.00   15.01369476   0.11264613
5380.00   14.67047119   0.11198621
5382.00   14.90046787   0.11290655
5384.00   14.91887569   0.11321209
5386.00   14.67135334   0.11265852
5388.00   14.74632263   0.11325672
5390.00   14.87543678   0.11383365
5392.00   14.52959251   0.11302162
5394.00   14.48726654   0.11316420
5396.00   14.77294827   0.11432271
5398.00   14.61471748   0.11409675
5400.00   14.49804878   0.11403988
5402.00   14.36027145   0.11401055
5404.00   14.40130520   0.11433224
5406.00   14.23366833   0.11373501
5408.00   14.17843151   0.11409470
5410.00   14.22784138   0.11461222
5412.00   13.89956188   0.11366645
5414.00   13.95898151   0.11427231
5416.00   14.21564865   0.11568348
5418.00   13.92450905   0.11477310
5420.00   13.74971390   0.11458694
5422.00   13.72073174   0.11477828
5424.00   13.76516151   0.11513133
5426.00   13.68911076   0.11511111
5428.00   13.73203850   0.11553477
5430.00   13.36950016   0.11445183
5432.00   13.50354004   0.11520912
5434.00   13.43797874   0.11517402
5436.00   13.38477993   0.11564981
5438.00   13.52815437   0.11640989
5440.00   13.43238163   0.11664689
5442.00   13.30894661   0.11655152
5444.00   13.02919769   0.11576259
5446.00   13.25190830   0.11690686
5448.00   13.16472435   0.11698707
5450.00   12.85453320   0.11589557
5452.00   13.18268299   0.06323900
5454.00   12.61795998   0.06454720
5456.00   12.69500732   0.06254170
5458.00   12.37828922   0.07679100
5460.00   11.42110348   0.06747088
5462.00   11.70883369   0.06231211
5464.00   12.54664707   0.06179047
5466.00   12.83624935   0.06030619
5468.00   12.23800373   0.05717161
5470.00   11.22974968   0.05619083
5472.00   10.73965836   0.06765603
5474.00   11.84779644   0.06895272
5476.00   12.31722260   0.06858097
5478.00   11.78784180   0.06713306
5480.00   11.16110802   0.06196980
5482.00   11.25919151   0.05642506
5484.00   11.77844620   0.06156160
5486.00   11.15118599   0.05782555
5488.00   11.15746212   0.05238724
5490.00   10.80819416   0.05062569
5492.00   11.10584164   0.05925720
5494.00   11.80459309   0.06959089
5496.00   11.51873589   0.06925633
5498.00   10.39504337   0.05274534
5500.00   10.50313568   0.04703235
5502.00   10.51233673   0.05692771
5504.00   11.59373283   0.06042529
5506.00   11.82653999   0.05949898
5508.00   11.25576019   0.05405563
5510.00   11.67379856   0.04481588
5512.00   11.93056774   0.05622490
5514.00   11.40082645   0.06380993
5516.00   11.00881481   0.05914453
5518.00   11.02090073   0.05077465
5520.00   11.47918892   0.04992254
5522.00   12.01321602   0.05124774
5524.00   12.01589870   0.04618841
5526.00   11.27463913   0.05609069
5528.00   12.12182426   0.06087650
5530.00   11.82929516   0.05073895
5532.00   11.53494549   0.04409004
5534.00   11.96756649   0.04458115
5536.00   12.54259491   0.05083134
5538.00   12.52895832   0.06329562
5540.00   12.97537804   0.06777740
5542.00   13.61947155   0.05906549
5544.00   13.15105247   0.06004585
5546.00   12.51625252   0.06466289
5548.00   12.53966141   0.06471269
5550.00   12.88561821   0.05795071
5552.00   12.69695187   0.04745594
5554.00   12.46956444   0.04357459
5556.00   12.31719112   0.05414376
5558.00   12.43538380   0.06480879
5560.00   12.72696209   0.06379264
5562.00   12.50577259   0.05591541
5564.00   12.01647282   0.05272410
5566.00   12.43266487   0.05547977
5568.00   12.63012314   0.05142938
5570.00   12.53951168   0.05134808
5572.00   12.66133308   0.06719958
5574.00   12.78298950   0.06694504
5576.00   12.46725559   0.05319564
5578.00   12.18814373   0.05051174
5580.00   12.99959278   0.06223018
5582.00   13.19056129   0.05429052
5584.00   12.68550014   0.04500971
5586.00   12.24688053   0.04128704
5588.00   11.88598251   0.04492756
5590.00   11.81450081   0.05164202
5592.00   12.35716057   0.05606877
5594.00   13.19588470   0.05485551
5596.00   12.54026985   0.05296392
5598.00   11.77795601   0.05135886
5600.00   11.64969921   0.05393510
5602.00   12.11422920   0.05383554
5604.00   12.39856339   0.05155651
5606.00   12.04744911   0.05411839
5608.00   11.73321056   0.05992676
5610.00   12.15728474   0.04715421
5612.00   11.95569229   0.04162563
5614.00   11.80650902   0.04050531
5616.00   11.56642723   0.04259771
5618.00   11.66068745   0.04341309
5620.00   12.20763302   0.04020547
5622.00   11.66844463   0.04047019
5624.00   11.59212017   0.04559797
5626.00   11.30567741   0.04912982
5628.00   11.56848621   0.05775225
5630.00   12.04642105   0.05903144
5632.00   11.84169483   0.05201242
5634.00   10.96482658   0.04714536
5636.00   11.06248856   0.04354014
5638.00   11.73550797   0.05090288
5640.00   11.75220203   0.05224722
5642.00   11.67542934   0.04760650
5644.00   11.66303253   0.04661079
5646.00   11.52731895   0.04640858
5648.00   11.28289890   0.03654376
5650.00   11.42792797   0.03675646
5652.00   11.55066109   0.04211056
5654.00   11.65103912   0.04776538
5656.00   11.64630318   0.04985219
5658.00   11.15422249   0.04687878
5660.00   10.54934025   0.04036789
5662.00   10.61053658   0.03595025
5664.00   10.58087635   0.04023745
5666.00   10.58485985   0.04536771
5668.00   10.70940208   0.04133624
5670.00   11.11493683   0.04610213
5672.00   11.42829800   0.05227970
5674.00   11.26946259   0.04820276
5676.00   10.82738876   0.03668811
5678.00   10.76488400   0.04061857
5680.00   11.17563820   0.05633510
5682.00   10.69057846   0.04703509
5684.00   10.21490860   0.03984142
5686.00   10.13416958   0.03945984
5688.00   10.22340584   0.03601742
5690.00   10.27730083   0.04101713
5692.00   9.78254509   0.04811379
5694.00   10.23950291   0.04879088
5696.00   10.25011730   0.04209712
5698.00   10.00455666   0.03813162
5700.00   9.95631695   0.04118437
5702.00   10.01228905   0.04285808
5704.00   9.71208954   0.03691549
5706.00   9.55939960   0.03914518
5708.00   10.19457531   0.04275967
5710.00   10.53282642   0.04502814
5712.00   10.07005978   0.04427038
5714.00   9.55588913   0.04325689
5716.00   9.71901608   0.04259291
5718.00   10.01377964   0.03661587
5720.00   10.09497547   0.03516318
5722.00   10.00151348   0.04468907
5724.00   9.62559414   0.04659539
5726.00   9.39971161   0.04071660
5728.00   9.38607311   0.03777664
5730.00   9.33902073   0.04279607
5732.00   9.28627777   0.04145692
5734.00   9.15634823   0.04279879
5736.00   9.36992836   0.04148907
5738.00   9.40270233   0.04187181
5740.00   9.38525677   0.04860507
5742.00   9.46224117   0.05119326
5744.00   9.40362358   0.04145730
5746.00   8.94097805   0.03452741
5748.00   9.31413078   0.03605713
5750.00   9.56477833   0.03870201
5752.00   9.54630470   0.04168335
5754.00   9.47473907   0.04538927
5756.00   9.24804688   0.04430467
5758.00   8.84678364   0.03692582
5760.00   9.17062473   0.04373244
5762.00   9.46120548   0.05297789
5764.00   9.13697529   0.04482681
5766.00   8.69748116   0.04228750
5768.00   8.90658855   0.04536885
5770.00   9.46756840   0.04574515
5772.00   9.37467384   0.04557929
5774.00   8.79005527   0.04731556
5776.00   9.22789764   0.03831192
5778.00   9.62889957   0.03351713
5780.00   9.56339359   0.04010440
5782.00   9.58209133   0.04458300
5784.00   9.86233711   0.04114718
5786.00   9.93223763   0.03704331
5788.00   10.19239521   0.04098228
5790.00   9.80130482   0.04230849
5792.00   9.46273994   0.03921507
5794.00   9.65917301   0.03463811
5796.00   9.70792866   0.03902868
5798.00   9.62871456   0.04757676
5800.00   10.31825066   0.04693327
5802.00   10.25195026   0.04054327
5804.00   10.26329708   0.04018823
5806.00   10.17006779   0.04903300
5808.00   10.36645412   0.04903062
5810.00   10.67184258   0.04523555
5812.00   10.53872204   0.04802941
5814.00   9.99725723   0.05255273
5816.00   10.61256790   0.05848553
5818.00   10.82558346   0.04806112
5820.00   10.38519001   0.04199488
5822.00   10.41710663   0.04473993
5824.00   10.85853386   0.04771269
5826.00   11.04229069   0.04597390
5828.00   11.12736225   0.04274576
5830.00   11.40506172   0.03967008
5832.00   11.28027058   0.04683714
5834.00   11.33560658   0.05498300
5836.00   11.38626003   0.05338371
5838.00   11.57235432   0.04554059
5840.00   12.10847569   0.04680784
5842.00   12.54781437   0.05887622
5844.00   11.96321201   0.04941776
5846.00   12.51888752   0.04482381
5848.00   12.13816738   0.04937783
5850.00   12.01994419   0.05020555
5852.00   12.50114441   0.04533561
5854.00   12.73506737   0.04224906
5856.00   12.86096764   0.04290052
5858.00   12.53721046   0.05109541
5860.00   12.83059120   0.05894802
5862.00   13.00907993   0.05023745
5864.00   12.59575748   0.04529536
5866.00   12.09804153   0.05005110
5868.00   12.16564560   0.04665292
5870.00   12.32204914   0.04028529
5872.00   12.47538662   0.04033712
5874.00   12.59319019   0.04460847
5876.00   12.61879635   0.04566950
5878.00   12.53927517   0.04524891
5880.00   12.55224991   0.04496218
5882.00   12.71048832   0.04275683
5884.00   12.46444130   0.03795690
5886.00   12.07107449   0.04275111
5888.00   12.67302132   0.04269892
5890.00   13.31307030   0.04625661
5892.00   13.33306026   0.04876795
5894.00   12.87306118   0.05019667
5896.00   12.45659637   0.05409532
5898.00   12.23511600   0.04869475
5900.00   12.48117828   0.04719521
5902.00   12.44952106   0.03968276
5904.00   12.43685818   0.03460424
5906.00   12.57912064   0.03599467
5908.00   12.71578312   0.04021498
5910.00   12.70795631   0.04316597
5912.00   12.80154514   0.03965203
5914.00   12.99347973   0.04142658
5916.00   12.96146584   0.04305641
5918.00   12.66446972   0.04218509
5920.00   12.56167984   0.04097522
5922.00   12.52042484   0.04569472
5924.00   12.03118229   0.05437665
5926.00   12.65170097   0.04528805
5928.00   13.09098339   0.04348915
5930.00   12.84072304   0.04010427
5932.00   12.34692383   0.04041802
5934.00   12.36367512   0.04332121
5936.00   12.73717499   0.04467248
5938.00   12.45687199   0.04488772
5940.00   11.90322113   0.04270364
5942.00   12.08035278   0.04896285
5944.00   11.77010250   0.05310047
5946.00   11.90348625   0.05070652
5948.00   12.42203522   0.04581085
5950.00   12.54959583   0.04330791
5952.00   12.30296230   0.04038886
5954.00   12.26037884   0.04151265
5956.00   11.97317028   0.03914419
5958.00   11.81474590   0.03772398
5960.00   11.77192402   0.04276998
5962.00   11.75177383   0.04346716
5964.00   11.77920818   0.03754926
5966.00   11.93220139   0.04614792
5968.00   11.92555809   0.04256737
5970.00   11.81105232   0.03745679
5972.00   11.86659431   0.03981068
5974.00   11.48113823   0.03885517
5976.00   11.01132107   0.03525291
5978.00   11.10998726   0.03761689
5980.00   11.11290741   0.03869428
5982.00   11.10169888   0.03908799
5984.00   10.91066647   0.04079043
5986.00   11.00098038   0.04095146
5988.00   10.98097324   0.04219929
5990.00   10.84306526   0.04246373
5992.00   10.88225651   0.03978162
5994.00   10.69966698   0.04223926
5996.00   10.53158760   0.03384440
5998.00   10.50514793   0.03397890
6000.00   10.83783054   0.03715953
6002.00   10.58373451   0.04051671
6004.00   10.14650726   0.04285389
6006.00   10.44283104   0.04284175
6008.00   9.76500511   0.04150462
6010.00   9.98291111   0.04649537
6012.00   10.33920002   0.04084455
6014.00   10.13042736   0.03844952
6016.00   9.84782219   0.03819040
6018.00   9.95425606   0.03601037
6020.00   10.14587021   0.03639640
6022.00   10.03851604   0.03941736
6024.00   9.71278286   0.04453674
6026.00   9.91494179   0.04056633
6028.00   10.03428459   0.03608800
6030.00   9.68372059   0.03556892
6032.00   9.13973904   0.03711184
6034.00   8.95397282   0.03821921
6036.00   9.14683342   0.03767534
6038.00   9.33719730   0.03530047
6040.00   9.30994701   0.03426993
6042.00   9.23758411   0.03479148
6044.00   9.00984287   0.03776658
6046.00   8.76534081   0.03892469
6048.00   8.85669708   0.03286622
6050.00   8.45601177   0.03388160
6052.00   8.42385197   0.03849072
6054.00   7.79793978   0.03709773
6056.00   7.29819345   0.03299951
6058.00   7.30310488   0.03114986
6060.00   7.32543421   0.03235152
6062.00   6.79920721   0.03267318
6064.00   6.58011723   0.02948770
6066.00   6.33999777   0.02544756
6068.00   6.17717552   0.02568544
6070.00   5.73421955   0.02682568
6072.00   5.27605200   0.02546434
6074.00   5.18387747   0.02311206
6076.00   5.18938398   0.02486983
6078.00   5.04128170   0.02843833
6080.00   4.84917450   0.02795885
6082.00   4.58066797   0.02460244
6084.00   4.60977554   0.02703372
6086.00   4.68331957   0.02992316
6088.00   4.44781351   0.02626016
6090.00   4.29541826   0.02290311
6092.00   4.20059538   0.02548917
6094.00   4.16902399   0.02637210
6096.00   4.01568604   0.02228261
6098.00   3.86306763   0.02029597
6100.00   3.81843209   0.02689377
6102.00   3.79630017   0.03211124
6104.00   3.64074850   0.02241506
6106.00   3.57130742   0.02149973
6108.00   3.55465627   0.02461095
6110.00   3.64531112   0.02687174
6112.00   3.56419683   0.02763866
6114.00   3.37753439   0.02638274
6116.00   3.43731475   0.02371373
6118.00   3.69354820   0.02464401
6120.00   3.52476668   0.02355131
6122.00   3.34068823   0.02033857
6124.00   3.38562775   0.02214852
6126.00   3.50142384   0.02578890
6128.00   3.57404590   0.02674279
6130.00   3.61082888   0.02554108
6132.00   3.41451120   0.02618952
6134.00   3.32920623   0.02207261
6136.00   3.16485238   0.02144231
6138.00   3.14496255   0.01965135
6140.00   3.28035975   0.01919495
6142.00   3.36954951   0.02198599
6144.00   3.28142285   0.02324264
6146.00   3.22626781   0.01901506
6148.00   3.17965436   0.02185135
6150.00   3.30836749   0.02253067
6152.00   3.36402225   0.02053637
6154.00   3.35825086   0.02106870
6156.00   3.36937690   0.02383250
6158.00   3.33614540   0.02357178
6160.00   3.22845149   0.02528946
6162.00   3.27762270   0.02503695
6164.00   3.57749557   0.02337170
6166.00   3.74884558   0.02287751
6168.00   3.70447922   0.02230495
6170.00   3.78646588   0.02522176
6172.00   4.20397806   0.03368632
6174.00   4.06365728   0.02907298
6176.00   4.00776005   0.02973232
6178.00   4.01535463   0.02507279
6180.00   3.91359949   0.02429070
6182.00   3.96939874   0.02772112
6184.00   4.22155476   0.02714880
6186.00   4.21368504   0.02175967
6188.00   4.54642439   0.02942391
6190.00   4.61327171   0.03384836
6192.00   4.52257442   0.02665197
6194.00   4.56056356   0.02156280
6196.00   4.65991783   0.02350438
6198.00   4.68819857   0.02356861
6200.00   4.79185867   0.02379402
6202.00   4.70631886   0.02270775
6204.00   4.82286024   0.02635465
6206.00   5.11589718   0.02719144
6208.00   5.28143597   0.02544790
6210.00   5.32542419   0.02427941
6212.00   5.39034081   0.02434763
6214.00   5.38344860   0.02228550
6216.00   5.69393015   0.02668427
6218.00   5.56920433   0.02963204
6220.00   5.68441677   0.02827645
6222.00   5.92701197   0.02487860
6224.00   6.01221848   0.02553916
6226.00   6.01614141   0.02896633
6228.00   6.31190634   0.02477651
6230.00   6.65280867   0.03192522
6232.00   6.61948633   0.02975447
6234.00   6.53417349   0.02537962
6236.00   6.66779661   0.02350725
6238.00   6.86109304   0.02410110
6240.00   6.91865826   0.02449772
6242.00   7.19202471   0.02445834
6244.00   7.12850809   0.02391719
6246.00   7.21320057   0.02409458
6248.00   7.49224567   0.03079467
6250.00   7.70001602   0.03214048
6252.00   7.61490822   0.02781098
6254.00   7.49372864   0.02979362
6256.00   8.06476402   0.03671507
6258.00   7.77753830   0.03611060
6260.00   7.63318729   0.03205244
6262.00   7.74368668   0.02751164
6264.00   8.00142765   0.03014785
6266.00   8.14673996   0.03510388
6268.00   8.06121063   0.03264439
6270.00   8.17228031   0.02798122
6272.00   8.19564247   0.02640134
6274.00   7.97945642   0.03848628
6276.00   8.09062576   0.03621686
6278.00   8.44406414   0.03173548
6280.00   8.71000195   0.03486313
6282.00   8.88493252   0.03067543
6284.00   9.13535595   0.03469491
6286.00   8.94618607   0.03408737
6288.00   8.73142052   0.03379830
6290.00   8.43815041   0.03270872
6292.00   8.39803982   0.02981700
6294.00   8.70426750   0.02820030
6296.00   8.90035152   0.03162219
6298.00   9.02172756   0.03128255
6300.00   9.11943245   0.04167569
6302.00   9.13655949   0.03879366
6304.00   8.94290924   0.03089176
6306.00   8.82327080   0.03050780
6308.00   8.94695854   0.03606968
6310.00   9.00416565   0.03555176
6312.00   9.09593296   0.03055888
6314.00   8.99974632   0.02840857
6316.00   9.16488552   0.02767886
6318.00   9.48348904   0.03759017
6320.00   9.41120529   0.04132550
6322.00   8.92395687   0.03299209
6324.00   8.85504055   0.03538483
6326.00   9.02195644   0.03459410
6328.00   8.91744900   0.03537180
6330.00   8.88144588   0.03873016
6332.00   8.94994545   0.03636237
6334.00   9.05424404   0.03116370
6336.00   9.11949253   0.03137405
6338.00   9.08061790   0.03091616
6340.00   9.01371765   0.03353427
6342.00   8.98152733   0.03853948
6344.00   9.17016029   0.03605632
6346.00   9.29907799   0.03116876
6348.00   9.34625244   0.02948424
6350.00   9.45398998   0.03022222
6352.00   9.40023613   0.03193080
6354.00   9.37614441   0.03270186
6356.00   9.21431923   0.03593478
6358.00   9.28219891   0.03325161
6360.00   9.13671970   0.03382915
6362.00   8.86642647   0.03709855
6364.00   8.95605755   0.03358975
6366.00   8.99869633   0.02868154
6368.00   9.22824669   0.03341992
6370.00   8.92950916   0.03738062
6372.00   8.78629684   0.03542243
6374.00   9.07357311   0.03210560
6376.00   9.30254364   0.03220607
6378.00   9.06378651   0.03274618
6380.00   9.14320183   0.02848928
6382.00   9.11621666   0.03858244
6384.00   9.10356808   0.03949533
6386.00   9.26460648   0.03609882
6388.00   9.33964634   0.03229129
6390.00   9.27590084   0.03036163
6392.00   9.32777500   0.03037138
6394.00   9.29926777   0.02916307
6396.00   9.22833157   0.03316363
6398.00   9.26371193   0.03192311
6400.00   9.12733555   0.02928457
6402.00   8.94249439   0.02997951
6404.00   9.09984207   0.03304230
6406.00   9.54959393   0.03454123
6408.00   9.11655045   0.03595403
6410.00   8.56232166   0.04113851
6412.00   8.53838062   0.04213522
6414.00   8.86959648   0.03839802
6416.00   9.16940022   0.03230909
6418.00   9.19568729   0.02806858
6420.00   9.05646515   0.02884820
6422.00   9.35242271   0.03327652
6424.00   9.29748249   0.02942912
6426.00   9.05973434   0.02985341
6428.00   9.00637531   0.03100560
6430.00   9.00286484   0.02970192
6432.00   8.87183666   0.02879783
6434.00   8.87307453   0.03201884
6436.00   8.99895477   0.03101461
6438.00   9.20968628   0.03175027
6440.00   9.21198940   0.03288787
6442.00   9.01002312   0.03327710
6444.00   8.91122246   0.03223404
6446.00   9.11863708   0.03103735
6448.00   9.40232754   0.03247542
6450.00   9.40067863   0.03360194
6452.00   9.21059227   0.03193623
6454.00   9.08631229   0.03308500
6456.00   8.88078308   0.03239160
6458.00   8.81933975   0.02870508
6460.00   9.11473274   0.02811802
6462.00   9.25465202   0.03434593
6464.00   8.76649952   0.03468136
6466.00   8.56413364   0.03207644
6468.00   8.74921703   0.02995606
6470.00   8.88813782   0.02993685
6472.00   8.81332397   0.03228555
6474.00   8.73138714   0.03435744
6476.00   8.71762180   0.03111652
6478.00   8.56434822   0.03062045
6480.00   8.56142998   0.03082753
6482.00   8.86996078   0.03215270
6484.00   8.96653557   0.03093345
6486.00   8.81528473   0.02811521
6488.00   8.80641365   0.02791363
6490.00   8.67969894   0.02694668
6492.00   8.67389107   0.02876823
6494.00   8.78618622   0.03054475
6496.00   8.74793434   0.03064426
6498.00   8.60823727   0.03118170
6500.00   8.50489521   0.03348595
6502.00   8.46049404   0.03506495
6504.00   8.44578075   0.03166753
6506.00   8.38229847   0.03052420
6508.00   8.51192665   0.02839073
6510.00   8.71438885   0.03097541
6512.00   8.75570107   0.03238756
6514.00   8.53645897   0.03033258
6516.00   8.22461033   0.02979110
6518.00   8.16521931   0.02717732
6520.00   8.44685268   0.02868902
6522.00   8.87259007   0.04051595
6524.00   8.95313168   0.04080041
6526.00   8.74209499   0.03347883
6528.00   8.46181393   0.02797819
6530.00   8.19383526   0.02412890
6532.00   8.30087757   0.02653587
6534.00   8.09351063   0.03387596
6536.00   8.21846390   0.03429176
6538.00   8.37985134   0.03220462
6540.00   8.18734264   0.03150810
6542.00   7.86979389   0.03114564
6544.00   8.02095890   0.02856811
6546.00   8.07720375   0.03095354
6548.00   8.03994560   0.03492889
6550.00   7.92931604   0.03379269
6552.00   7.83352184   0.03340700
6554.00   7.71760511   0.03141994
6556.00   7.59359264   0.02617492
6558.00   7.66636038   0.02890111
6560.00   8.11574936   0.03479339
6562.00   7.91331911   0.03002431
6564.00   7.73386288   0.02655447
6566.00   7.85121155   0.02946976
6568.00   7.83967209   0.03323442
6570.00   7.50469446   0.03184212
6572.00   7.51846075   0.02502993
6574.00   7.68645811   0.02833506
6576.00   7.66826200   0.02714007
6578.00   7.58437109   0.02759302
6580.00   7.50759697   0.02694534
6582.00   7.42745399   0.02493247
6584.00   7.32813883   0.02522214
6586.00   7.28151703   0.02792067
6588.00   7.41943789   0.02799170
6590.00   7.47960329   0.02832351
6592.00   7.45468712   0.02544053
6594.00   7.34393024   0.02519695
6596.00   7.39936256   0.02894510
6598.00   7.61060333   0.03000242
6600.00   7.25326872   0.02412413
6602.00   7.13644314   0.02621317
6604.00   6.96540070   0.02849096
6606.00   6.85615015   0.02668843
6608.00   6.75657940   0.02371326
6610.00   6.73621559   0.02376449
6612.00   6.83845139   0.02535565
6614.00   6.70025969   0.02300806
6616.00   6.73625088   0.02314789
6618.00   6.77642155   0.02285256
6620.00   6.66976643   0.02164494
6622.00   6.65826654   0.02344118
6624.00   6.74747705   0.02668614
6626.00   6.66926765   0.02623522
6628.00   6.58424377   0.02266663
6630.00   6.53620195   0.02204155
6632.00   6.44815874   0.02557664
6634.00   6.61154747   0.02965750
6636.00   6.61186266   0.03064083
6638.00   6.27011347   0.02916630
6640.00   6.07057142   0.02826444
6642.00   6.22322845   0.02474008
6644.00   6.19428587   0.02252036
6646.00   6.13407087   0.02086104
6648.00   6.31437445   0.02424933
6650.00   6.49065495   0.02822741
6652.00   6.37172174   0.02776654
6654.00   6.10562563   0.02308447
6656.00   6.06385899   0.02334220
6658.00   6.17305756   0.02405611
6660.00   6.30827808   0.03245951
6662.00   6.31051540   0.03450748
6664.00   6.12952471   0.02940458
6666.00   5.89917803   0.02360998
6668.00   5.81620693   0.02310802
6670.00   5.82548761   0.02025667
6672.00   5.65265703   0.02143750
6674.00   5.74855185   0.02783435
6676.00   5.85392094   0.03096556
6678.00   5.80376911   0.02815017
6680.00   5.70649719   0.02222103
6682.00   5.68531942   0.02085351
6684.00   5.54950285   0.02044115
6686.00   5.66192961   0.02282706
6688.00   5.62355518   0.02310811
6690.00   5.54121304   0.02180304
6692.00   5.49812031   0.02304361
6694.00   5.46576929   0.02630677
6696.00   5.46246719   0.02506799
6698.00   5.45509958   0.02147786
6700.00   5.28851891   0.02138645
6702.00   5.28701258   0.02414287
6704.00   5.45489073   0.02718345
6706.00   5.55959940   0.02874380
6708.00   5.41317272   0.02807697
6710.00   5.11872864   0.02505169
6712.00   5.10687208   0.02075907
6714.00   5.15495062   0.02060909
6716.00   5.20231676   0.02272958
6718.00   5.11282253   0.02241143
6720.00   5.00816679   0.02086514
6722.00   5.08147764   0.02206788
6724.00   5.16663218   0.02316909
6726.00   5.18753338   0.02177385
6728.00   5.07427549   0.02343814
6730.00   4.96792221   0.02419730
6732.00   4.92500114   0.02380577
6734.00   4.94206333   0.02246586
6736.00   4.96867895   0.02001544
6738.00   4.90470457   0.01890043
6740.00   4.93281555   0.01910071
6742.00   5.09145212   0.02063972
6744.00   5.07139826   0.02206102
6746.00   4.95338726   0.02250094
6748.00   4.87164211   0.02148360
6750.00   4.80780029   0.01953401
6752.00   4.81040859   0.01990010
6754.00   4.73998642   0.02522303
6756.00   4.88185120   0.02441548
6758.00   4.83831692   0.02092003
6760.00   4.66869640   0.02075147
6762.00   4.62251091   0.02339069
6764.00   4.70943832   0.02296846
6766.00   4.72496843   0.02034756
6768.00   4.73040152   0.01994501
6770.00   4.70344734   0.01933628
6772.00   4.68327999   0.01871618
6774.00   4.65338707   0.01844266
6776.00   4.71001434   0.02060224
6778.00   4.91376257   0.02464896
6780.00   4.64508820   0.01948418
6782.00   4.63211775   0.01966455
6784.00   4.58792496   0.02131712
6786.00   4.51079273   0.02087050
6788.00   4.49937534   0.01975011
6790.00   4.54524565   0.02046315
6792.00   4.50844622   0.02144377
6794.00   4.42033339   0.01882470
6796.00   4.34113884   0.01775725
6798.00   4.47213840   0.02070707
6800.00   4.53522682   0.02124255
6802.00   4.49153328   0.02071273
6804.00   4.42729473   0.02209141
6806.00   4.27764702   0.02199540
6808.00   4.29917049   0.01995925
6810.00   4.26489782   0.01812778
6812.00   4.30275631   0.02027282
6814.00   4.33680391   0.02122545
6816.00   4.36129999   0.01956845
6818.00   4.40092182   0.01815668
6820.00   4.39080048   0.01907582
6822.00   4.46488476   0.01968866
6824.00   4.43888092   0.01861544
6826.00   4.34939146   0.02012090
6828.00   4.29440594   0.02014018
6830.00   4.20781326   0.02014937
6832.00   4.06276321   0.02230840
6834.00   4.10787630   0.02007211
6836.00   4.15468025   0.01848257
6838.00   4.08930731   0.01795979
6840.00   4.26560926   0.01877135
6842.00   4.41424894   0.01867092
6844.00   4.30596733   0.01964055
6846.00   4.13954258   0.02264650
6848.00   4.27874374   0.02097265
6850.00   4.44528341   0.01741714
6852.00   4.33539915   0.01994070
6854.00   4.32430363   0.02018115
6856.00   4.36231279   0.02110481
6858.00   4.26596260   0.02278854
6860.00   4.09453058   0.02137993
6862.00   4.14366579   0.02062254
6864.00   3.95573521   0.02504625
6866.00   3.92017460   0.02599225
6868.00   4.06898308   0.02610845
6870.00   4.16012239   0.02565410
6872.00   4.15733576   0.02393210
6874.00   4.21916342   0.02137842
6876.00   4.14411068   0.01965363
6878.00   4.12872839   0.01826015
6880.00   4.05902863   0.01701710
6882.00   4.00518179   0.01883244
6884.00   4.00392389   0.02297912
6886.00   4.01892805   0.02540982
6888.00   4.01623583   0.02401440
6890.00   4.07855892   0.02370876
6892.00   4.01927137   0.02133383
6894.00   4.02934551   0.01889548
6896.00   4.11161184   0.01836042
6898.00   4.12120771   0.01988840
6900.00   4.02392197   0.02128764
6902.00   3.99054599   0.02085702
6904.00   4.12291288   0.02053985
6906.00   4.11190033   0.02488764
6908.00   4.05354166   0.02251227
6910.00   4.00987005   0.01986186
6912.00   4.04215002   0.02167939
6914.00   4.07785416   0.02292888
6916.00   3.95081735   0.01859666
6918.00   3.81321335   0.02298802
6920.00   3.79740310   0.02350497
6922.00   3.78037453   0.02031060
6924.00   3.82770228   0.01854571
6926.00   3.89772391   0.01961858
6928.00   3.88645935   0.01969795
6930.00   3.80411911   0.01723525
6932.00   3.76963210   0.01790777
6934.00   3.96537519   0.01838135
6936.00   4.11114550   0.02096322
6938.00   4.03343153   0.02061965
6940.00   3.84211731   0.02010118
6942.00   3.74531269   0.02253973
6944.00   3.76141810   0.02117919
6946.00   3.76121163   0.01763241
6948.00   3.79467916   0.01667850
6950.00   3.84098029   0.01789164
6952.00   3.80085611   0.02187799
6954.00   3.75755191   0.02263032
6956.00   3.81847811   0.01759659
6958.00   3.83653474   0.01897154
6960.00   3.84990740   0.02061621
6962.00   3.95728755   0.02009289
6964.00   3.87508774   0.01968898
6966.00   3.79038072   0.01850055
6968.00   3.82732940   0.01691783
6970.00   3.91548920   0.01783554
6972.00   4.07547045   0.02111863
6974.00   3.92401123   0.01799645
6976.00   3.82409096   0.01798599
6978.00   3.97436357   0.02297067
6980.00   4.08618069   0.02538552
6982.00   3.95644808   0.02411383
6984.00   3.75134277   0.02230721
6986.00   3.70849943   0.01767842
6988.00   3.74189115   0.01811996
6990.00   3.63505697   0.01800977
6992.00   3.60102749   0.01709736
6994.00   3.60483432   0.01645318
6996.00   3.60159111   0.01649381
6998.00   3.64425087   0.01678218
7000.00   3.62780452   0.01776940
7002.00   3.72124624   0.01746579
7004.00   3.70611811   0.01895372
7006.00   3.69129848   0.01843535
7008.00   3.70249009   0.01873733
7010.00   3.68202853   0.01990718
7012.00   3.60129857   0.01768313
7014.00   3.51758742   0.01837024
7016.00   3.55341005   0.01831867
7018.00   3.60482311   0.01787491
7020.00   3.64253354   0.01918816
7022.00   3.62222886   0.02120990
7024.00   3.56762171   0.02160777
7026.00   3.56860852   0.01958143
7028.00   3.57820940   0.01707323
7030.00   3.57483244   0.01605326
7032.00   3.67469382   0.01895868
7034.00   3.75853300   0.01965466
7036.00   3.72216153   0.01797667
7038.00   3.60429430   0.01667897
7040.00   3.54473710   0.01658364
7042.00   3.60640430   0.01920671
7044.00   3.60476494   0.01880693
7046.00   3.53751802   0.01718046
7048.00   3.51975775   0.01686981
7050.00   3.52424288   0.01790587
7052.00   3.46763778   0.01863835
7054.00   3.40797234   0.01857437
7056.00   3.51166582   0.01711344
7058.00   3.50986099   0.01676477
7060.00   3.52024245   0.01715171
7062.00   3.55702758   0.01763779
7064.00   3.54751468   0.01774186
7066.00   3.53476572   0.01822696
7068.00   3.70649529   0.02041433
7070.00   3.63867474   0.02051781
7072.00   3.56304312   0.01888425
7074.00   3.53933287   0.02004324
7076.00   3.43558979   0.02077099
7078.00   3.33259082   0.01883539
7080.00   3.41349363   0.01818189
7082.00   3.58106256   0.02456624
7084.00   3.68531227   0.02590290
7086.00   3.56814361   0.01820572
7088.00   3.52525234   0.01591557
7090.00   3.56187081   0.02024889
7092.00   3.62529111   0.02265816
7094.00   3.66993999   0.02093881
7096.00   3.54798675   0.01607985
7098.00   3.51201844   0.01576731
7100.00   3.60409713   0.01728982
7102.00   3.64858866   0.01977874
7104.00   3.53331780   0.01940369
7106.00   3.41621947   0.01663871
7108.00   3.47020483   0.01646407
7110.00   3.42658520   0.01842279
7112.00   3.43805432   0.01943528
7114.00   3.54404950   0.01704280
7116.00   3.54985881   0.01641878
7118.00   3.46863174   0.01861360
7120.00   3.39463067   0.01956688
7122.00   3.38586307   0.01720277
7124.00   3.53752160   0.01695702
7126.00   3.74685407   0.01861389
7128.00   3.54635000   0.01758983
7130.00   3.37065983   0.01780235
7132.00   3.34808731   0.01766896
7134.00   3.38817883   0.01607984
7136.00   3.44210029   0.01630444
7138.00   3.38114119   0.01695576
7140.00   3.41021562   0.02140170
7142.00   3.38192677   0.02165848
7144.00   3.34571409   0.01929490
7146.00   3.35186386   0.01784549
7148.00   3.40292048   0.01889205
7150.00   3.46248794   0.01961051
7152.00   3.46265411   0.01684078
7154.00   3.39215183   0.01898755
7156.00   3.26384211   0.01800806
7158.00   3.27299118   0.01696123
7160.00   3.25940967   0.01929148
7162.00   3.07214737   0.02251586
7164.00   2.96460605   0.02230964
7166.00   3.18981409   0.01822729
7168.00   3.21792030   0.01697004
7170.00   3.12930155   0.01666971
7172.00   3.11269283   0.01667936
7174.00   3.23923779   0.01878809
7176.00   3.36350513   0.02087865
7178.00   3.29446983   0.01771425
7180.00   3.30326819   0.01968310
7182.00   3.17519593   0.01922285
7184.00   3.26706147   0.01843491
7186.00   3.45365238   0.02145753
7188.00   3.42137527   0.02256429
7190.00   3.19649673   0.01788260
7192.00   3.25798559   0.01737211
7194.00   3.40953636   0.02093828
7196.00   3.23749065   0.02087291
7198.00   3.18113399   0.01926105
7200.00   3.22272086   0.01797382
7202.00   3.27872825   0.01814001
7204.00   3.33478141   0.01871786
7206.00   3.30444789   0.01722096
7208.00   3.21010852   0.01609237
7210.00   3.33696795   0.01705712
7212.00   3.32867455   0.01678202
7214.00   3.23789334   0.01634465
7216.00   3.20505404   0.01776585
7218.00   3.24390221   0.01968322
7220.00   3.32816482   0.01834606
7222.00   3.27092052   0.01757485
7224.00   3.22303677   0.01780670
7226.00   3.17026210   0.01768459
7228.00   3.12223864   0.01740219
7230.00   3.09321094   0.01716682
7232.00   3.10271811   0.01723111
7234.00   3.20447779   0.01938517
7236.00   3.29239297   0.01854116
7238.00   3.29204369   0.01776458
7240.00   3.24640107   0.01779728
7242.00   3.20887566   0.01849023
7244.00   3.21266413   0.01915172
7246.00   3.24836993   0.01899765
7248.00   3.24811292   0.01742186
7250.00   3.16251040   0.01707046
7252.00   3.34394741   0.01954675
7254.00   3.47591901   0.01941405
7256.00   3.38092351   0.01815493
7258.00   3.22799540   0.01884619
7260.00   3.25074840   0.02031622
7262.00   3.22664285   0.02087056
7264.00   3.31683373   0.01912905
7266.00   3.33374691   0.01897294
7268.00   3.25492644   0.01884967
7270.00   3.23674130   0.01877396
7272.00   3.32064342   0.01909353
7274.00   3.30820274   0.01994927
7276.00   3.09668994   0.02673088
7278.00   3.15499401   0.02635400
7280.00   3.29476142   0.01993149
7282.00   3.23357940   0.01702604
7284.00   3.02426577   0.01950437
7286.00   2.93672323   0.02025617
7288.00   3.09321356   0.01891234
7290.00   3.31603909   0.01747181
7292.00   3.33853269   0.01759155
7294.00   3.26851988   0.01726775
7296.00   3.21186447   0.01682617
7298.00   3.17429447   0.01668220
7300.00   3.13120317   0.01705269
7302.00   3.13380957   0.01822401
7304.00   3.25989866   0.01874365
7306.00   3.18652964   0.01880672
7308.00   3.09068441   0.02051371
7310.00   3.06565475   0.02036309
7312.00   3.14620185   0.01844693
7314.00   3.23146462   0.01881401
7316.00   3.12018919   0.02209607
7318.00   3.13150334   0.01994897
7320.00   3.24204373   0.01719465
7322.00   3.22353578   0.01633215
7324.00   3.15981984   0.01747691
7326.00   3.10497808   0.01945854
7328.00   3.05369353   0.02001848
7330.00   3.12103415   0.01548559
7332.00   3.11401629   0.01596050
7334.00   3.14252090   0.01685608
7336.00   3.14276385   0.01715108
7338.00   3.07844639   0.01787335
7340.00   3.01153469   0.01883305
7342.00   3.02822137   0.01848065
7344.00   3.09372902   0.01625788
7346.00   3.03404617   0.01614459
7348.00   3.06193066   0.01634392
7350.00   3.09799981   0.01883585
7352.00   3.05104804   0.01963375
7354.00   2.97302318   0.01821216
7356.00   2.96701598   0.01870619
7358.00   2.94516921   0.02144200
7360.00   2.97735071   0.01755249
7362.00   2.90164113   0.01584843
7364.00   2.96095347   0.01664082
7366.00   2.94671202   0.01695681
7368.00   2.85196328   0.01698881
7370.00   2.95132732   0.01838865
7372.00   2.85707116   0.01685977
7374.00   2.81458712   0.01603487
7376.00   2.81982112   0.01666696
7378.00   2.76299572   0.01792760
7380.00   2.75079441   0.01801087
7382.00   2.78896403   0.01655914
7384.00   2.71113729   0.01600814
7386.00   2.72375393   0.01990317
7388.00   2.62509966   0.01853084
7390.00   2.68878484   0.01607963
7392.00   2.70600915   0.01552890
7394.00   2.63052893   0.01613062
7396.00   2.58206153   0.01623523
7398.00   2.61453748   0.01638158
7400.00   2.63483119   0.01601894
7402.00   2.56140423   0.01636898
7404.00   2.56329989   0.01580929
7406.00   2.57297206   0.01725670
7408.00   2.59494543   0.01931697
7410.00   2.63160133   0.01936121
7412.00   2.58042765   0.01750147
7414.00   2.48979402   0.01483608
7416.00   2.43739796   0.01454773
7418.00   2.34196949   0.01437537
7420.00   2.28656054   0.01420623
7422.00   2.33820796   0.01568934
7424.00   2.37997961   0.01720457
7426.00   2.22560430   0.01444372
7428.00   2.33866096   0.01538312
7430.00   2.45054030   0.01594550
7432.00   2.42481422   0.01508017
7434.00   2.37427711   0.01430039
7436.00   2.37724996   0.01433991
7438.00   2.38712358   0.01530826
7440.00   2.35568619   0.01790417
7442.00   2.40609598   0.01768606
7444.00   2.35093594   0.01523226
7446.00   2.30157828   0.01400590
7448.00   2.24101543   0.01425573
7450.00   2.22246242   0.01446405
7452.00   2.27300477   0.01412175
7454.00   2.20195770   0.01392678
7456.00   2.22704101   0.01444371
7458.00   2.17203832   0.01417151
7460.00   2.08842349   0.01357182
7462.00   1.98691666   0.01645927
7464.00   1.92491686   0.01827234
7466.00   1.97081792   0.01440910
7468.00   2.05741453   0.01361509
7470.00   1.99685824   0.01371495
7472.00   2.08592963   0.01382888
7474.00   2.17570829   0.01605671
7476.00   2.18804789   0.01658761
7478.00   2.15970659   0.01489670
7480.00   2.14759469   0.01450588
7482.00   2.13243365   0.01438662
7484.00   2.18984413   0.01646095
7486.00   2.23202682   0.01542900
7488.00   2.28711557   0.01581528
7490.00   2.31724930   0.01608326
7492.00   2.32290840   0.01491548
7494.00   2.33441949   0.01473694
7496.00   2.21684361   0.01422484
7498.00   2.14403772   0.01430214
7500.00   2.13491917   0.01442300
7502.00   2.03737521   0.01391415
7504.00   1.96925545   0.01354805
7506.00   1.95348191   0.01354361
7508.00   1.82212710   0.01324889
7510.00   1.87797523   0.01514656
7512.00   1.84828234   0.01636681
7514.00   1.80437028   0.01749776
7516.00   1.85467398   0.01592010
7518.00   1.91128349   0.01510910
7520.00   1.87784660   0.01670093
7522.00   1.84983218   0.01539658
7524.00   1.98015833   0.01543287
7526.00   2.04742098   0.01532941
7528.00   2.09496665   0.01536398
7530.00   2.05920005   0.01552260
7532.00   1.99301612   0.01535068
7534.00   1.99499643   0.01465073
7536.00   2.06684875   0.01404786
7538.00   2.17642760   0.01432151
7540.00   2.18380165   0.01450719
7542.00   2.18280625   0.01404402
7544.00   2.13083267   0.01478308
7546.00   2.09280562   0.01621895
7548.00   2.11254692   0.01676960
7550.00   2.05245066   0.01644417
7552.00   1.97417724   0.01453670
7554.00   1.97660506   0.01331259
7556.00   1.92417920   0.01532409
7558.00   1.87562084   0.01553206
7560.00   1.97869182   0.01528011
7562.00   2.19915581   0.01714020
7564.00   2.24190354   0.01598513
7566.00   2.24939752   0.01737599
7568.00   2.19869590   0.01646961
7570.00   2.11034751   0.01715985
7572.00   2.05196261   0.01703781
7574.00   2.04014421   0.01511652
7576.00   2.05639672   0.01374394
7578.00   2.12159419   0.01395951
7580.00   2.11816359   0.01498689
7582.00   2.13090324   0.01626653
7584.00   2.23465919   0.01593749
7586.00   2.33026409   0.01413882
7588.00   2.37986374   0.01644910
7590.00   2.39709783   0.02228071
7592.00   2.23940444   0.02061195
7594.00   2.15652132   0.01817851
7596.00   2.21585011   0.02240640
7598.00   2.16039181   0.02578803
7600.00   2.02975607   0.02845643
7602.00   1.93724418   0.03114941
7604.00   1.91536355   0.03258669
7606.00   2.05298042   0.03250057
7608.00   2.15407467   0.02943365
7610.00   2.27403808   0.02622986
7612.00   2.43740249   0.02562716
7614.00   2.50610900   0.02393228
7616.00   2.34309816   0.01989464
7618.00   2.05872464   0.01923901
7620.00   2.10473514   0.02066584
7622.00   2.13034391   0.02111540
7624.00   2.14445543   0.02082377
7626.00   2.24186587   0.02262497
7628.00   2.35599136   0.02380772
7630.00   2.36358929   0.02225788
7632.00   2.27615047   0.02024236
7634.00   2.28973532   0.02026869
7636.00   2.20471430   0.01959787
7638.00   2.24345946   0.02295665
7640.00   2.25283051   0.02305659
7642.00   2.26357555   0.02155580
7644.00   2.33322382   0.02180522
7646.00   2.34537697   0.02051697
7648.00   2.33454919   0.01866895
7650.00   2.26459527   0.01947539
7652.00   2.24540567   0.01862722
7654.00   2.28786898   0.01752383
7656.00   2.32012033   0.01726664
7658.00   2.30945921   0.01713892
7660.00   2.31787896   0.01671407
7662.00   2.31291270   0.01821848
7664.00   2.37283683   0.01787706
7666.00   2.32600188   0.01580689
7668.00   2.28491712   0.01634724
7670.00   2.29792547   0.01770904
7672.00   2.29777908   0.01638271
7674.00   2.26040554   0.01493689
7676.00   2.27721977   0.01539502
7678.00   2.28526425   0.01539311
7680.00   2.28054428   0.01529306
7682.00   2.29382348   0.01526860
7684.00   2.30703139   0.01607335
7686.00   2.27581644   0.01721658
7688.00   2.22136188   0.01625653
7690.00   2.29511619   0.01559220
7692.00   2.27736950   0.01547426
7694.00   2.24994183   0.01546948
7696.00   2.23703861   0.01519041
7698.00   2.26234388   0.01534313
7700.00   2.31832814   0.01697345
7702.00   2.30196643   0.01930630
7704.00   2.27016449   0.01716216
7706.00   2.40108991   0.01628217
7708.00   2.42370677   0.01597029
7710.00   2.38382864   0.01837683
7712.00   2.38726068   0.02060796
7714.00   2.37851191   0.01889314
7716.00   2.23474073   0.01697914
7718.00   2.23040509   0.01628401
7720.00   2.28060699   0.01706827
7722.00   2.33215690   0.01689317
7724.00   2.35438561   0.01593721
7726.00   2.35705876   0.01614955
7728.00   2.37235355   0.01762419
7730.00   2.40947509   0.01649424
7732.00   2.45249295   0.01576144
7734.00   2.40085959   0.01638954
7736.00   2.34529781   0.01773893
7738.00   2.29840946   0.01805235
7740.00   2.31067681   0.01838890
7742.00   2.42012787   0.02046858
7744.00   2.32582474   0.01910811
7746.00   2.41740155   0.01785429
7748.00   2.42480922   0.01784839
7750.00   2.46940112   0.01792909
7752.00   2.47553229   0.01829353
7754.00   2.38055491   0.01898241
7756.00   2.33893156   0.01869910
7758.00   2.44621730   0.01690409
7760.00   2.52966881   0.01641208
7762.00   2.48434401   0.01624836
7764.00   2.43220496   0.01598108
7766.00   2.43300867   0.01574577
7768.00   2.45530510   0.01572621
7770.00   2.47722483   0.01579160
7772.00   2.54435921   0.01560717
7774.00   2.67703581   0.02345140
7776.00   2.62039542   0.02137240
7778.00   2.53635812   0.01962973
7780.00   2.51232791   0.01973998
7782.00   2.53783727   0.01807625
7784.00   2.62799978   0.02040111
7786.00   2.57482028   0.01806590
7788.00   2.48747611   0.01562171
7790.00   2.57657099   0.01821584
7792.00   2.64262891   0.01951502
7794.00   2.57405519   0.01816245
7796.00   2.51656413   0.01702321
7798.00   2.63749838   0.01683968
7800.00   2.61957479   0.01821564
7802.00   2.57796907   0.01715616
7804.00   2.58630824   0.01658581
7806.00   2.73560977   0.01874761
7808.00   2.85695624   0.01993084
7810.00   2.75746155   0.01846321
7812.00   2.62315202   0.02054380
7814.00   2.72270799   0.01825166
7816.00   2.76491237   0.01721611
7818.00   2.71466780   0.02237889
7820.00   2.73952484   0.02316614
7822.00   2.77812624   0.01862935
7824.00   2.71638203   0.01756200
7826.00   2.84048891   0.02149425
7828.00   2.79658198   0.02128407
7830.00   2.82382298   0.01871038
7832.00   2.86628056   0.01883601
7834.00   2.86657906   0.01884307
7836.00   2.87383008   0.01758610
7838.00   2.91566491   0.01892633
7840.00   2.79742980   0.02234656
7842.00   2.70913887   0.01874271
7844.00   2.73048091   0.01847719
7846.00   2.78771806   0.01934171
7848.00   2.90001726   0.02017662
7850.00   2.96434426   0.02035180
7852.00   2.83743358   0.01915006
7854.00   2.75593710   0.01881823
7856.00   2.75244856   0.02065068
7858.00   2.67203689   0.02731797
7860.00   2.78634572   0.02466206
7862.00   2.89345026   0.01949479
7864.00   2.84530187   0.01997311
7866.00   2.84667826   0.01799850
7868.00   2.84642196   0.01995422
7870.00   3.03421021   0.01956123
7872.00   3.16817689   0.02075039
7874.00   3.06770921   0.02203253
7876.00   2.87872887   0.02497574
7878.00   2.83468533   0.02602536
7880.00   2.94289136   0.01848637
7882.00   2.97295189   0.01781880
7884.00   2.98243952   0.01903079
7886.00   2.90521908   0.02623220
7888.00   3.03169680   0.02669969
7890.00   3.19027805   0.02261176
7892.00   3.17033911   0.02074123
7894.00   3.17074227   0.01985474
7896.00   3.11714029   0.02188179
7898.00   2.99821067   0.01963021
7900.00   2.94561625   0.02110090
7902.00   3.07905388   0.02032880
7904.00   3.17780066   0.01821098
7906.00   3.06466842   0.01981169
7908.00   3.00930452   0.02196690
7910.00   3.31441426   0.02136848
7912.00   3.19258356   0.02197785
7914.00   3.15625548   0.02067757
7916.00   3.20035505   0.02007594
7918.00   3.24404836   0.02155905
7920.00   3.28652120   0.02261893
7922.00   3.30443597   0.02079019
7924.00   3.22625518   0.01976599
7926.00   3.19830537   0.01964446
7928.00   3.20291090   0.02124792
7930.00   3.27121711   0.02290672
7932.00   3.27996063   0.02294700
7934.00   3.16579676   0.02225562
7936.00   3.20087934   0.02404112
7938.00   3.32828689   0.02102437
7940.00   3.28704309   0.02007883
7942.00   3.24364662   0.02088770
7944.00   3.23728108   0.02080168
7946.00   3.20757723   0.02026842
7948.00   3.10664821   0.02117987
7950.00   2.99212861   0.02148187
7952.00   3.20899200   0.02206739
7954.00   3.22711682   0.02151951
7956.00   3.21805239   0.02501182
7958.00   3.22601032   0.02753249
7960.00   3.19813561   0.02531501
7962.00   3.15771770   0.02049087
7964.00   3.26193213   0.02163906
7966.00   3.21585989   0.02666046
7968.00   3.18581796   0.02831921
7970.00   3.12056637   0.02410124
7972.00   3.11430430   0.02104590
7974.00   3.16307569   0.02290558
7976.00   3.12082386   0.02229624
7978.00   3.02448726   0.01996235
7980.00   3.14013863   0.02492915
7982.00   3.13346910   0.02388698
7984.00   3.09531045   0.02121826
7986.00   3.08848858   0.02029683
7988.00   3.06094909   0.02063850
7990.00   2.96870613   0.02052372
7992.00   2.96782494   0.02088884
7994.00   3.07152939   0.02151794
7996.00   2.97400045   0.02124429
7998.00   2.94021893   0.02050508
8000.00   2.98690057   0.01981312
8002.00   2.91970849   0.01963055
8004.00   2.73029399   0.02013957
8006.00   2.87351060   0.02024706
8008.00   2.96843958   0.01994601
8010.00   3.04011631   0.01983140
8012.00   2.96410632   0.02227732
8014.00   2.98748112   0.02484364
8016.00   3.11070037   0.02529014
8018.00   2.86628890   0.02487568
8020.00   2.85572481   0.02478616
8022.00   2.90913987   0.02375338
8024.00   2.73130345   0.02613775
8026.00   2.65527272   0.02496456
8028.00   2.77717686   0.02173711
8030.00   2.91229486   0.02196152
8032.00   2.93322110   0.02215539
8034.00   2.54975700   0.02448104
8036.00   2.64294457   0.02166317
