# File created by shivutils (I.Shivvers)
# wl(A)   flm    er(optional)
3422.00   1.56520224   0.05520198
3424.00   1.71029961   0.05688193
3426.00   1.74784148   0.05815693
3428.00   1.62294757   0.05691208
3430.00   1.62087691   0.05741930
3432.00   1.62454820   0.05731192
3434.00   1.60694706   0.05822275
3436.00   1.66935325   0.05934650
3438.00   1.55980659   0.05782702
3440.00   1.57934427   0.05763822
3442.00   1.56692564   0.05723448
3444.00   1.51926708   0.05729218
3446.00   1.53846169   0.05803771
3448.00   1.56583357   0.05862443
3450.00   1.63469374   0.06030717
3452.00   1.66994643   0.06149065
3454.00   1.71911895   0.06177495
3456.00   1.59096515   0.05974636
3458.00   1.61877692   0.06020597
3460.00   1.72760808   0.06091331
3462.00   1.70120394   0.06109118
3464.00   1.61238086   0.05997952
3466.00   1.64423823   0.06027927
3468.00   1.70150673   0.06149938
3470.00   1.66312623   0.06040502
3472.00   1.69194865   0.06092527
3474.00   1.73093033   0.06089440
3476.00   1.58524156   0.06015283
3478.00   1.65440345   0.06139695
3480.00   1.76602864   0.06349180
3482.00   1.79935730   0.06389603
3484.00   1.76088023   0.06304286
3486.00   1.76310444   0.06377174
3488.00   1.77773905   0.06357194
3490.00   1.72207820   0.06241221
3492.00   1.82193661   0.06263070
3494.00   1.83652616   0.06262869
3496.00   1.84094250   0.06255343
3498.00   1.87126076   0.06312475
3500.00   1.92677784   0.06405412
3502.00   1.93319154   0.06397755
3504.00   1.88777196   0.06361408
3506.00   1.80258656   0.06185645
3508.00   1.88750255   0.06265838
3510.00   1.81028748   0.06183238
3512.00   1.89076579   0.06367827
3514.00   1.89823210   0.06306297
3516.00   1.89833677   0.06246286
3518.00   1.83461654   0.06148684
3520.00   1.90724397   0.06167753
3522.00   1.94951940   0.06183400
3524.00   2.03211474   0.06243257
3526.00   1.86936903   0.05998356
3528.00   1.92248690   0.06119804
3530.00   2.01969147   0.06218902
3532.00   1.97093523   0.06167212
3534.00   1.87409711   0.06071573
3536.00   1.94615996   0.06104139
3538.00   1.91571081   0.06086707
3540.00   1.97370410   0.06125432
3542.00   1.96352637   0.06150990
3544.00   2.09738803   0.06346865
3546.00   2.08666492   0.06305969
3548.00   1.99296212   0.06092857
3550.00   2.08518028   0.06219066
3552.00   2.09732223   0.06271724
3554.00   2.12004900   0.06213023
3556.00   2.25000167   0.06266001
3558.00   2.22280407   0.06261030
3560.00   2.28372502   0.06260376
3562.00   2.08818102   0.06064843
3564.00   2.12550616   0.06031591
3566.00   2.26365733   0.06145621
3568.00   2.28697658   0.06098298
3570.00   2.33545256   0.06109942
3572.00   2.29956174   0.06079647
3574.00   2.37390876   0.06112082
3576.00   2.44140601   0.06151061
3578.00   2.36678529   0.06059868
3580.00   2.38209844   0.05990131
3582.00   2.41308069   0.06040420
3584.00   2.47195673   0.06023297
3586.00   2.46201992   0.05970526
3588.00   2.58047342   0.06108895
3590.00   2.50993204   0.06028523
3592.00   2.58433437   0.06035160
3594.00   2.51126790   0.05994657
3596.00   2.66830754   0.06120599
3598.00   2.57775092   0.05996282
3600.00   2.64311814   0.06018442
3602.00   2.52007890   0.05913577
3604.00   2.63721967   0.05941202
3606.00   2.62597919   0.05915908
3608.00   2.78698349   0.05969651
3610.00   2.59679031   0.05781247
3612.00   2.64329767   0.05859778
3614.00   2.68627954   0.05920226
3616.00   2.73296642   0.05949274
3618.00   2.71203661   0.05890993
3620.00   2.73144269   0.05851673
3622.00   2.76735210   0.05881536
3624.00   2.80383921   0.05848549
3626.00   2.84611416   0.05893584
3628.00   2.83712792   0.05859853
3630.00   2.89046335   0.05878957
3632.00   2.98587871   0.05951111
3634.00   3.14504504   0.06018374
3636.00   2.97599792   0.05910484
3638.00   2.81827211   0.05754583
3640.00   2.88024616   0.05799830
3642.00   2.83350134   0.05767578
3644.00   2.79031730   0.05697650
3646.00   2.99726796   0.05828585
3648.00   2.94979501   0.05975688
3650.00   2.96602392   0.06156440
3652.00   3.08982754   0.06075796
3654.00   2.89772940   0.05862471
3656.00   2.95669460   0.05789302
3658.00   2.86308146   0.05606368
3660.00   2.88265467   0.05614805
3662.00   2.88563895   0.05684731
3664.00   2.78301549   0.05574318
3666.00   2.78796244   0.05441157
3668.00   2.85450459   0.05404693
3670.00   2.71168661   0.05281873
3672.00   2.80512381   0.05351193
3674.00   2.69219661   0.05229079
3676.00   2.72979474   0.05221269
3678.00   2.77695394   0.05251803
3680.00   2.81502581   0.05247925
3682.00   2.82641864   0.05228746
3684.00   2.80405664   0.05215861
3686.00   2.81908536   0.05186676
3688.00   2.84190750   0.05191503
3690.00   2.85521364   0.05190604
3692.00   2.86898637   0.05210539
3694.00   2.90750289   0.05211280
3696.00   2.95245218   0.05225203
3698.00   2.89914989   0.05216573
3700.00   2.92392039   0.05183584
3702.00   2.86347008   0.05132551
3704.00   3.01698422   0.05234501
3706.00   3.10252023   0.05234350
3708.00   3.00519037   0.05167338
3710.00   3.00502229   0.05134523
3712.00   2.99497342   0.05111005
3714.00   2.98956561   0.05182593
3716.00   3.00734377   0.05080841
3718.00   3.02926803   0.05072380
3720.00   3.02487636   0.05038961
3722.00   3.01700759   0.05024963
3724.00   3.06791425   0.05074519
3726.00   3.00375581   0.05013281
3728.00   2.96601748   0.05021570
3730.00   3.03941035   0.05027933
3732.00   2.95943737   0.04943266
3734.00   2.86790800   0.04865882
3736.00   2.83248425   0.04813963
3738.00   2.79276896   0.04802928
3740.00   2.81285644   0.04835100
3742.00   2.64911389   0.04693730
3744.00   2.60855389   0.04614324
3746.00   2.60035777   0.04574772
3748.00   2.39112663   0.04411907
3750.00   2.30670238   0.04355436
3752.00   2.26486850   0.04310860
3754.00   2.24875879   0.04290094
3756.00   2.14836168   0.04202415
3758.00   2.10943937   0.04149990
3760.00   2.04949450   0.04113423
3762.00   2.00122118   0.04047610
3764.00   1.99563336   0.04044643
3766.00   1.88380694   0.03916815
3768.00   1.84494925   0.03880164
3770.00   1.84482765   0.03867050
3772.00   1.75277090   0.03816441
3774.00   1.73587120   0.03798988
3776.00   1.73033762   0.03759799
3778.00   1.68350387   0.03698884
3780.00   1.59079516   0.03605772
3782.00   1.58131826   0.03604798
3784.00   1.59856355   0.03614691
3786.00   1.64783454   0.03625598
3788.00   1.54609394   0.03520740
3790.00   1.58279824   0.03578179
3792.00   1.62196958   0.03658066
3794.00   1.68587017   0.03768992
3796.00   1.67597651   0.03819908
3798.00   1.53118408   0.03690851
3800.00   1.42544854   0.03480893
3802.00   1.53508162   0.03494127
3804.00   1.57995892   0.03521288
3806.00   1.61967218   0.03521331
3808.00   1.60866368   0.03510498
3810.00   1.56494033   0.03459270
3812.00   1.58905828   0.03506295
3814.00   1.63320708   0.03512893
3816.00   1.60032713   0.03444005
3818.00   1.54569709   0.03396008
3820.00   1.57741439   0.03389634
3822.00   1.53905451   0.03375283
3824.00   1.54159188   0.03376178
3826.00   1.55897808   0.03377129
3828.00   1.59197009   0.03417563
3830.00   1.52103353   0.03376405
3832.00   1.55404282   0.03375458
3834.00   1.56386638   0.03364112
3836.00   1.54800653   0.03323355
3838.00   1.45630491   0.03221194
3840.00   1.47670674   0.03225421
3842.00   1.49797690   0.03256154
3844.00   1.50560308   0.03267816
3846.00   1.48586655   0.03258076
3848.00   1.44037390   0.03222378
3850.00   1.45667291   0.03219364
3852.00   1.46669769   0.03203912
3854.00   1.40992832   0.03168251
3856.00   1.40585470   0.03146144
3858.00   1.32961762   0.03049345
3860.00   1.34964073   0.03043638
3862.00   1.31276262   0.03041604
3864.00   1.41192937   0.03105283
3866.00   1.33378243   0.03043362
3868.00   1.40045393   0.03062761
3870.00   1.32506704   0.02977045
3872.00   1.43132532   0.03064044
3874.00   1.42829788   0.03106146
3876.00   1.41943038   0.03093577
3878.00   1.44771779   0.03086029
3880.00   1.44004881   0.03064144
3882.00   1.50342512   0.03102696
3884.00   1.43726540   0.03067829
3886.00   1.53423178   0.03123390
3888.00   1.52788782   0.03117252
3890.00   1.57558537   0.03167605
3892.00   1.53780150   0.03132107
3894.00   1.59738636   0.03178122
3896.00   1.62624919   0.03203393
3898.00   1.62700069   0.03174887
3900.00   1.68333006   0.03236148
3902.00   1.76684821   0.03269642
3904.00   1.78601027   0.03329422
3906.00   1.81970286   0.03366072
3908.00   1.89145148   0.03436582
3910.00   1.91918266   0.03483795
3912.00   2.05077553   0.03569314
3914.00   2.04119992   0.03538650
3916.00   2.07239032   0.03519667
3918.00   2.17401338   0.03553598
3920.00   2.16671205   0.03530106
3922.00   2.21414566   0.03542270
3924.00   2.30841708   0.03597045
3926.00   2.39651918   0.03649636
3928.00   2.41452289   0.03643932
3930.00   2.38537455   0.03597601
3932.00   2.30859756   0.03561322
3934.00   2.42744184   0.03634368
3936.00   2.73056865   0.03803528
3938.00   2.86007094   0.03896956
3940.00   2.98784280   0.03995134
3942.00   3.02427959   0.04022374
3944.00   3.11263394   0.04062226
3946.00   3.14771104   0.04073726
3948.00   3.16891003   0.04078898
3950.00   3.40445065   0.04182081
3952.00   3.39813638   0.04174597
3954.00   3.46327949   0.04201780
3956.00   3.46904778   0.04176389
3958.00   3.57869458   0.04222324
3960.00   3.55274677   0.04218037
3962.00   3.56203127   0.04209122
3964.00   3.49938750   0.04132940
3966.00   3.42626238   0.04074656
3968.00   3.55728197   0.04131902
3970.00   3.65178466   0.04190126
3972.00   3.81095767   0.04266152
3974.00   3.80261087   0.04282831
3976.00   3.90138102   0.04331140
3978.00   3.81477356   0.04286012
3980.00   3.89340901   0.04342179
3982.00   3.95269418   0.04346583
3984.00   3.88158774   0.04301772
3986.00   3.88842511   0.04298667
3988.00   3.91332626   0.04305070
3990.00   3.99170303   0.04324771
3992.00   4.02711773   0.04334202
3994.00   3.94799328   0.04306645
3996.00   3.96848202   0.04320750
3998.00   4.02684927   0.04319046
4000.00   4.02210331   0.04298002
4002.00   4.03081751   0.04295516
4004.00   3.75141883   0.04146210
4006.00   3.84133244   0.04164043
4008.00   3.97263861   0.04233095
4010.00   4.01169872   0.04264847
4012.00   4.05920124   0.04272844
4014.00   4.02680302   0.04260444
4016.00   4.05039692   0.04265573
4018.00   4.03225851   0.04265682
4020.00   3.92798352   0.04247260
4022.00   3.89018583   0.04241949
4024.00   3.89919281   0.04213025
4026.00   3.83529735   0.04159043
4028.00   3.81204796   0.04115733
4030.00   3.80081153   0.04105242
4032.00   3.70316029   0.04043462
4034.00   3.65578127   0.04002014
4036.00   3.65230298   0.03990100
4038.00   3.60114121   0.03955312
4040.00   3.43912268   0.03864329
4042.00   3.36933351   0.03847789
4044.00   3.33982682   0.04044874
4046.00   3.37999249   0.04281285
4048.00   3.24479127   0.04136402
4050.00   3.20885420   0.03827455
4052.00   3.17710805   0.03736869
4054.00   3.16477370   0.03726083
4056.00   3.09149885   0.03673271
4058.00   3.01336455   0.03625314
4060.00   2.90319943   0.03566313
4062.00   2.97686458   0.03591612
4064.00   2.98688889   0.03587108
4066.00   2.94685459   0.03561262
4068.00   2.93826580   0.03559558
4070.00   2.91848612   0.03530204
4072.00   2.91982603   0.03537909
4074.00   2.86017299   0.03509178
4076.00   2.89510679   0.03570714
4078.00   2.93646526   0.03585702
4080.00   2.92427039   0.03555257
4082.00   2.92437506   0.03537841
4084.00   2.98311067   0.03547112
4086.00   2.91134143   0.03509348
4088.00   3.00150990   0.03532873
4090.00   3.04066133   0.03532983
4092.00   2.98758793   0.03503843
4094.00   2.98693299   0.03497942
4096.00   3.01961470   0.03507540
4098.00   3.15495205   0.03548729
4100.00   3.21675181   0.03557824
4102.00   3.20369148   0.03536817
4104.00   3.24834418   0.03561677
4106.00   3.28910923   0.03577057
4108.00   3.36459899   0.03616535
4110.00   3.37611604   0.03614698
4112.00   3.41142511   0.03630544
4114.00   3.41362500   0.03622654
4116.00   3.38627219   0.03608388
4118.00   3.42175174   0.03603850
4120.00   3.38361049   0.03581814
4122.00   3.48897767   0.03632553
4124.00   3.52136660   0.03640016
4126.00   3.50865531   0.03624922
4128.00   3.60534096   0.03671957
4130.00   3.66341734   0.03693869
4132.00   3.66087222   0.03679829
4134.00   3.68690205   0.03693819
4136.00   3.72421002   0.03697784
4138.00   3.77627087   0.03716055
4140.00   3.75805569   0.03699945
4142.00   3.78584409   0.03695223
4144.00   3.81337166   0.03692011
4146.00   3.82185936   0.03689524
4148.00   3.89279938   0.03712592
4150.00   3.91475368   0.03716087
4152.00   3.86456847   0.03708557
4154.00   3.85084605   0.03693999
4156.00   3.84696245   0.03689166
4158.00   3.94155812   0.03702299
4160.00   3.83601427   0.03667491
4162.00   3.82622886   0.03669029
4164.00   3.90429592   0.03716475
4166.00   3.91606355   0.03703558
4168.00   3.86780214   0.03678026
4170.00   3.92541552   0.03675067
4172.00   3.93311167   0.03659098
4174.00   3.91186047   0.03632397
4176.00   3.89507675   0.03630430
4178.00   3.79939842   0.03602391
4180.00   3.85404110   0.03601348
4182.00   3.82950759   0.03582757
4184.00   3.79238343   0.03559248
4186.00   3.87213087   0.03587655
4188.00   3.88252139   0.03587897
4190.00   3.82364488   0.03575775
4192.00   3.69909096   0.03518754
4194.00   3.81549931   0.03560738
4196.00   3.82623720   0.03550851
4198.00   3.81418347   0.03542585
4200.00   3.80011559   0.03531289
4202.00   3.75649595   0.03510478
4204.00   3.86543107   0.03546853
4206.00   3.71417952   0.03493384
4208.00   3.71116805   0.03490700
4210.00   3.63460279   0.03461806
4212.00   3.70764637   0.03477726
4214.00   3.70472097   0.03475125
4216.00   3.63011122   0.03439866
4218.00   3.57444119   0.03411829
4220.00   3.57090926   0.03403487
4222.00   3.61123610   0.03407457
4224.00   3.53735995   0.03367634
4226.00   3.57726955   0.03375063
4228.00   3.52587438   0.03356100
4230.00   3.58997631   0.03383527
4232.00   3.53353810   0.03353565
4234.00   3.52156591   0.03350880
4236.00   3.48627448   0.03334440
4238.00   3.49023724   0.03327688
4240.00   3.52181244   0.03333617
4242.00   3.47372627   0.03300536
4244.00   3.55353308   0.03351776
4246.00   3.47702122   0.03345239
4248.00   3.53489971   0.03349826
4250.00   3.54583931   0.03323973
4252.00   3.54298377   0.03296197
4254.00   3.58339143   0.03315132
4256.00   3.54925609   0.03293581
4258.00   3.61570406   0.03317630
4260.00   3.63122201   0.03320350
4262.00   3.61637926   0.03305298
4264.00   3.58087373   0.03294191
4266.00   3.56196404   0.03273637
4268.00   3.54170418   0.03267582
4270.00   3.59017920   0.03275693
4272.00   3.52906370   0.03245918
4274.00   3.42742300   0.03210381
4276.00   3.42955256   0.03209300
4278.00   3.38591480   0.03189874
4280.00   3.38645315   0.03182374
4282.00   3.37995529   0.03174819
4284.00   3.35961914   0.03164768
4286.00   3.34358692   0.03153184
4288.00   3.28495193   0.03126857
4290.00   3.27739310   0.03113621
4292.00   3.20987582   0.03093199
4294.00   3.15353560   0.03071870
4296.00   3.20641923   0.03087435
4298.00   3.09908009   0.03029047
4300.00   3.10721064   0.03027921
4302.00   3.08815527   0.03013333
4304.00   3.06000972   0.02997878
4306.00   3.05955768   0.03008786
4308.00   2.98722982   0.02970767
4310.00   3.00359058   0.02981889
4312.00   2.96238899   0.02985745
4314.00   2.90824342   0.02977086
4316.00   2.97910357   0.03005812
4318.00   2.92639041   0.02983332
4320.00   2.81554508   0.02935119
4322.00   2.87548590   0.02950946
4324.00   2.90280604   0.02947047
4326.00   2.89962053   0.02935422
4328.00   2.79923034   0.02891872
4330.00   2.79202461   0.02894834
4332.00   2.77669740   0.02887559
4334.00   2.71118569   0.02849346
4336.00   2.76107287   0.02864719
4338.00   2.72274661   0.02854121
4340.00   2.72698832   0.02843136
4342.00   2.69170570   0.02835956
4344.00   2.63029504   0.02821117
4346.00   2.64576197   0.02838920
4348.00   2.56265211   0.02810395
4350.00   2.47423649   0.02750136
4352.00   2.44906378   0.02731782
4354.00   2.40792656   0.02763794
4356.00   2.37799883   0.03150377
4358.00   2.35963368   0.03411078
4360.00   2.30348754   0.03207019
4362.00   2.25939202   0.02839128
4364.00   2.24293613   0.02674915
4366.00   2.24035215   0.02633159
4368.00   2.23535967   0.02622688
4370.00   2.18240929   0.02591400
4372.00   2.15685415   0.02591739
4374.00   2.16618204   0.02595936
4376.00   2.09532189   0.02566889
4378.00   2.11753345   0.02546585
4380.00   2.10164571   0.02522571
4382.00   2.02731419   0.02475294
4384.00   1.99568701   0.02446356
4386.00   2.02463913   0.02462318
4388.00   2.01909161   0.02457556
4390.00   1.96932471   0.02448024
4392.00   1.97719252   0.02443346
4394.00   1.95829737   0.02434173
4396.00   1.88455236   0.02396776
4398.00   1.90054381   0.02403269
4400.00   1.85181236   0.02409717
4402.00   1.91785705   0.02424500
4404.00   1.96201515   0.02430066
4406.00   2.00344253   0.02446221
4408.00   2.04683876   0.02465349
4410.00   2.10480666   0.02499896
4412.00   2.10759139   0.02498797
4414.00   2.05899286   0.02471319
4416.00   2.10157919   0.02495502
4418.00   2.18308115   0.02529151
4420.00   2.19202161   0.02531062
4422.00   2.19033718   0.02530747
4424.00   2.15839624   0.02501190
4426.00   2.15674591   0.02498564
4428.00   2.12030363   0.02475189
4430.00   2.10662746   0.02480663
4432.00   2.16261864   0.02501313
4434.00   2.16935468   0.02501375
4436.00   2.15629482   0.02498821
4438.00   2.21572924   0.02529181
4440.00   2.21907806   0.02527986
4442.00   2.22832656   0.02533964
4444.00   2.20915151   0.02528263
4446.00   2.23066282   0.02541960
4448.00   2.22952628   0.02543067
4450.00   2.36071086   0.02594902
4452.00   2.27154231   0.02555002
4454.00   2.26426196   0.02550065
4456.00   2.27287889   0.02548627
4458.00   2.27698970   0.02549343
4460.00   2.33982015   0.02574593
4462.00   2.30396056   0.02560892
4464.00   2.30703044   0.02557406
4466.00   2.30274343   0.02552870
4468.00   2.34477401   0.02575920
4470.00   2.35704422   0.02582365
4472.00   2.39525628   0.02597241
4474.00   2.36056447   0.02583773
4476.00   2.42025447   0.02609955
4478.00   2.43340659   0.02610640
4480.00   2.51021171   0.02642862
4482.00   2.50781035   0.02632095
4484.00   2.45566344   0.02622093
4486.00   2.55368400   0.02664914
4488.00   2.54310846   0.02647419
4490.00   2.50920796   0.02641120
4492.00   2.53233337   0.02660484
4494.00   2.49972320   0.02635147
4496.00   2.49855471   0.02631914
4498.00   2.44816351   0.02616675
4500.00   2.39020610   0.02585826
4502.00   2.38627815   0.02582462
4504.00   2.41475987   0.02593042
4506.00   2.37150383   0.02573836
4508.00   2.37844181   0.02571463
4510.00   2.39982128   0.02578271
4512.00   2.37861204   0.02564209
4514.00   2.41016579   0.02583496
4516.00   2.38093400   0.02562028
4518.00   2.38351274   0.02562281
4520.00   2.40573835   0.02570705
4522.00   2.41133761   0.02571138
4524.00   2.42241168   0.02566057
4526.00   2.42227125   0.02562972
4528.00   2.47020364   0.02575162
4530.00   2.44485617   0.02574438
4532.00   2.44776249   0.02583313
4534.00   2.50672126   0.02591006
4536.00   2.49003768   0.02591512
4538.00   2.47851205   0.02583798
4540.00   2.51964116   0.02604318
4542.00   2.53103089   0.02610242
4544.00   2.57656288   0.02625007
4546.00   2.59738708   0.02633370
4548.00   2.55935884   0.02614843
4550.00   2.71738291   0.02669751
4552.00   2.76274920   0.02687658
4554.00   2.77708626   0.02690575
4556.00   2.76961732   0.02695866
4558.00   2.78187156   0.02704306
4560.00   2.86878586   0.02728846
4562.00   2.89796925   0.02741191
4564.00   2.97850251   0.02760039
4566.00   2.95011449   0.02751991
4568.00   2.99655843   0.02773014
4570.00   3.01350212   0.02776037
4572.00   3.04342890   0.02789841
4574.00   3.04063320   0.02785145
4576.00   3.04473329   0.02795460
4578.00   3.04419088   0.02784629
4580.00   3.07910419   0.02797289
4582.00   3.12302732   0.02809253
4584.00   3.13834786   0.02814047
4586.00   3.11477613   0.02802832
4588.00   3.11927104   0.02800181
4590.00   3.18858933   0.02830078
4592.00   3.12978935   0.02804035
4594.00   3.12156558   0.02799010
4596.00   3.22916722   0.02835714
4598.00   3.18317008   0.02813780
4600.00   3.13988209   0.02802894
4602.00   3.11136031   0.02780948
4604.00   3.10768223   0.02780044
4606.00   3.17958689   0.02807713
4608.00   3.17027426   0.02807506
4610.00   3.15847373   0.02799174
4612.00   3.17141318   0.02800645
4614.00   3.15174079   0.02790667
4616.00   3.16365361   0.02792070
4618.00   3.16528034   0.02789961
4620.00   3.18182158   0.02794181
4622.00   3.18445921   0.02795346
4624.00   3.13156486   0.02774000
4626.00   3.16807747   0.02783250
4628.00   3.10752106   0.02764267
4630.00   3.06018567   0.02738317
4632.00   3.08310962   0.02747144
4634.00   3.05889297   0.02738164
4636.00   3.04260445   0.02726367
4638.00   3.05771542   0.02730724
4640.00   3.05435371   0.02729016
4642.00   3.00480938   0.02713868
4644.00   2.99865651   0.02709041
4646.00   3.00990915   0.02705137
4648.00   2.96302557   0.02690307
4650.00   2.99146938   0.02695706
4652.00   2.93765593   0.02680638
4654.00   2.99530721   0.02699117
4656.00   2.97995353   0.02693952
4658.00   2.98206162   0.02703854
4660.00   2.92369843   0.02677603
4662.00   2.97100163   0.02699238
4664.00   2.94871688   0.02688508
4666.00   2.92069912   0.02681795
4668.00   3.01405263   0.02717125
4670.00   2.98701262   0.02708025
4672.00   2.99306822   0.02705609
4674.00   2.96174622   0.02685987
4676.00   2.95022988   0.02680730
4678.00   2.96225429   0.02675887
4680.00   2.99398923   0.02683909
4682.00   2.98680973   0.02674229
4684.00   3.02091575   0.02687204
4686.00   3.03333640   0.02690701
4688.00   3.04996920   0.02697292
4690.00   3.01448178   0.02676584
4692.00   2.99171233   0.02674801
4694.00   3.00734425   0.02678492
4696.00   2.98463225   0.02672208
4698.00   3.00553536   0.02673770
4700.00   2.99401855   0.02661099
4702.00   3.05488086   0.02686043
4704.00   2.98641467   0.02657799
4706.00   2.98077202   0.02661421
4708.00   2.94459939   0.02644714
4710.00   2.97284865   0.02657192
4712.00   2.97555828   0.02654334
4714.00   2.93012357   0.02635749
4716.00   2.90434289   0.02622764
4718.00   2.88665295   0.02613042
4720.00   2.92480493   0.02625481
4722.00   2.84017825   0.02591594
4724.00   2.84406853   0.02597210
4726.00   2.78143907   0.02579333
4728.00   2.70844531   0.02555488
4730.00   2.71126246   0.02559941
4732.00   2.68369484   0.02545144
4734.00   2.62780833   0.02527158
4736.00   2.60887361   0.02521151
4738.00   2.56028914   0.02505807
4740.00   2.60337925   0.02525261
4742.00   2.53482771   0.02497839
4744.00   2.48963952   0.02483666
4746.00   2.51342607   0.02475913
4748.00   2.42633462   0.02424969
4750.00   2.37575006   0.02399769
4752.00   2.37116957   0.02399809
4754.00   2.38439274   0.02394316
4756.00   2.30594468   0.02353009
4758.00   2.34827113   0.02369924
4760.00   2.27830124   0.02329566
4762.00   2.30172658   0.02338670
4764.00   2.32830548   0.02351975
4766.00   2.32947612   0.02352465
4768.00   2.27852535   0.02330471
4770.00   2.33300090   0.02355037
4772.00   2.30627751   0.02341725
4774.00   2.36784124   0.02361831
4776.00   2.35306597   0.02360952
4778.00   2.37429905   0.02375064
4780.00   2.34623456   0.02361125
4782.00   2.33704758   0.02352487
4784.00   2.33049798   0.02342316
4786.00   2.35871768   0.02340558
4788.00   2.33874917   0.02338356
4790.00   2.24832058   0.02298873
4792.00   2.26315689   0.02307271
4794.00   2.25717282   0.02292747
4796.00   2.23994160   0.02284456
4798.00   2.20102620   0.02266706
4800.00   2.20684052   0.02267358
4802.00   2.20209289   0.02265734
4804.00   2.23364711   0.02270602
4806.00   2.23749328   0.02280020
4808.00   2.20676184   0.02269661
4810.00   2.16454387   0.02253818
4812.00   2.20634270   0.02263286
4814.00   2.18245578   0.02258778
4816.00   2.18759775   0.02256164
4818.00   2.17993307   0.02251131
4820.00   2.15897751   0.02244957
4822.00   2.24471045   0.02283017
4824.00   2.20220280   0.02257868
4826.00   2.16363215   0.02242843
4828.00   2.14847922   0.02240804
4830.00   2.14247227   0.02234760
4832.00   2.07595015   0.02206052
4834.00   2.08686829   0.02217122
4836.00   2.09786081   0.02213991
4838.00   2.02839994   0.02189855
4840.00   2.02843404   0.02188459
4842.00   1.99323654   0.02164937
4844.00   2.03279686   0.02173176
4846.00   1.97252464   0.02143839
4848.00   1.98265278   0.02159001
4850.00   1.95382535   0.02136460
4852.00   1.95914185   0.02130453
4854.00   1.89184844   0.02098142
4856.00   1.93697727   0.02121123
4858.00   1.96272111   0.02133255
4860.00   1.93896806   0.02121454
4862.00   1.93436301   0.02122366
4864.00   1.97086811   0.02138992
4866.00   1.93972087   0.02118976
4868.00   1.99776781   0.02142560
4870.00   1.99286520   0.02141632
4872.00   1.98725891   0.02138184
4874.00   2.02899456   0.02148608
4876.00   2.00506639   0.02135747
4878.00   2.03311801   0.02152766
4880.00   2.00907230   0.02143749
4882.00   2.00791502   0.02138853
4884.00   1.99041140   0.02130808
4886.00   1.96480894   0.02135026
4888.00   1.91771841   0.02093933
4890.00   1.89314032   0.02081199
4892.00   1.91699469   0.02091935
4894.00   1.92880666   0.02093778
4896.00   1.93674672   0.02096474
4898.00   1.88531554   0.02073980
4900.00   1.95005178   0.02091668
4902.00   1.88654518   0.02067021
4904.00   1.90071023   0.02069317
4906.00   1.87141788   0.02061496
4908.00   1.84200835   0.02048036
4910.00   1.85633707   0.02051338
4912.00   1.87164497   0.02054657
4914.00   1.83788836   0.02035847
4916.00   1.80249751   0.02019240
4918.00   1.78416705   0.02010421
4920.00   1.76899195   0.02002957
4922.00   1.69856906   0.01969788
4924.00   1.73781133   0.01979930
4926.00   1.69985712   0.01959458
4928.00   1.63599455   0.01932990
4930.00   1.64091337   0.01929956
4932.00   1.60759652   0.01914362
4934.00   1.58848286   0.01894021
4936.00   1.56465280   0.01893247
4938.00   1.54079831   0.01880503
4940.00   1.52892935   0.01879317
4942.00   1.50296199   0.01864986
4944.00   1.50899971   0.01864308
4946.00   1.44773519   0.01827732
4948.00   1.54238307   0.01879547
4950.00   1.54241025   0.01908847
4952.00   1.51381564   0.01913346
4954.00   1.45674193   0.01872692
4956.00   1.41715646   0.01835155
4958.00   1.42280030   0.01826225
4960.00   1.38952935   0.01800218
4962.00   1.40914989   0.01814241
4964.00   1.42872250   0.01822833
4966.00   1.43423736   0.01832356
4968.00   1.42849576   0.01829958
4970.00   1.47113276   0.01848971
4972.00   1.46970916   0.01865318
4974.00   1.45558822   0.01864146
4976.00   1.48875189   0.01901149
4978.00   1.52042806   0.01929570
4980.00   1.51577508   0.01941312
4982.00   1.53197086   0.01958369
4984.00   1.51690817   0.01960496
4986.00   1.54428327   0.01963071
4988.00   1.60680974   0.01977259
4990.00   1.65086079   0.01980115
4992.00   1.62578082   0.01971766
4994.00   1.68510127   0.01977393
4996.00   1.72311199   0.01986990
4998.00   1.74522138   0.01990391
5000.00   1.75333655   0.01991922
5002.00   1.80377758   0.02003845
5004.00   1.83270621   0.02015423
5006.00   1.83882916   0.02017388
5008.00   1.83617711   0.02015638
5010.00   1.83871615   0.02019516
5012.00   1.87354732   0.02026653
5014.00   1.85144961   0.02018203
5016.00   1.79927790   0.01994306
5018.00   1.86189663   0.02024104
5020.00   1.89738214   0.02039513
5022.00   1.88186407   0.02040853
5024.00   1.89347661   0.02038822
5026.00   1.86611152   0.02026741
5028.00   1.83257353   0.02016602
5030.00   1.79522216   0.02007336
5032.00   1.81224513   0.02007787
5034.00   1.76443386   0.01981355
5036.00   1.78563356   0.01988243
5038.00   1.83062398   0.02004889
5040.00   1.78919435   0.01986648
5042.00   1.74451244   0.01967897
5044.00   1.73265588   0.01967447
5046.00   1.76892674   0.01982867
5048.00   1.81896567   0.02009139
5050.00   1.80483842   0.02002440
5052.00   1.78763723   0.01996216
5054.00   1.73422408   0.01976804
5056.00   1.71811736   0.01971593
5058.00   1.72369754   0.01969803
5060.00   1.74135339   0.01976222
5062.00   1.75274956   0.01991619
5064.00   1.73641777   0.01985282
5066.00   1.73769689   0.01989748
5068.00   1.74833167   0.01999802
5070.00   1.77612078   0.02011702
5072.00   1.70167804   0.01973397
5074.00   1.67433953   0.01958506
5076.00   1.71192074   0.01969659
5078.00   1.72371781   0.01975998
5080.00   1.70009422   0.01989188
5082.00   1.68720055   0.02010068
5084.00   1.72960556   0.02051738
5086.00   1.71809983   0.02051263
5088.00   1.68087041   0.02023211
5090.00   1.71829605   0.02017938
5092.00   1.74625397   0.02006840
5094.00   1.74870801   0.02006133
5096.00   1.67728746   0.01981600
5098.00   1.76233709   0.02033655
5100.00   1.76179695   0.02038432
5102.00   1.73206222   0.02023021
5104.00   1.74375188   0.02012105
5106.00   1.76869774   0.02013927
5108.00   1.80468118   0.02018808
5110.00   1.74202120   0.01992959
5112.00   1.77606928   0.02004124
5114.00   1.78772032   0.02014544
5116.00   1.84508431   0.02051774
5118.00   1.76747632   0.02013539
5120.00   1.81147742   0.02027142
5122.00   1.83801830   0.02036693
5124.00   1.85356915   0.02048691
5126.00   1.81610763   0.02030487
5128.00   1.82978082   0.02039259
5130.00   1.86216056   0.02059508
5132.00   1.85304749   0.02052996
5134.00   1.87985241   0.02064000
5136.00   1.83793926   0.02047336
5138.00   1.86269271   0.02060926
5140.00   1.84549403   0.02053545
5142.00   1.89990461   0.02077626
5144.00   1.91123927   0.02085340
5146.00   1.86270022   0.02070295
5148.00   1.94009542   0.02118456
5150.00   1.93413901   0.02120328
5152.00   1.91503191   0.02128427
5154.00   1.95894980   0.02149718
5156.00   1.94219172   0.02138564
5158.00   2.00215101   0.02167764
5160.00   1.99221611   0.02157261
5162.00   2.01590371   0.02163220
5164.00   2.02399206   0.02164319
5166.00   2.06800604   0.02178363
5168.00   2.06908107   0.02181432
5170.00   2.06707501   0.02183276
5172.00   2.07072067   0.02181531
5174.00   2.15803480   0.02218361
5176.00   2.13320327   0.02216795
5178.00   2.12068248   0.02217958
5180.00   2.16863036   0.02241719
5182.00   2.08750176   0.02210772
5184.00   2.10301757   0.02215857
5186.00   2.16496778   0.02251266
5188.00   2.23400092   0.02279414
5190.00   2.20308280   0.02274338
5192.00   2.23393321   0.02294303
5194.00   2.23008847   0.02294135
5196.00   2.24989247   0.02305724
5198.00   2.34136343   0.02349646
5200.00   2.28178620   0.02334561
5202.00   2.28887415   0.02333388
5204.00   2.36212468   0.02368129
5206.00   2.34151506   0.02358566
5208.00   2.34627199   0.02371625
5210.00   2.35186625   0.02382744
5212.00   2.35795712   0.02387234
5214.00   2.35201812   0.02386090
5216.00   2.40372396   0.02406610
5218.00   2.40847540   0.02416169
5220.00   2.40450597   0.02425606
5222.00   2.38892889   0.02420054
5224.00   2.33195066   0.02398374
5226.00   2.37371635   0.02410611
5228.00   2.36141181   0.02414756
5230.00   2.31927657   0.02396368
5232.00   2.33365130   0.02404791
5234.00   2.41063142   0.02441006
5236.00   2.34900451   0.02419722
5238.00   2.32329345   0.02419816
5240.00   2.28978610   0.02407303
5242.00   2.34835386   0.02431653
5244.00   2.31222582   0.02422759
5246.00   2.31154513   0.02417617
5248.00   2.26196551   0.02395870
5250.00   2.27864313   0.02412561
5252.00   2.26415443   0.02415065
5254.00   2.24311233   0.02404349
5256.00   2.22858596   0.02410253
5258.00   2.19828629   0.02407510
5260.00   2.21197033   0.02408944
5262.00   2.17274261   0.02387798
5264.00   2.20955086   0.02401956
5266.00   2.15948248   0.02383859
5268.00   2.20451069   0.02402302
5270.00   2.20306206   0.02401091
5272.00   2.20550275   0.02416416
5274.00   2.20418334   0.02416896
5276.00   2.17054582   0.02409075
5278.00   2.19887972   0.02422022
5280.00   2.16578197   0.02407134
5282.00   2.19273877   0.02428406
5284.00   2.20082545   0.02440183
5286.00   2.19737506   0.02445269
5288.00   2.23427415   0.02466500
5290.00   2.22584605   0.02474310
5292.00   2.23054385   0.02475617
5294.00   2.24325204   0.02482698
5296.00   2.26706600   0.02504200
5298.00   2.25576615   0.02511186
5300.00   2.33113694   0.02546444
5302.00   2.32003093   0.02542326
5304.00   2.28793216   0.02539935
5306.00   2.24632692   0.02523116
5308.00   2.26088071   0.02538288
5310.00   2.29771876   0.02563325
5312.00   2.31470990   0.02578505
5314.00   2.27026105   0.02562447
5316.00   2.27752233   0.02572776
5318.00   2.31669092   0.02602155
5320.00   2.21373224   0.02560352
5322.00   2.28197193   0.02586848
5324.00   2.22165012   0.02570342
5326.00   2.18901801   0.02559522
5328.00   2.15661144   0.02553946
5330.00   2.15551567   0.02555903
5332.00   2.10570598   0.02549490
5334.00   2.05979276   0.02530394
5336.00   2.03250933   0.02526021
5338.00   1.99897254   0.02523532
5340.00   1.96604896   0.02514857
5342.00   1.93647301   0.02508650
5344.00   1.92936623   0.02504730
5346.00   1.92585671   0.02517892
5348.00   1.85857427   0.02486959
5350.00   1.79348123   0.02462716
5352.00   1.77098453   0.02453630
5354.00   1.78260505   0.02473509
5356.00   1.73137736   0.02457952
5358.00   1.70693994   0.02444057
5360.00   1.66035378   0.02424489
5362.00   1.63476300   0.02398789
5364.00   1.64548874   0.02402278
5366.00   1.61178434   0.02392742
5368.00   1.57449841   0.02374931
5370.00   1.54368985   0.02355422
5372.00   1.52032566   0.02355237
5374.00   1.52123487   0.02375347
5376.00   1.50858092   0.02382433
5378.00   1.50197637   0.02383864
5380.00   1.46853352   0.02359094
5382.00   1.45600331   0.02365757
5384.00   1.42189085   0.02347128
5386.00   1.50699139   0.02402631
5388.00   1.48771083   0.02404454
5390.00   1.45685208   0.02387891
5392.00   1.44658029   0.02398354
5394.00   1.41075850   0.02373450
5396.00   1.41576326   0.02385128
5398.00   1.44629967   0.02420104
5400.00   1.49332488   0.02443734
5402.00   1.46863019   0.02439004
5404.00   1.47887444   0.02451544
5406.00   1.49907303   0.02468609
5408.00   1.47802389   0.02468257
5410.00   1.45117867   0.02477492
5412.00   1.47219992   0.02504263
5414.00   1.47422671   0.02519658
5416.00   1.49126494   0.02550407
5418.00   1.46541607   0.02562486
5420.00   1.54394317   0.02604828
5422.00   1.48846257   0.02598208
5424.00   1.51925635   0.02601808
5426.00   1.55291545   0.02638083
5428.00   1.52416444   0.02622855
5430.00   1.52930892   0.02627803
5432.00   1.50268352   0.01124680
5434.00   1.52650380   0.01008662
5436.00   1.53434122   0.00983326
5438.00   1.53012681   0.01021658
5440.00   1.53639162   0.01009182
5442.00   1.55160689   0.00956357
5444.00   1.55896759   0.00937502
5446.00   1.55093253   0.00953351
5448.00   1.54769981   0.00989650
5450.00   1.57226884   0.01050898
5452.00   1.61803877   0.01138966
5454.00   1.63120341   0.01137506
5456.00   1.62021637   0.01021609
5458.00   1.61557722   0.00996007
5460.00   1.61151099   0.01036640
5462.00   1.60704601   0.01107642
5464.00   1.59938014   0.01213055
5466.00   1.59124959   0.01333470
5468.00   1.60052836   0.01367812
5470.00   1.62753999   0.01332788
5472.00   1.64953458   0.01318690
5474.00   1.68329167   0.01307842
5476.00   1.70064533   0.01276361
5478.00   1.68445015   0.01206436
5480.00   1.65918362   0.01116409
5482.00   1.67337179   0.01053132
5484.00   1.72725439   0.01001456
5486.00   1.73159647   0.00960139
5488.00   1.69717705   0.00936509
5490.00   1.67392504   0.00917062
5492.00   1.65843999   0.00884715
5494.00   1.65187335   0.00877989
5496.00   1.66654301   0.00947842
5498.00   1.70382571   0.01071327
5500.00   1.70223045   0.01143276
5502.00   1.67211974   0.01227963
5504.00   1.64436746   0.01246737
5506.00   1.60652065   0.01193605
5508.00   1.57593608   0.01119900
5510.00   1.56699073   0.01042363
5512.00   1.57159328   0.00950022
5514.00   1.56777263   0.00957693
5516.00   1.55897498   0.01078612
5518.00   1.55935705   0.01131626
5520.00   1.57628989   0.01176690
5522.00   1.57981944   0.01191980
5524.00   1.55511260   0.01165912
5526.00   1.51854515   0.01110552
5528.00   1.50138795   0.01048540
5530.00   1.49609125   0.00931755
5532.00   1.48473907   0.00905449
5534.00   1.47409081   0.00980362
5536.00   1.46034861   0.01012097
5538.00   1.44165325   0.00989076
5540.00   1.42184055   0.00945857
5542.00   1.40524197   0.00903420
5544.00   1.38913488   0.00835964
5546.00   1.37964594   0.00849646
5548.00   1.37799716   0.00961334
5550.00   1.37428391   0.01003178
5552.00   1.37315071   0.00992956
5554.00   1.36697364   0.00959686
5556.00   1.34680140   0.00907723
5558.00   1.31656861   0.00828167
5560.00   1.30042064   0.00794601
5562.00   1.29532933   0.00789978
5564.00   1.28406501   0.00802044
5566.00   1.26720107   0.00835046
5568.00   1.25406086   0.00881691
5570.00   1.24779284   0.00949338
5572.00   1.24626184   0.01021808
5574.00   1.24902678   0.01048702
5576.00   1.25363803   0.01047233
5578.00   1.26985776   0.01037123
5580.00   1.30841684   0.01005991
5582.00   1.33041656   0.00970038
5584.00   1.32604277   0.00918925
5586.00   1.31183827   0.00870363
5588.00   1.30559850   0.00870063
5590.00   1.29637647   0.00914788
5592.00   1.30503750   0.00923374
5594.00   1.33248091   0.00920973
5596.00   1.35585773   0.00910604
5598.00   1.37470412   0.00870188
5600.00   1.39558578   0.00847016
5602.00   1.42416942   0.00898905
5604.00   1.45868218   0.00998008
5606.00   1.48438811   0.01031045
5608.00   1.50680923   0.01039467
5610.00   1.52411509   0.01027123
5612.00   1.52963412   0.00979612
5614.00   1.54134703   0.00927003
5616.00   1.57053602   0.00880772
5618.00   1.60889852   0.00836146
5620.00   1.63677764   0.00818349
5622.00   1.66898549   0.00800597
5624.00   1.67907536   0.00849993
5626.00   1.65804183   0.00991627
5628.00   1.65270531   0.01068245
5630.00   1.67452264   0.01059206
5632.00   1.70923579   0.01010008
5634.00   1.74418843   0.00964252
5636.00   1.79075122   0.00879139
5638.00   1.81790495   0.00865111
5640.00   1.83003020   0.00930251
5642.00   1.84289014   0.00954838
5644.00   1.85431910   0.00933301
5646.00   1.86655533   0.00900626
5648.00   1.88559377   0.00878802
5650.00   1.91092455   0.00851535
5652.00   1.92020488   0.00886100
5654.00   1.91247106   0.00992298
5656.00   1.91418660   0.01048959
5658.00   1.92265260   0.01092121
5660.00   1.93252766   0.01101676
5662.00   1.94309711   0.01047722
5664.00   1.95439470   0.00942648
5666.00   1.95626867   0.00898966
5668.00   1.94703782   0.00895297
5670.00   1.94434726   0.00888820
5672.00   1.94453871   0.00889577
5674.00   1.94440174   0.00903207
5676.00   1.94648421   0.00921100
5678.00   1.94630611   0.00956035
5680.00   1.92873943   0.01048900
5682.00   1.88701761   0.01229538
5684.00   1.87525034   0.01246260
5686.00   1.88459682   0.01115848
5688.00   1.89239705   0.01030307
5690.00   1.89702260   0.01005853
5692.00   1.90330815   0.01022237
5694.00   1.91442430   0.01098890
5696.00   1.92956209   0.01247163
5698.00   1.94450784   0.01230497
5700.00   1.96683800   0.01031050
5702.00   1.97716570   0.00920624
5704.00   1.97430742   0.00902893
5706.00   1.96814644   0.00924962
5708.00   1.96517718   0.00977322
5710.00   1.96211410   0.01059575
5712.00   1.95399582   0.01044826
5714.00   1.93572426   0.00913372
5716.00   1.92977500   0.00863756
5718.00   1.93540192   0.00874893
5720.00   1.93973243   0.00891293
5722.00   1.93686450   0.00885381
5724.00   1.93225157   0.00884317
5726.00   1.93571138   0.00945533
5728.00   1.94699740   0.01083174
5730.00   1.95285225   0.01122913
5732.00   1.96195829   0.01121733
5734.00   1.96086085   0.01088660
5736.00   1.94127166   0.00995441
5738.00   1.91882741   0.00879014
5740.00   1.91661453   0.00833927
5742.00   1.92817855   0.00841089
5744.00   1.93452764   0.00841076
5746.00   1.94471133   0.00863967
5748.00   1.94952297   0.00875657
5750.00   1.95007718   0.00880532
5752.00   1.94635630   0.00878733
5754.00   1.93596399   0.00864730
5756.00   1.91928506   0.00839134
5758.00   1.91277087   0.00833986
5760.00   1.91609597   0.00845649
5762.00   1.91222262   0.00851692
5764.00   1.90071249   0.00858996
5766.00   1.89247894   0.00862764
5768.00   1.89302158   0.00850928
5770.00   1.89823651   0.00835971
5772.00   1.90098202   0.00873732
5774.00   1.90801466   0.00980264
5776.00   1.90464520   0.01008210
5778.00   1.88944495   0.00975521
5780.00   1.87867713   0.00967036
5782.00   1.87874854   0.01006628
5784.00   1.87976670   0.01057944
5786.00   1.86572540   0.01086611
5788.00   1.83598506   0.01121451
5790.00   1.82686913   0.01091158
5792.00   1.83190095   0.00968700
5794.00   1.83633399   0.00880596
5796.00   1.84497881   0.00823947
5798.00   1.85005367   0.00804838
5800.00   1.83988154   0.00857621
5802.00   1.81747103   0.00971737
5804.00   1.81049824   0.00979126
5806.00   1.81763494   0.00889515
5808.00   1.81374705   0.00858374
5810.00   1.79930365   0.00857512
5812.00   1.78536463   0.00890674
5814.00   1.77807832   0.00985791
5816.00   1.77360690   0.01104287
5818.00   1.76496339   0.01100504
5820.00   1.74916828   0.00955642
5822.00   1.74464655   0.00910538
5824.00   1.75340903   0.00937346
5826.00   1.75561881   0.00943524
5828.00   1.74702406   0.00895316
5830.00   1.73147130   0.00829161
5832.00   1.70806074   0.00812973
5834.00   1.66602135   0.00840338
5836.00   1.65536368   0.00834490
5838.00   1.67682397   0.00809453
5840.00   1.68272066   0.00792601
5842.00   1.66801572   0.00786595
5844.00   1.64791071   0.00784398
5846.00   1.63483381   0.00781249
5848.00   1.62385774   0.00779623
5850.00   1.61072600   0.00776385
5852.00   1.59523118   0.00770687
5854.00   1.58238697   0.00768366
5856.00   1.56829882   0.00760384
5858.00   1.56037235   0.00766322
5860.00   1.56758332   0.00803176
5862.00   1.58495808   0.00858339
5864.00   1.58185160   0.00894223
5866.00   1.56127214   0.00946230
5868.00   1.54866850   0.00944390
5870.00   1.53811717   0.00863694
5872.00   1.52783608   0.00815331
5874.00   1.51699126   0.00870731
5876.00   1.50650597   0.00953346
5878.00   1.49886620   0.00932730
5880.00   1.49912703   0.00779630
5882.00   1.48319781   0.00795361
5884.00   1.44854450   0.00919583
5886.00   1.42364538   0.01041504
5888.00   1.40704405   0.01194959
5890.00   1.40115952   0.01313314
5892.00   1.41758859   0.01302585
5894.00   1.45793605   0.01182142
5896.00   1.47966468   0.01114938
5898.00   1.49381471   0.01053231
5900.00   1.50839174   0.00983951
5902.00   1.52117586   0.00891713
5904.00   1.53485489   0.00809880
5906.00   1.55437160   0.00777273
5908.00   1.57796991   0.00784140
5910.00   1.58455908   0.00802492
5912.00   1.56837690   0.00867979
5914.00   1.57175899   0.00888852
5916.00   1.58848453   0.00874335
5918.00   1.60905373   0.00861532
5920.00   1.63276792   0.00862886
5922.00   1.65868044   0.00870999
5924.00   1.67436123   0.00891180
5926.00   1.68505836   0.00953528
5928.00   1.68831182   0.00937441
5930.00   1.67784965   0.00830996
5932.00   1.67352009   0.00754853
5934.00   1.68023109   0.00751147
5936.00   1.69026482   0.00775158
5938.00   1.69492710   0.00780406
5940.00   1.69754171   0.00787566
5942.00   1.69922125   0.00786740
5944.00   1.69509482   0.00763432
5946.00   1.69886911   0.00770965
5948.00   1.71225178   0.00824914
5950.00   1.72842956   0.00873613
5952.00   1.74331915   0.00875413
5954.00   1.75963914   0.00847317
5956.00   1.76580477   0.00850976
5958.00   1.76489151   0.00881172
5960.00   1.75947499   0.00887728
5962.00   1.74289954   0.00880389
5964.00   1.73064661   0.00861317
5966.00   1.73113048   0.00821770
5968.00   1.73896003   0.00767207
5970.00   1.74716532   0.00750493
5972.00   1.76760364   0.00776599
5974.00   1.76857913   0.00771879
5976.00   1.74729776   0.00729701
5978.00   1.73712087   0.00726974
5980.00   1.75210130   0.00806051
5982.00   1.77304280   0.00894910
5984.00   1.76866055   0.00897095
5986.00   1.74620509   0.00831803
5988.00   1.72946787   0.00804393
5990.00   1.70756543   0.00783368
5992.00   1.69093883   0.00767856
5994.00   1.68191051   0.00762922
5996.00   1.67417848   0.00758970
5998.00   1.65979064   0.00742213
6000.00   1.63961577   0.00714949
6002.00   1.63869011   0.00707289
6004.00   1.65087187   0.00714757
6006.00   1.66958153   0.00721861
6008.00   1.70420158   0.00718699
6010.00   1.73462141   0.00736048
6012.00   1.74806654   0.00801688
6014.00   1.75157988   0.00889412
6016.00   1.75182605   0.00917827
6018.00   1.73656046   0.00921146
6020.00   1.73883665   0.00897747
6022.00   1.76141310   0.00802886
6024.00   1.77288353   0.00745925
6026.00   1.75658858   0.00798868
6028.00   1.73193002   0.00882728
6030.00   1.73824298   0.00873280
6032.00   1.77231359   0.00773261
6034.00   1.78478515   0.00769122
6036.00   1.78904021   0.00847935
6038.00   1.78995991   0.00882632
6040.00   1.78769898   0.00861496
6042.00   1.78172135   0.00822744
6044.00   1.77113938   0.00803128
6046.00   1.75432742   0.00789155
6048.00   1.74557889   0.00769107
6050.00   1.74060917   0.00738753
6052.00   1.73840344   0.00722050
6054.00   1.74022472   0.00723626
6056.00   1.74344122   0.00726489
6058.00   1.74758744   0.00717331
6060.00   1.75309551   0.00702278
6062.00   1.74828398   0.00700462
6064.00   1.73266959   0.00690451
6066.00   1.72104144   0.00721235
6068.00   1.70704615   0.00818360
6070.00   1.69794393   0.00867893
6072.00   1.69716251   0.00821147
6074.00   1.70181906   0.00723299
6076.00   1.70770764   0.00705239
6078.00   1.72043490   0.00752220
6080.00   1.72471392   0.00754021
6082.00   1.72629964   0.00735703
6084.00   1.72186732   0.00720492
6086.00   1.70885968   0.00704011
6088.00   1.69196486   0.00695825
6090.00   1.67700040   0.00723888
6092.00   1.65752113   0.00791660
6094.00   1.65712905   0.00794340
6096.00   1.67868078   0.00740085
6098.00   1.69060457   0.00706898
6100.00   1.69499111   0.00693731
6102.00   1.69509459   0.00688578
6104.00   1.69075406   0.00687151
6106.00   1.68162453   0.00692025
6108.00   1.67519426   0.00695481
6110.00   1.66492569   0.00700551
6112.00   1.66379905   0.00705754
6114.00   1.67594981   0.00715260
6116.00   1.68363154   0.00719171
6118.00   1.67759359   0.00710612
6120.00   1.66433084   0.00694830
6122.00   1.65441096   0.00687671
6124.00   1.64435244   0.00685713
6126.00   1.63294506   0.00681456
6128.00   1.61723208   0.00674983
6130.00   1.60647154   0.00672257
6132.00   1.60527158   0.00677617
6134.00   1.60662580   0.00684184
6136.00   1.59953451   0.00679166
6138.00   1.59044993   0.00663371
6140.00   1.56904602   0.00657249
6142.00   1.52871001   0.00655627
6144.00   1.49891102   0.00655327
6146.00   1.48253381   0.00659609
6148.00   1.46849251   0.00661935
6150.00   1.44848335   0.00652731
6152.00   1.42661238   0.00633335
6154.00   1.39910519   0.00632100
6156.00   1.36441612   0.00646394
6158.00   1.33143461   0.00655056
6160.00   1.29678750   0.00669183
6162.00   1.26469874   0.00671312
6164.00   1.23932099   0.00644812
6166.00   1.21790218   0.00598046
6168.00   1.18941927   0.00577923
6170.00   1.15590358   0.00577348
6172.00   1.12364268   0.00570547
6174.00   1.09090602   0.00565413
6176.00   1.05765724   0.00560150
6178.00   1.02274907   0.00554770
6180.00   0.98798835   0.00548896
6182.00   0.95813519   0.00540219
6184.00   0.93156391   0.00527368
6186.00   0.90735525   0.00519608
6188.00   0.88907397   0.00515762
6190.00   0.86707199   0.00511410
6192.00   0.83956844   0.00506345
6194.00   0.81096745   0.00501307
6196.00   0.78518623   0.00496801
6198.00   0.76002496   0.00492980
6200.00   0.73942876   0.00487027
6202.00   0.72373360   0.00474178
6204.00   0.70788026   0.00471970
6206.00   0.69261527   0.00483257
6208.00   0.67805439   0.00494612
6210.00   0.66386455   0.00499588
6212.00   0.65021503   0.00501728
6214.00   0.63870931   0.00492604
6216.00   0.63115263   0.00463954
6218.00   0.61974055   0.00450199
6220.00   0.60432291   0.00446361
6222.00   0.59054053   0.00444752
6224.00   0.58075452   0.00443468
6226.00   0.57281554   0.00443685
6228.00   0.56331325   0.00444087
6230.00   0.55156356   0.00446218
6232.00   0.54526359   0.00445952
6234.00   0.54357505   0.00443793
6236.00   0.54221708   0.00441865
6238.00   0.54121333   0.00437619
6240.00   0.54049802   0.00435977
6242.00   0.53902763   0.00446829
6244.00   0.53708255   0.00470125
6246.00   0.53562605   0.00476135
6248.00   0.53413522   0.00475078
6250.00   0.53327256   0.00466182
6252.00   0.53135729   0.00431164
6254.00   0.53206724   0.00409520
6256.00   0.53942788   0.00449042
6258.00   0.55187440   0.00522030
6260.00   0.56013417   0.00540583
6262.00   0.56792670   0.00535316
6264.00   0.57339555   0.00518639
6266.00   0.57483119   0.00468584
6268.00   0.57773954   0.00426552
6270.00   0.58452612   0.00422289
6272.00   0.59352773   0.00438180
6274.00   0.60325718   0.00442518
6276.00   0.61397582   0.00440885
6278.00   0.62669438   0.00454714
6280.00   0.64154673   0.00488857
6282.00   0.65730858   0.00508053
6284.00   0.67479682   0.00502663
6286.00   0.69245017   0.00490495
6288.00   0.70678568   0.00497623
6290.00   0.71863794   0.00517960
6292.00   0.73098433   0.00526377
6294.00   0.73962361   0.00526227
6296.00   0.75441629   0.00532107
6298.00   0.77924228   0.00543670
6300.00   0.80360878   0.00558180
6302.00   0.81658095   0.00578366
6304.00   0.82185686   0.00605607
6306.00   0.83620161   0.00599220
6308.00   0.85697663   0.00546653
6310.00   0.87475276   0.00528104
6312.00   0.88774866   0.00542889
6314.00   0.90512645   0.00558086
6316.00   0.93432599   0.00560220
6318.00   0.96998048   0.00557312
6320.00   0.99264252   0.00549203
6322.00   1.00688219   0.00527955
6324.00   1.02072465   0.00519321
6326.00   1.02743876   0.00502146
6328.00   1.03922808   0.00515501
6330.00   1.06010926   0.00586245
6332.00   1.08529150   0.00661370
6334.00   1.10866570   0.00666753
6336.00   1.13358808   0.00620146
6338.00   1.15561044   0.00592479
6340.00   1.17025185   0.00530130
6342.00   1.19484663   0.00524640
6344.00   1.23749495   0.00613681
6346.00   1.27932489   0.00695768
6348.00   1.29815090   0.00694412
6350.00   1.30068362   0.00639329
6352.00   1.31339133   0.00613728
6354.00   1.33023751   0.00585482
6356.00   1.34298110   0.00571650
6358.00   1.35099649   0.00576662
6360.00   1.35917485   0.00585291
6362.00   1.36995578   0.00588951
6364.00   1.38207567   0.00592218
6366.00   1.39741552   0.00595189
6368.00   1.41915596   0.00588445
6370.00   1.43453705   0.00603172
6372.00   1.44645488   0.00649206
6374.00   1.45611417   0.00673826
6376.00   1.46246481   0.00657437
6378.00   1.46724057   0.00621552
6380.00   1.47640800   0.00607408
6382.00   1.48783660   0.00601886
6384.00   1.50099099   0.00598020
6386.00   1.52005827   0.00598913
6388.00   1.53335989   0.00602055
6390.00   1.53856456   0.00609521
6392.00   1.54057813   0.00617119
6394.00   1.54508460   0.00618021
6396.00   1.55139375   0.00613773
6398.00   1.54796433   0.00613809
6400.00   1.52794373   0.00617843
6402.00   1.52400947   0.00617382
6404.00   1.53994274   0.00610821
6406.00   1.55644751   0.00604538
6408.00   1.55859089   0.00603611
6410.00   1.55326653   0.00605716
6412.00   1.55933678   0.00605700
6414.00   1.57512748   0.00605335
6416.00   1.58499324   0.00604590
6418.00   1.59208000   0.00600610
6420.00   1.59783685   0.00600869
6422.00   1.60291016   0.00611790
6424.00   1.60671306   0.00626528
6426.00   1.60784853   0.00625925
6428.00   1.60647357   0.00610084
6430.00   1.60391402   0.00604893
6432.00   1.59819102   0.00604835
6434.00   1.59379947   0.00603906
6436.00   1.59205854   0.00600936
6438.00   1.59077454   0.00597735
6440.00   1.58645320   0.00595779
6442.00   1.57772243   0.00593767
6444.00   1.58017838   0.00595656
6446.00   1.59350049   0.00601507
6448.00   1.60369444   0.00607212
6450.00   1.61492085   0.00609124
6452.00   1.62109149   0.00616365
6454.00   1.61350346   0.00642211
6456.00   1.59485245   0.00682217
6458.00   1.58624279   0.00682199
6460.00   1.58559501   0.00632494
6462.00   1.57680202   0.00623241
6464.00   1.55817032   0.00652037
6466.00   1.54255009   0.00678722
6468.00   1.53506863   0.00691513
6470.00   1.53287613   0.00697178
6472.00   1.53843141   0.00680237
6474.00   1.56106102   0.00622880
6476.00   1.56605422   0.00597404
6478.00   1.55944932   0.00589705
6480.00   1.55288148   0.00585709
6482.00   1.54625535   0.00584067
6484.00   1.54116273   0.00585378
6486.00   1.54672146   0.00585299
6488.00   1.56665993   0.00585178
6490.00   1.56582296   0.00586763
6492.00   1.54379690   0.00582654
6494.00   1.53438473   0.00593258
6496.00   1.54139757   0.00631696
6498.00   1.55186856   0.00663537
6500.00   1.55565858   0.00653853
6502.00   1.55775154   0.00612059
6504.00   1.55372036   0.00597349
6506.00   1.53918386   0.00585871
6508.00   1.53264129   0.00594383
6510.00   1.53460896   0.00639042
6512.00   1.53562701   0.00668802
6514.00   1.52959836   0.00647270
6516.00   1.52010345   0.00595549
6518.00   1.51594484   0.00609664
6520.00   1.51686049   0.00693329
6522.00   1.51335716   0.00712598
6524.00   1.50450146   0.00697975
6526.00   1.49980617   0.00673823
6528.00   1.50573289   0.00639042
6530.00   1.51407266   0.00596814
6532.00   1.50615752   0.00576680
6534.00   1.48070812   0.00571637
6536.00   1.47349393   0.00572099
6538.00   1.47597539   0.00566297
6540.00   1.48115242   0.00597151
6542.00   1.49541318   0.00696503
6544.00   1.50624347   0.00775958
6546.00   1.49311984   0.00747536
6548.00   1.45952070   0.00620114
6550.00   1.44454718   0.00576585
6552.00   1.43505466   0.00581470
6554.00   1.43260658   0.00589274
6556.00   1.44267988   0.00619331
6558.00   1.45173907   0.00640378
6560.00   1.44960296   0.00625899
6562.00   1.44135177   0.00587945
6564.00   1.43414676   0.00572858
6566.00   1.42341900   0.00568630
6568.00   1.41608214   0.00565282
6570.00   1.41085982   0.00566533
6572.00   1.40662539   0.00569320
6574.00   1.40266621   0.00574563
6576.00   1.39972961   0.00580276
6578.00   1.40003657   0.00576475
6580.00   1.40819228   0.00558951
6582.00   1.40340674   0.00557504
6584.00   1.38596165   0.00553492
6586.00   1.37296820   0.00574839
6588.00   1.36826766   0.00646460
6590.00   1.36499655   0.00709578
6592.00   1.35434687   0.00689602
6594.00   1.33550382   0.00585796
6596.00   1.33498752   0.00571651
6598.00   1.35307801   0.00637321
6600.00   1.36312711   0.00654920
6602.00   1.36669588   0.00611881
6604.00   1.36727738   0.00574341
6606.00   1.36596358   0.00612695
6608.00   1.36218584   0.00693287
6610.00   1.35684407   0.00700381
6612.00   1.34878230   0.00652984
6614.00   1.34076178   0.00623641
6616.00   1.33120251   0.00588462
6618.00   1.32260239   0.00568725
6620.00   1.31667721   0.00588550
6622.00   1.31204987   0.00626075
6624.00   1.30512750   0.00616416
6626.00   1.29740238   0.00556504
6628.00   1.28822315   0.00534540
6630.00   1.27157891   0.00530132
6632.00   1.26484931   0.00533426
6634.00   1.27633750   0.00540644
6636.00   1.29318237   0.00556898
6638.00   1.29468882   0.00591963
6640.00   1.28749514   0.00654030
6642.00   1.27981341   0.00665800
6644.00   1.26587498   0.00644364
6646.00   1.25529957   0.00617812
6648.00   1.24737167   0.00573682
6650.00   1.24195731   0.00529555
6652.00   1.24073946   0.00515629
6654.00   1.24383020   0.00524163
6656.00   1.24132788   0.00522134
6658.00   1.23243272   0.00517416
6660.00   1.23016107   0.00519838
6662.00   1.23827946   0.00525982
6664.00   1.24122143   0.00539310
6666.00   1.22452009   0.00567969
6668.00   1.19827843   0.00603440
6670.00   1.20561016   0.00605810
6672.00   1.23898256   0.00548012
6674.00   1.27222061   0.00570833
6676.00   1.33895373   0.00669011
6678.00   1.36725605   0.00728373
6680.00   1.32678854   0.00735199
6682.00   1.25445163   0.00714644
6684.00   1.20936584   0.00676495
6686.00   1.16242599   0.00580526
6688.00   1.14117336   0.00562839
6690.00   1.14135385   0.00600319
6692.00   1.15054798   0.00650714
6694.00   1.17750633   0.00738753
6696.00   1.20525539   0.00805622
6698.00   1.21030486   0.00786055
6700.00   1.20168281   0.00694679
6702.00   1.18906200   0.00636117
6704.00   1.16430855   0.00561604
6706.00   1.14305294   0.00515099
6708.00   1.12031293   0.00505849
6710.00   1.10200894   0.00513825
6712.00   1.09343910   0.00529778
6714.00   1.09182250   0.00557162
6716.00   1.09021544   0.00569914
6718.00   1.09380412   0.00585124
6720.00   1.09340441   0.00578260
6722.00   1.08913469   0.00530238
6724.00   1.08694875   0.00504800
6726.00   1.08900881   0.00536586
6728.00   1.09342849   0.00590700
6730.00   1.09842110   0.00620193
6732.00   1.10980570   0.00649220
6734.00   1.10714996   0.00658848
6736.00   1.09267676   0.00650002
6738.00   1.07782328   0.00639299
6740.00   1.06048942   0.00629688
6742.00   1.04469430   0.00615106
6744.00   1.03961241   0.00587326
6746.00   1.04357123   0.00542686
6748.00   1.04268980   0.00513220
6750.00   1.04096401   0.00485258
6752.00   1.03976095   0.00473944
6754.00   1.03894496   0.00478872
6756.00   1.03842258   0.00498940
6758.00   1.03898060   0.00543635
6760.00   1.04048574   0.00605805
6762.00   1.03610039   0.00600510
6764.00   1.02510405   0.00516121
6766.00   1.01743567   0.00480527
6768.00   1.01101267   0.00484565
6770.00   1.00530934   0.00490825
6772.00   0.99985391   0.00484990
6774.00   0.99516195   0.00476962
6776.00   0.99325353   0.00474865
6778.00   0.99391979   0.00473276
6780.00   0.99523580   0.00481268
6782.00   1.00032485   0.00503139
6784.00   1.00198376   0.00517527
6786.00   0.99909127   0.00521292
6788.00   0.99316138   0.00520107
6790.00   0.98433310   0.00518772
6792.00   0.96996999   0.00516744
6794.00   0.96389461   0.00506364
6796.00   0.96527874   0.00481165
6798.00   0.96347713   0.00466027
6800.00   0.95795894   0.00463716
6802.00   0.95212513   0.00465027
6804.00   0.94793379   0.00462356
6806.00   0.94418144   0.00458571
6808.00   0.94482857   0.00462177
6810.00   0.95280528   0.00465204
6812.00   0.95446891   0.00483546
6814.00   0.95241201   0.00529713
6816.00   0.94705445   0.00558427
6818.00   0.93639380   0.00546938
6820.00   0.92233384   0.00511564
6822.00   0.91673732   0.00493611
6824.00   0.91513497   0.00472653
6826.00   0.91826773   0.00469599
6828.00   0.92933995   0.00482309
6830.00   0.93891305   0.00500680
6832.00   0.94649839   0.00531172
6834.00   0.95160168   0.00559849
6836.00   0.94900864   0.00554430
6838.00   0.93928975   0.00516019
6840.00   0.92927778   0.00497193
6842.00   0.91270852   0.00482006
6844.00   0.90190256   0.00471336
6846.00   0.89742225   0.00465319
6848.00   0.89658803   0.00464441
6850.00   0.89952612   0.00470540
6852.00   0.90855384   0.00484438
6854.00   0.90222061   0.00489120
6856.00   0.87732488   0.00487958
6858.00   0.86614984   0.00488446
6860.00   0.87130141   0.00485958
6862.00   0.87284738   0.00488617
6864.00   0.85558796   0.00499237
6866.00   0.82824612   0.00516110
6868.00   0.82194263   0.00551841
6870.00   0.83182853   0.00637744
6872.00   0.83773392   0.00642562
6874.00   0.84542614   0.00569032
6876.00   0.85378450   0.00501759
6878.00   0.86527723   0.00481427
6880.00   0.87597829   0.00482366
6882.00   0.87289166   0.00477465
6884.00   0.85514855   0.00479445
6886.00   0.84674942   0.00479151
6888.00   0.84133750   0.00480829
6890.00   0.83614713   0.00480245
6892.00   0.83031768   0.00476079
6894.00   0.82566327   0.00471046
6896.00   0.82471442   0.00468109
6898.00   0.82741553   0.00465546
6900.00   0.82669836   0.00466780
6902.00   0.82586622   0.00468690
6904.00   0.82173139   0.00477424
6906.00   0.81138521   0.00502256
6908.00   0.80271423   0.00517887
6910.00   0.80314201   0.00503071
6912.00   0.80929339   0.00466128
6914.00   0.80588156   0.00451617
6916.00   0.79160851   0.00447688
6918.00   0.78793234   0.00446956
6920.00   0.79648232   0.00453313
6922.00   0.79948646   0.00461261
6924.00   0.78605366   0.00471763
6926.00   0.76650679   0.00482233
6928.00   0.76603419   0.00478081
6930.00   0.78259772   0.00451964
6932.00   0.78893048   0.00450503
6934.00   0.79329079   0.00471486
6936.00   0.79543787   0.00481587
6938.00   0.79501235   0.00471209
6940.00   0.79267293   0.00457764
6942.00   0.78891730   0.00466704
6944.00   0.78159112   0.00493220
6946.00   0.78181434   0.00501736
6948.00   0.79127181   0.00505925
6950.00   0.79411012   0.00500095
6952.00   0.78918362   0.00476935
6954.00   0.78291643   0.00452255
6956.00   0.77978253   0.00443374
6958.00   0.77764016   0.00443940
6960.00   0.77697766   0.00441186
6962.00   0.77783346   0.00439251
6964.00   0.77955341   0.00438728
6966.00   0.78498667   0.00440675
6968.00   0.78723049   0.00442087
6970.00   0.78171825   0.00440886
6972.00   0.77188396   0.00438674
6974.00   0.76655120   0.00440003
6976.00   0.76192439   0.00441882
6978.00   0.76008499   0.00448836
6980.00   0.76329392   0.00467915
6982.00   0.76354188   0.00474947
6984.00   0.75736529   0.00460589
6986.00   0.74979174   0.00438070
6988.00   0.74907261   0.00430868
6990.00   0.75383872   0.00432337
6992.00   0.75481516   0.00432452
6994.00   0.75519693   0.00432859
6996.00   0.75406259   0.00437966
6998.00   0.74915582   0.00453107
7000.00   0.74546903   0.00465416
7002.00   0.74988961   0.00460278
7004.00   0.76116490   0.00441297
7006.00   0.76037484   0.00437356
7008.00   0.74714071   0.00434621
7010.00   0.74249005   0.00447500
7012.00   0.74735647   0.00489521
7014.00   0.74988651   0.00515814
7016.00   0.74220216   0.00495366
7018.00   0.72909176   0.00446367
7020.00   0.72353011   0.00456505
7022.00   0.72180414   0.00533881
7024.00   0.72099739   0.00541043
7026.00   0.72323895   0.00496588
7028.00   0.72491604   0.00455391
7030.00   0.72545457   0.00436144
7032.00   0.72511953   0.00426439
7034.00   0.72250479   0.00421234
7036.00   0.71598762   0.00426302
7038.00   0.71488154   0.00426954
7040.00   0.72061300   0.00428538
7042.00   0.72063589   0.00428571
7044.00   0.71155155   0.00426113
7046.00   0.70113301   0.00423227
7048.00   0.69781089   0.00422273
7050.00   0.69833380   0.00422245
7052.00   0.69981474   0.00423158
7054.00   0.70669675   0.00426962
7056.00   0.70803005   0.00427524
7058.00   0.70298427   0.00423123
7060.00   0.69753617   0.00420082
7062.00   0.69472128   0.00420237
7064.00   0.69296044   0.00422556
7066.00   0.69639117   0.00443994
7068.00   0.70980078   0.00503288
7070.00   0.71267480   0.00510874
7072.00   0.70502430   0.00470549
7074.00   0.70038885   0.00433941
7076.00   0.70486325   0.00424465
7078.00   0.71286535   0.00427310
7080.00   0.71493447   0.00430427
7082.00   0.71536982   0.00445050
7084.00   0.71122634   0.00444599
7086.00   0.69802040   0.00429455
7088.00   0.69117934   0.00421313
7090.00   0.69539201   0.00417327
7092.00   0.70191282   0.00424130
7094.00   0.69966346   0.00462294
7096.00   0.69181848   0.00534410
7098.00   0.68704426   0.00535407
7100.00   0.67981178   0.00468156
7102.00   0.67861462   0.00427258
7104.00   0.68554294   0.00415472
7106.00   0.69346756   0.00414142
7108.00   0.69783074   0.00414897
7110.00   0.70114899   0.00422473
7112.00   0.69650745   0.00422262
7114.00   0.67867440   0.00416293
7116.00   0.67224795   0.00414043
7118.00   0.67515945   0.00413841
7120.00   0.67859244   0.00414632
7122.00   0.68040431   0.00414237
7124.00   0.68134493   0.00414998
7126.00   0.67520189   0.00427262
7128.00   0.65500319   0.00459278
7130.00   0.65345192   0.00465305
7132.00   0.66915739   0.00453283
7134.00   0.67874527   0.00441011
7136.00   0.67651445   0.00429408
7138.00   0.67049050   0.00418601
7140.00   0.66927695   0.00415437
7142.00   0.66967744   0.00419150
7144.00   0.67039084   0.00420748
7146.00   0.67531550   0.00421543
7148.00   0.67393857   0.00426023
7150.00   0.66253304   0.00438546
7152.00   0.65122658   0.00448245
7154.00   0.65091991   0.00439704
7156.00   0.65823483   0.00413936
7158.00   0.65399915   0.00435767
7160.00   0.63749987   0.00503189
7162.00   0.63137257   0.00538012
7164.00   0.63456398   0.00565013
7166.00   0.63867229   0.00571099
7168.00   0.63934404   0.00538490
7170.00   0.63924176   0.00474932
7172.00   0.64218819   0.00445714
7174.00   0.64742118   0.00436436
7176.00   0.65291953   0.00430610
7178.00   0.66330761   0.00425366
7180.00   0.66746628   0.00442930
7182.00   0.65927637   0.00504111
7184.00   0.64693403   0.00566187
7186.00   0.64606482   0.00562793
7188.00   0.65349811   0.00501146
7190.00   0.65616757   0.00472548
7192.00   0.65873462   0.00448572
7194.00   0.65932226   0.00434514
7196.00   0.65758044   0.00426472
7198.00   0.65442491   0.00434454
7200.00   0.65040463   0.00477436
7202.00   0.64479631   0.00551111
7204.00   0.64165479   0.00558819
7206.00   0.63858360   0.00514538
7208.00   0.63895595   0.00482234
7210.00   0.64291668   0.00448135
7212.00   0.64877099   0.00420677
7214.00   0.65721440   0.00413014
7216.00   0.66777259   0.00420070
7218.00   0.66846824   0.00419983
7220.00   0.65872264   0.00420178
7222.00   0.65430897   0.00421288
7224.00   0.65140772   0.00422733
7226.00   0.64930117   0.00425600
7228.00   0.64796281   0.00429458
7230.00   0.64733630   0.00435069
7232.00   0.64699727   0.00445495
7234.00   0.64793551   0.00459232
7236.00   0.64681423   0.00476135
7238.00   0.64499241   0.00484424
7240.00   0.64146560   0.00516889
7242.00   0.63412726   0.00596183
7244.00   0.62712330   0.00661628
7246.00   0.62702286   0.00649320
7248.00   0.63264924   0.00571926
7250.00   0.63357347   0.00527288
7252.00   0.63237000   0.00477341
7254.00   0.63141197   0.00444716
7256.00   0.63008022   0.00438907
7258.00   0.62907976   0.00441142
7260.00   0.62911928   0.00437014
7262.00   0.62986201   0.00433529
7264.00   0.63092852   0.00432999
7266.00   0.63246518   0.00430797
7268.00   0.63441694   0.00439489
7270.00   0.63609695   0.00460383
7272.00   0.63932717   0.00480368
7274.00   0.64704883   0.00497982
7276.00   0.65602338   0.00513051
7278.00   0.65421128   0.00513277
7280.00   0.64048159   0.00497611
7282.00   0.63517511   0.00486944
7284.00   0.63292372   0.00465928
7286.00   0.63172632   0.00459926
7288.00   0.63234985   0.00474943
7290.00   0.63326895   0.00501324
7292.00   0.63066787   0.00533993
7294.00   0.62415570   0.00586701
7296.00   0.62433946   0.00585402
7298.00   0.63156170   0.00530696
7300.00   0.63464606   0.00489770
7302.00   0.63454115   0.00459462
7304.00   0.63159633   0.00438170
7306.00   0.62398696   0.00432823
7308.00   0.61167014   0.00442771
7310.00   0.60738552   0.00449138
7312.00   0.60954732   0.00461833
7314.00   0.60954541   0.00468741
7316.00   0.60782546   0.00474225
7318.00   0.60774237   0.00474062
7320.00   0.61252463   0.00457326
7322.00   0.61953485   0.00432819
7324.00   0.61783916   0.00455393
7326.00   0.60674292   0.00538877
7328.00   0.60191685   0.00553442
7330.00   0.59778273   0.00525982
7332.00   0.59710741   0.00497032
7334.00   0.60179108   0.00468332
7336.00   0.60900849   0.00443056
7338.00   0.61324161   0.00450967
7340.00   0.61533862   0.00490038
7342.00   0.62153733   0.00511203
7344.00   0.63564026   0.00542392
7346.00   0.64057684   0.00547177
7348.00   0.63416415   0.00515336
7350.00   0.62329578   0.00471267
7352.00   0.61274582   0.00442539
7354.00   0.59909403   0.00415631
7356.00   0.59455961   0.00415632
7358.00   0.59822446   0.00452190
7360.00   0.60029900   0.00468962
7362.00   0.60368192   0.00475136
7364.00   0.60551190   0.00475840
7366.00   0.60283089   0.00470900
7368.00   0.59740955   0.00460498
7370.00   0.59630746   0.00454596
7372.00   0.60121328   0.00452701
7374.00   0.59821105   0.00444993
7376.00   0.58886760   0.00430872
7378.00   0.57904410   0.00418266
7380.00   0.56733590   0.00408603
7382.00   0.55690926   0.00401724
7384.00   0.56066751   0.00401945
7386.00   0.57960284   0.00410466
7388.00   0.58893543   0.00415527
7390.00   0.60022193   0.00421911
7392.00   0.60180271   0.00426104
7394.00   0.58772171   0.00426583
7396.00   0.57048076   0.00426730
7398.00   0.56569839   0.00431299
7400.00   0.56764096   0.00439706
7402.00   0.56966889   0.00440962
7404.00   0.57801539   0.00438349
7406.00   0.57996410   0.00432842
7408.00   0.57504791   0.00421552
7410.00   0.56873190   0.00410419
7412.00   0.56409025   0.00404034
7414.00   0.55954772   0.00400308
7416.00   0.55676657   0.00399945
7418.00   0.55488390   0.00406814
7420.00   0.55485678   0.00407467
7422.00   0.55797905   0.00392796
7424.00   0.56023306   0.00395382
7426.00   0.56031877   0.00435808
7428.00   0.55909383   0.00487038
7430.00   0.55636114   0.00502776
7432.00   0.55166233   0.00504182
7434.00   0.54700899   0.00488780
7436.00   0.54049677   0.00434729
7438.00   0.53583980   0.00397251
7440.00   0.53442419   0.00394532
7442.00   0.53377014   0.00406182
7444.00   0.53027093   0.00411724
7446.00   0.52435112   0.00421492
7448.00   0.52218133   0.00423599
7450.00   0.52255553   0.00421837
7452.00   0.52318072   0.00416423
7454.00   0.52663702   0.00403278
7456.00   0.52766109   0.00390881
7458.00   0.51976228   0.00388248
7460.00   0.50506955   0.00391889
7462.00   0.50067091   0.00393515
7464.00   0.50389022   0.00395862
7466.00   0.50474912   0.00399067
7468.00   0.50611377   0.00403942
7470.00   0.50617766   0.00408250
7472.00   0.50332582   0.00411162
7474.00   0.49887592   0.00413181
7476.00   0.49682114   0.00413876
7478.00   0.49668142   0.00413055
7480.00   0.49510014   0.00411957
7482.00   0.49355626   0.00410415
7484.00   0.49069199   0.00407848
7486.00   0.48586929   0.00403831
7488.00   0.48005185   0.00398971
7490.00   0.47444588   0.00394266
7492.00   0.46691787   0.00388675
7494.00   0.46569213   0.00385353
7496.00   0.47153232   0.00383936
7498.00   0.47446030   0.00382726
7500.00   0.47409120   0.00381717
7502.00   0.47290665   0.00381211
7504.00   0.47246793   0.00381424
7506.00   0.47203687   0.00382340
7508.00   0.47195849   0.00383085
7510.00   0.47161454   0.00383283
7512.00   0.47260925   0.00385042
7514.00   0.47681448   0.00387457
7516.00   0.47884515   0.00391727
7518.00   0.47512329   0.00399355
7520.00   0.46783587   0.00409080
7522.00   0.46189773   0.00415251
7524.00   0.45345053   0.00421856
7526.00   0.44960222   0.00422618
7528.00   0.44952157   0.00418030
7530.00   0.45009443   0.00411554
7532.00   0.45095286   0.00402642
7534.00   0.45216867   0.00392493
7536.00   0.45249355   0.00386272
7538.00   0.45290938   0.00379988
7540.00   0.45123011   0.00383092
7542.00   0.44879651   0.00397977
7544.00   0.44363955   0.00408313
7546.00   0.43377340   0.00417468
7548.00   0.42342767   0.00420578
7550.00   0.41802734   0.00406147
7552.00   0.41581586   0.00371917
7554.00   0.41214463   0.00361707
7556.00   0.40847585   0.00370145
7558.00   0.40495881   0.00373616
7560.00   0.40096521   0.00374603
7562.00   0.39794233   0.00376211
7564.00   0.39686811   0.00379500
7566.00   0.39723837   0.00383884
7568.00   0.39887682   0.00389636
7570.00   0.40440667   0.00401025
7572.00   0.40535778   0.00403343
7574.00   0.40336111   0.00396569
7576.00   0.39977583   0.00390906
7578.00   0.39483798   0.00388818
7580.00   0.38846719   0.00389139
7582.00   0.38103494   0.00395722
7584.00   0.36892101   0.00414601
7586.00   0.36578071   0.00415201
7588.00   0.36975762   0.00390525
7590.00   0.37431732   0.00387311
7592.00   0.37940094   0.00401988
7594.00   0.38509566   0.00440201
7596.00   0.38974449   0.00511317
7598.00   0.39282182   0.00591808
7600.00   0.40193382   0.00714969
7602.00   0.42882147   0.00944248
7604.00   0.42992428   0.00994229
7606.00   0.39597023   0.00853444
7608.00   0.36082003   0.00651853
7610.00   0.35100949   0.00555702
7612.00   0.35441452   0.00521213
7614.00   0.35291436   0.00477564
7616.00   0.35596883   0.00464736
7618.00   0.35282242   0.00454183
7620.00   0.34201768   0.00455904
7622.00   0.33362821   0.00463470
7624.00   0.33300042   0.00475460
7626.00   0.33592302   0.00491388
7628.00   0.33397549   0.00502611
7630.00   0.32529801   0.00508962
7632.00   0.32757169   0.00522934
7634.00   0.34018740   0.00551251
7636.00   0.35003990   0.00563091
7638.00   0.35594681   0.00552731
7640.00   0.35897774   0.00529181
7642.00   0.35654700   0.00499590
7644.00   0.34646335   0.00449876
7646.00   0.34572062   0.00426023
7648.00   0.35209367   0.00425738
7650.00   0.35619920   0.00421832
7652.00   0.35935906   0.00415508
7654.00   0.36052302   0.00409497
7656.00   0.35685709   0.00403513
7658.00   0.34883347   0.00397250
7660.00   0.34695482   0.00396391
7662.00   0.35000443   0.00398048
7664.00   0.35067573   0.00405529
7666.00   0.34838548   0.00428608
7668.00   0.34824064   0.00439796
7670.00   0.35374525   0.00420593
7672.00   0.36248437   0.00381695
7674.00   0.36734068   0.00366658
7676.00   0.37138340   0.00365351
7678.00   0.37283584   0.00365573
7680.00   0.37049207   0.00369697
7682.00   0.36907318   0.00380783
7684.00   0.36958900   0.00404700
7686.00   0.37107033   0.00429999
7688.00   0.37321287   0.00435299
7690.00   0.37619230   0.00426560
7692.00   0.37974814   0.00419260
7694.00   0.38492388   0.00404358
7696.00   0.38886729   0.00393564
7698.00   0.39098626   0.00386429
7700.00   0.39283764   0.00383420
7702.00   0.39629334   0.00385088
7704.00   0.40110615   0.00389083
7706.00   0.40225446   0.00412950
7708.00   0.39808422   0.00464027
7710.00   0.39897490   0.00490780
7712.00   0.40687764   0.00502126
7714.00   0.41280228   0.00505445
7716.00   0.41036120   0.00500584
7718.00   0.40306789   0.00487755
7720.00   0.40007669   0.00486560
7722.00   0.39714748   0.00498152
7724.00   0.39774209   0.00496165
7726.00   0.40249848   0.00486866
7728.00   0.40726516   0.00471498
7730.00   0.41112736   0.00445561
7732.00   0.41462967   0.00413516
7734.00   0.41673908   0.00395960
7736.00   0.41625097   0.00387501
7738.00   0.41967306   0.00384862
7740.00   0.42790803   0.00388247
7742.00   0.43259552   0.00400570
7744.00   0.43126005   0.00425523
7746.00   0.42901579   0.00452792
7748.00   0.43248588   0.00470853
7750.00   0.44068581   0.00484924
7752.00   0.44135448   0.00498368
7754.00   0.43453974   0.00520414
7756.00   0.43228465   0.00519844
7758.00   0.43488687   0.00489465
7760.00   0.43778530   0.00453443
7762.00   0.43812999   0.00432234
7764.00   0.43731743   0.00417266
7766.00   0.43597862   0.00406683
7768.00   0.43120360   0.00402722
7770.00   0.43181184   0.00402299
7772.00   0.43792740   0.00408551
7774.00   0.44376856   0.00415188
7776.00   0.44727159   0.00413584
7778.00   0.44984329   0.00413417
7780.00   0.45192510   0.00448115
7782.00   0.45345122   0.00531043
7784.00   0.45406207   0.00544453
7786.00   0.45398757   0.00506962
7788.00   0.45288005   0.00476847
7790.00   0.45044592   0.00464259
7792.00   0.44720864   0.00458329
7794.00   0.44389656   0.00456397
7796.00   0.43983820   0.00463810
7798.00   0.43712598   0.00457523
7800.00   0.43615651   0.00436310
7802.00   0.43371525   0.00424589
7804.00   0.42798468   0.00424020
7806.00   0.42378318   0.00426800
7808.00   0.42628676   0.00427453
7810.00   0.43375596   0.00428384
7812.00   0.43564379   0.00432073
7814.00   0.43403012   0.00436470
7816.00   0.43361503   0.00445242
7818.00   0.43219623   0.00462099
7820.00   0.43286377   0.00474763
7822.00   0.43936411   0.00477150
7824.00   0.44848704   0.00473861
7826.00   0.44683748   0.00472649
7828.00   0.43214795   0.00474922
7830.00   0.42855093   0.00466333
7832.00   0.43085727   0.00444302
7834.00   0.43372619   0.00425770
7836.00   0.43720749   0.00410221
7838.00   0.44056338   0.00402162
7840.00   0.43984446   0.00420446
7842.00   0.43460441   0.00467348
7844.00   0.43447542   0.00483611
7846.00   0.43822339   0.00477596
7848.00   0.44060335   0.00485054
7850.00   0.44157496   0.00513140
7852.00   0.44197729   0.00538910
7854.00   0.44215050   0.00544269
7856.00   0.44193846   0.00538075
7858.00   0.44138035   0.00522921
7860.00   0.43997520   0.00483054
7862.00   0.43926975   0.00460840
7864.00   0.43849632   0.00454980
7866.00   0.43885529   0.00454739
7868.00   0.44124320   0.00456151
7870.00   0.44513500   0.00461122
7872.00   0.44930944   0.00462050
7874.00   0.45472234   0.00461147
7876.00   0.45961609   0.00460023
7878.00   0.46559832   0.00457106
7880.00   0.46960470   0.00455447
7882.00   0.47018448   0.00452817
7884.00   0.46901175   0.00453211
7886.00   0.46893007   0.00470555
7888.00   0.46750104   0.00510508
7890.00   0.47045374   0.00519687
7892.00   0.47872832   0.00512991
7894.00   0.48445210   0.00498081
7896.00   0.48729950   0.00465985
7898.00   0.48838329   0.00430635
7900.00   0.48734695   0.00418304
7902.00   0.48317111   0.00421143
7904.00   0.48449266   0.00429972
7906.00   0.49147546   0.00449202
7908.00   0.49490762   0.00471792
7910.00   0.49582946   0.00504773
7912.00   0.49504042   0.00531567
7914.00   0.49166018   0.00542812
7916.00   0.48604292   0.00544738
7918.00   0.48633587   0.00538094
7920.00   0.49344414   0.00510417
7922.00   0.49513406   0.00500171
7924.00   0.49283201   0.00503731
7926.00   0.49073726   0.00507337
7928.00   0.48990113   0.00509315
7930.00   0.48974615   0.00509236
7932.00   0.49141261   0.00494408
7934.00   0.49549246   0.00457098
7936.00   0.49809021   0.00439594
7938.00   0.49847272   0.00432285
7940.00   0.50209856   0.00430114
7942.00   0.51148224   0.00434897
7944.00   0.52198464   0.00443068
7946.00   0.52695870   0.00447381
7948.00   0.52820265   0.00449400
7950.00   0.53136730   0.00457880
7952.00   0.53522629   0.00471168
7954.00   0.53803629   0.00484838
7956.00   0.54022932   0.00502994
7958.00   0.54128379   0.00517114
7960.00   0.54058450   0.00518942
7962.00   0.53839618   0.00512046
7964.00   0.53530216   0.00511426
7966.00   0.52868295   0.00517358
7968.00   0.52638990   0.00512534
7970.00   0.52771986   0.00494538
7972.00   0.53004467   0.00478221
7974.00   0.53317332   0.00469935
7976.00   0.53682113   0.00466532
7978.00   0.53653866   0.00470393
7980.00   0.53204864   0.00483868
7982.00   0.52999490   0.00494944
7984.00   0.52681041   0.00511244
7986.00   0.52697247   0.00521009
7988.00   0.53195274   0.00519040
7990.00   0.53960389   0.00514067
7992.00   0.54769939   0.00521696
7994.00   0.56021351   0.00542963
7996.00   0.56151778   0.00539396
7998.00   0.55197895   0.00514249
8000.00   0.54517281   0.00492375
8002.00   0.53986305   0.00469688
8004.00   0.53634447   0.00451123
8006.00   0.53690487   0.00446656
8008.00   0.54117370   0.00453738
8010.00   0.54155791   0.00458415
8012.00   0.53881574   0.00467950
8014.00   0.53855771   0.00473604
8016.00   0.54003376   0.00474214
8018.00   0.54243481   0.00477117
8020.00   0.54652292   0.00485142
8022.00   0.55155402   0.00496668
8024.00   0.55075800   0.00515408
8026.00   0.54618841   0.00542343
8028.00   0.53902864   0.00566563
8030.00   0.52294058   0.00612426
8032.00   0.51435959   0.00621275
8034.00   0.52017307   0.00560149
8036.00   0.53199875   0.00459405
8038.00   0.53609347   0.00424492
8040.00   0.53643906   0.00442393
8042.00   0.53898489   0.00441312
8044.00   0.54215318   0.00445320
8046.00   0.54520190   0.00448887
8048.00   0.54917675   0.00452104
8050.00   0.55198294   0.00455295
8052.00   0.55027461   0.00457444
8054.00   0.54443914   0.00457905
8056.00   0.54315579   0.00465588
8058.00   0.54679608   0.00479595
8060.00   0.54533482   0.00492619
8062.00   0.53723150   0.00514300
8064.00   0.53008074   0.00524104
8066.00   0.52916044   0.00503182
8068.00   0.53170043   0.00458958
8070.00   0.53174645   0.00441997
8072.00   0.52884847   0.00441462
8074.00   0.53135353   0.00441420
8076.00   0.54055238   0.00444525
8078.00   0.54729748   0.00454629
8080.00   0.54892200   0.00479538
8082.00   0.54738432   0.00506913
8084.00   0.54281175   0.00503960
8086.00   0.53435278   0.00456293
8088.00   0.52520025   0.00470075
8090.00   0.50807983   0.00548948
8092.00   0.50120586   0.00578419
8094.00   0.50836241   0.00537456
8096.00   0.52207416   0.00476198
8098.00   0.53596973   0.00474148
8100.00   0.55615109   0.00512860
8102.00   0.56057888   0.00513883
8104.00   0.55138266   0.00494018
8106.00   0.54372460   0.00479170
8108.00   0.53518343   0.00454551
8110.00   0.52683073   0.00446963
8112.00   0.52016771   0.00491641
8114.00   0.51440066   0.00565904
8116.00   0.51117760   0.00575965
8118.00   0.50915819   0.00533901
8120.00   0.51088291   0.00516089
8122.00   0.51634085   0.00506597
8124.00   0.52404284   0.00503725
8126.00   0.53629994   0.00513171
8128.00   0.55001462   0.00527838
8130.00   0.54989809   0.00518999
8132.00   0.53492326   0.00483230
8134.00   0.52911103   0.00467604
8136.00   0.52597016   0.00460497
8138.00   0.52361029   0.00457833
8140.00   0.52280939   0.00461355
8142.00   0.52202523   0.00467656
8144.00   0.51694196   0.00468082
8146.00   0.50565296   0.00460951
8148.00   0.50774556   0.00474071
8150.00   0.52908844   0.00516666
8152.00   0.53328192   0.00530096
8154.00   0.51377052   0.00508958
8156.00   0.49271774   0.00480309
8158.00   0.48934039   0.00468579
8160.00   0.49568626   0.00463642
8162.00   0.49899119   0.00462161
8164.00   0.50773042   0.00461883
8166.00   0.50838608   0.00473836
8168.00   0.49956784   0.00507229
8170.00   0.49167135   0.00529929
8172.00   0.49112144   0.00517119
8174.00   0.49353683   0.00488059
8176.00   0.48841861   0.00523406
8178.00   0.47132096   0.00633139
8180.00   0.47001305   0.00657573
8182.00   0.48540163   0.00635332
8184.00   0.49278748   0.00605655
8186.00   0.48342457   0.00567978
8188.00   0.46842882   0.00526299
8190.00   0.46349353   0.00515422
8192.00   0.46183050   0.00528742
8194.00   0.46642500   0.00543866
8196.00   0.48524395   0.00586226
8198.00   0.49189144   0.00597616
8200.00   0.48078156   0.00569944
8202.00   0.46691778   0.00528062
8204.00   0.46546754   0.00495402
8206.00   0.47120219   0.00457355
8208.00   0.47070342   0.00452047
8210.00   0.47020999   0.00491524
8212.00   0.46391326   0.00501872
8214.00   0.44687098   0.00489164
8216.00   0.43357402   0.00472167
8218.00   0.43317109   0.00458063
8220.00   0.44066846   0.00443294
8222.00   0.45068765   0.00445482
8224.00   0.47351748   0.00470963
8226.00   0.48115665   0.00477532
8228.00   0.47813046   0.00473698
8230.00   0.47227749   0.00467882
8232.00   0.46403554   0.00461516
8234.00   0.45416513   0.00453876
8236.00   0.44939303   0.00447741
8238.00   0.44757232   0.00441335
8240.00   0.44699779   0.00437773
8242.00   0.44984806   0.00437444
8244.00   0.45129403   0.00436674
8246.00   0.44980091   0.00432146
8248.00   0.44860551   0.00430585
8250.00   0.45178202   0.00442483
8252.00   0.45841762   0.00466208
8254.00   0.46283025   0.00476442
8256.00   0.47053337   0.00486775
8258.00   0.47009939   0.00482047
8260.00   0.45961645   0.00450460
8262.00   0.44737369   0.00421667
8264.00   0.43832767   0.00424553
8266.00   0.42991444   0.00446240
8268.00   0.42619464   0.00460105
8270.00   0.42866132   0.00482687
8272.00   0.42784628   0.00489161
8274.00   0.42824885   0.00459070
8276.00   0.42403072   0.00462962
8278.00   0.41005951   0.00538733
8280.00   0.39165530   0.00633125
8282.00   0.38417339   0.00678210
8284.00   0.38238734   0.00723529
8286.00   0.38456425   0.00708368
8288.00   0.39582917   0.00600821
8290.00   0.40305945   0.00523586
8292.00   0.40328002   0.00524921
8294.00   0.40147170   0.00555620
8296.00   0.40328705   0.00565973
8298.00   0.40752652   0.00579445
8300.00   0.40782559   0.00578593
8302.00   0.40841478   0.00567925
8304.00   0.40254149   0.00550288
8306.00   0.38607144   0.00514882
8308.00   0.36996472   0.00481820
8310.00   0.36438960   0.00479445
8312.00   0.36512733   0.00499288
8314.00   0.36252740   0.00486124
8316.00   0.36147580   0.00439469
8318.00   0.35667810   0.00414057
8320.00   0.34702620   0.00404748
8322.00   0.33821836   0.00401387
8324.00   0.33242264   0.00399096
8326.00   0.32845548   0.00401395
8328.00   0.32776392   0.00414047
8330.00   0.33200702   0.00440327
8332.00   0.33368742   0.00458193
8334.00   0.33577794   0.00463683
8336.00   0.33616379   0.00486939
8338.00   0.33409736   0.00536635
8340.00   0.33062172   0.00592180
8342.00   0.32697952   0.00634455
8344.00   0.32146162   0.00686112
8346.00   0.32001823   0.00682814
8348.00   0.32583481   0.00620030
8350.00   0.32384539   0.00567375
8352.00   0.30969325   0.00524159
8354.00   0.29508018   0.00486229
8356.00   0.29172054   0.00459309
8358.00   0.29521981   0.00444439
8360.00   0.29657543   0.00431595
8362.00   0.30118710   0.00429426
8364.00   0.30134249   0.00423519
8366.00   0.29655251   0.00415813
8368.00   0.29153290   0.00407942
8370.00   0.28769740   0.00398015
8372.00   0.28450078   0.00387545
8374.00   0.28835982   0.00393343
8376.00   0.30603620   0.00418892
8378.00   0.30727258   0.00430640
8380.00   0.29459637   0.00436227
8382.00   0.28373823   0.00441410
8384.00   0.27869710   0.00449793
8386.00   0.27591476   0.00456618
8388.00   0.27362666   0.00450082
8390.00   0.27150059   0.00415392
8392.00   0.27389252   0.00433620
8394.00   0.28460702   0.00496540
8396.00   0.28857398   0.00541099
8398.00   0.28242752   0.00581408
8400.00   0.27405941   0.00602539
8402.00   0.27195793   0.00570983
8404.00   0.27338916   0.00478856
8406.00   0.27132446   0.00438168
8408.00   0.26446673   0.00428398
8410.00   0.26397899   0.00422850
8412.00   0.27195695   0.00431989
8414.00   0.27932191   0.00441817
8416.00   0.27955821   0.00439516
8418.00   0.27595842   0.00431558
8420.00   0.27532926   0.00439829
8422.00   0.27405670   0.00455063
8424.00   0.27629936   0.00480480
8426.00   0.28455868   0.00527624
8428.00   0.28945160   0.00557806
8430.00   0.28674853   0.00563080
8432.00   0.28029430   0.00551936
8434.00   0.27635697   0.00522603
8436.00   0.27128947   0.00451070
8438.00   0.27013943   0.00413031
8440.00   0.27493665   0.00373960
8442.00   0.27547809   0.00381949
8444.00   0.26756299   0.00469166
8446.00   0.25908998   0.00550389
8448.00   0.26110411   0.00549052
8450.00   0.27102125   0.00487861
8452.00   0.27662790   0.00460168
8454.00   0.28232336   0.00427319
8456.00   0.28654620   0.00420287
8458.00   0.28835535   0.00448615
8460.00   0.29033828   0.00481990
8462.00   0.29529795   0.00504266
8464.00   0.30221063   0.00525113
8466.00   0.30397606   0.00522501
8468.00   0.30083752   0.00494371
8470.00   0.29981917   0.00470561
8472.00   0.29858831   0.00438406
8474.00   0.29911083   0.00411340
8476.00   0.30305219   0.00399394
8478.00   0.30895889   0.00397301
8480.00   0.31247753   0.00393617
8482.00   0.31403595   0.00391133
8484.00   0.31774485   0.00395146
8486.00   0.32392770   0.00406696
8488.00   0.32824513   0.00417730
8490.00   0.32942459   0.00427677
8492.00   0.32934001   0.00437036
8494.00   0.33053181   0.00444409
8496.00   0.33287907   0.00450090
8498.00   0.33174714   0.00456045
8500.00   0.32681304   0.00458765
8502.00   0.32342219   0.00467028
8504.00   0.32112291   0.00488722
8506.00   0.31990045   0.00503781
8508.00   0.32024056   0.00491951
8510.00   0.32193223   0.00458776
8512.00   0.32483929   0.00436455
8514.00   0.32957590   0.00407333
8516.00   0.33432406   0.00393821
8518.00   0.34050941   0.00399904
8520.00   0.34545726   0.00408279
8522.00   0.34705821   0.00410846
8524.00   0.34674606   0.00412316
8526.00   0.34908453   0.00413423
8528.00   0.35436809   0.00413140
8530.00   0.35612339   0.00414076
8532.00   0.35325471   0.00413991
8534.00   0.35381004   0.00416992
8536.00   0.36031660   0.00424881
8538.00   0.36990371   0.00435051
8540.00   0.37954012   0.00443670
8542.00   0.39365357   0.00454034
8544.00   0.39760000   0.00458081
8546.00   0.39196754   0.00454236
8548.00   0.38835210   0.00454971
8550.00   0.38651267   0.00461226
8552.00   0.38578436   0.00469608
8554.00   0.38690820   0.00479257
8556.00   0.38958737   0.00492619
8558.00   0.39359063   0.00491219
8560.00   0.39965957   0.00475357
8562.00   0.40570080   0.00462657
8564.00   0.41298416   0.00447780
8566.00   0.41927883   0.00436567
8568.00   0.42270586   0.00435243
8570.00   0.42428038   0.00440753
8572.00   0.42706028   0.00442610
8574.00   0.43033603   0.00444388
8576.00   0.43292493   0.00446354
8578.00   0.43482023   0.00448575
8580.00   0.43686110   0.00450680
8582.00   0.43859652   0.00452382
8584.00   0.44083858   0.00454030
8586.00   0.44689414   0.00456433
8588.00   0.45808923   0.00458814
8590.00   0.46405300   0.00463021
8592.00   0.46702525   0.00470041
8594.00   0.46962911   0.00475233
8596.00   0.47239161   0.00479074
8598.00   0.47423521   0.00480854
8600.00   0.47327355   0.00477815
8602.00   0.46836156   0.00468976
8604.00   0.47227186   0.00467960
8606.00   0.48386592   0.00470544
8608.00   0.49401325   0.00476389
8610.00   0.50530428   0.00486043
8612.00   0.51454711   0.00497860
8614.00   0.51759201   0.00510564
8616.00   0.51615179   0.00524617
8618.00   0.52077472   0.00540346
8620.00   0.53176033   0.00560442
8622.00   0.53636307   0.00575079
8624.00   0.53577590   0.00586725
8626.00   0.53464639   0.00595839
8628.00   0.53555232   0.00604244
8630.00   0.53623676   0.00609894
8632.00   0.53131080   0.00603843
8634.00   0.51706213   0.00580109
8636.00   0.51433605   0.00571345
8638.00   0.51881146   0.00565025
8640.00   0.52509046   0.00570054
8642.00   0.53331774   0.00596937
8644.00   0.54289728   0.00625003
8646.00   0.55197334   0.00621440
8648.00   0.56382221   0.00589729
8650.00   0.56462741   0.00584736
8652.00   0.55204326   0.00593987
8654.00   0.54639339   0.00603948
8656.00   0.54740930   0.00614844
8658.00   0.55119473   0.00628829
8660.00   0.55647492   0.00651665
8662.00   0.56435031   0.00683139
8664.00   0.56757271   0.00675705
8666.00   0.56698102   0.00621881
8668.00   0.56767941   0.00592886
8670.00   0.56968147   0.00581002
8672.00   0.57029217   0.00573973
8674.00   0.56753707   0.00568504
8676.00   0.56290817   0.00566133
8678.00   0.56128812   0.00558799
8680.00   0.56309283   0.00547151
8682.00   0.56096381   0.00538349
8684.00   0.55605888   0.00530256
8686.00   0.55113083   0.00523150
8688.00   0.54506016   0.00516749
8690.00   0.54008311   0.00511661
8692.00   0.54280967   0.00509439
8694.00   0.55368054   0.00510081
8696.00   0.55832374   0.00510975
8698.00   0.56118941   0.00505619
8700.00   0.56229460   0.00515750
8702.00   0.56004035   0.00554695
8704.00   0.55782014   0.00587152
8706.00   0.55976880   0.00577673
8708.00   0.56446308   0.00535402
8710.00   0.56797308   0.00521569
8712.00   0.57388002   0.00515003
8714.00   0.57494104   0.00522470
8716.00   0.57075471   0.00552173
8718.00   0.56543940   0.00578383
8720.00   0.56054270   0.00590258
8722.00   0.55533767   0.00594569
8724.00   0.55404699   0.00582219
8726.00   0.55378729   0.00538645
8728.00   0.55923092   0.00518365
8730.00   0.57399344   0.00459860
8732.00   0.58490974   0.00494416
8734.00   0.58743829   0.00691692
8736.00   0.58603668   0.00877091
8738.00   0.58617967   0.00875359
8740.00   0.58688456   0.00712610
8742.00   0.58350849   0.00627714
8744.00   0.57657665   0.00531579
8746.00   0.56869024   0.00482225
8748.00   0.55620766   0.00522126
8750.00   0.54631764   0.00585114
8752.00   0.55046809   0.00603069
8754.00   0.56626797   0.00599155
8756.00   0.57585561   0.00637695
8758.00   0.59071684   0.00720392
8760.00   0.59306324   0.00760993
8762.00   0.57868367   0.00771197
8764.00   0.56363481   0.00766795
8766.00   0.55881304   0.00749837
8768.00   0.55877894   0.00717606
8770.00   0.56049752   0.00707697
8772.00   0.56797147   0.00716482
8774.00   0.57147580   0.00715594
8776.00   0.57401371   0.00715502
8778.00   0.57391256   0.00706805
8780.00   0.56979990   0.00681621
8782.00   0.56308097   0.00646258
8784.00   0.55726188   0.00621538
8786.00   0.54755527   0.00597904
8788.00   0.54715383   0.00584743
8790.00   0.55779314   0.00588188
8792.00   0.56319046   0.00585025
8794.00   0.55996627   0.00566995
8796.00   0.55393875   0.00547956
8798.00   0.55079234   0.00549172
8800.00   0.54750299   0.00566966
8802.00   0.54807919   0.00572826
8804.00   0.55336446   0.00579023
8806.00   0.55689925   0.00576129
8808.00   0.55875421   0.00558090
8810.00   0.56041402   0.00540102
8812.00   0.56156504   0.00533198
8814.00   0.56175244   0.00531189
8816.00   0.57183707   0.00559448
8818.00   0.59782559   0.00592971
8820.00   0.60843819   0.00670230
8822.00   0.60922629   0.00804502
8824.00   0.60332608   0.00900702
8826.00   0.58676499   0.00942530
8828.00   0.56431341   0.00953380
8830.00   0.56374913   0.00923250
8832.00   0.59311146   0.00807642
8834.00   0.58952963   0.00751783
8836.00   0.56166834   0.00730251
8838.00   0.53728968   0.00711317
8840.00   0.51695722   0.00692410
8842.00   0.50262123   0.00674550
8844.00   0.50912267   0.00645283
8846.00   0.53782856   0.00599441
8848.00   0.55253845   0.00580691
8850.00   0.56675434   0.00587970
8852.00   0.57385272   0.00589769
8854.00   0.57031333   0.00583383
8856.00   0.56485540   0.00579961
8858.00   0.56599414   0.00588783
8860.00   0.56996173   0.00605990
8862.00   0.57584041   0.00623725
8864.00   0.59191388   0.00652162
8866.00   0.59278476   0.00665930
8868.00   0.57786983   0.00664295
8870.00   0.56045729   0.00662883
8872.00   0.54455382   0.00668820
8874.00   0.52859980   0.00678183
8876.00   0.52854377   0.00694072
8878.00   0.54721165   0.00718104
8880.00   0.55613959   0.00739279
8882.00   0.56719136   0.00767067
8884.00   0.56956893   0.00783815
8886.00   0.55695647   0.00786231
8888.00   0.53749108   0.00777965
8890.00   0.52682239   0.00758720
8892.00   0.51735651   0.00722132
8894.00   0.51589018   0.00690933
8896.00   0.52587527   0.00643294
8898.00   0.53102911   0.00621621
8900.00   0.52881539   0.00638962
8902.00   0.52573377   0.00669359
8904.00   0.52756673   0.00691104
8906.00   0.53161246   0.00718022
8908.00   0.53941810   0.00715414
8910.00   0.55582076   0.00656916
8912.00   0.56411129   0.00659307
8914.00   0.56486690   0.00727239
8916.00   0.56301254   0.00797182
8918.00   0.56151503   0.00852084
8920.00   0.55884576   0.00902958
8922.00   0.55200261   0.00881106
8924.00   0.53986883   0.00751374
8926.00   0.52957839   0.00687614
8928.00   0.51442963   0.00672187
8930.00   0.50744194   0.00659940
8932.00   0.51718163   0.00631589
8934.00   0.53441489   0.00603547
8936.00   0.53712875   0.00603016
8938.00   0.52820599   0.00630821
8940.00   0.52877641   0.00645182
8942.00   0.53818154   0.00664201
8944.00   0.53992820   0.00672300
8946.00   0.52845973   0.00656846
8948.00   0.51444495   0.00642519
8950.00   0.51196712   0.00668865
8952.00   0.51778191   0.00724263
8954.00   0.51543796   0.00759324
8956.00   0.50448322   0.00804333
8958.00   0.50245607   0.00817556
8960.00   0.51568621   0.00798087
8962.00   0.52454484   0.00762314
8964.00   0.51004714   0.00715795
8966.00   0.47981966   0.00649935
8968.00   0.47254157   0.00614029
8970.00   0.48310500   0.00604028
8972.00   0.48536915   0.00591733
8974.00   0.48409474   0.00582668
8976.00   0.48231286   0.00580403
8978.00   0.47926101   0.00570135
8980.00   0.47632599   0.00570078
8982.00   0.48265019   0.00662200
8984.00   0.50640446   0.00869665
8986.00   0.50634438   0.00905599
8988.00   0.48520473   0.00832628
8990.00   0.46986374   0.00762551
8992.00   0.46504375   0.00706775
8994.00   0.46441191   0.00661247
8996.00   0.46414438   0.00664469
8998.00   0.46727136   0.00719792
9000.00   0.46594489   0.00733003
9002.00   0.46308693   0.00737450
9004.00   0.45731294   0.00724960
9006.00   0.44682294   0.00683287
9008.00   0.43585959   0.00636089
9010.00   0.42776930   0.00611851
9012.00   0.42047092   0.00600429
9014.00   0.42080009   0.00594308
9016.00   0.43259194   0.00605181
9018.00   0.43627146   0.00604904
9020.00   0.43538535   0.00597404
9022.00   0.43081254   0.00586738
9024.00   0.42007771   0.00572447
9026.00   0.40550166   0.00555107
9028.00   0.40265378   0.00546596
9030.00   0.41050699   0.00531125
9032.00   0.41374001   0.00548853
9034.00   0.41953135   0.00608230
9036.00   0.42020804   0.00645247
9038.00   0.41126746   0.00649111
9040.00   0.39897305   0.00637082
9042.00   0.39549157   0.00621928
9044.00   0.39944035   0.00583069
9046.00   0.39540854   0.00588048
9048.00   0.38551533   0.00641853
9050.00   0.37757984   0.00664965
9052.00   0.37056708   0.00655936
9054.00   0.36577344   0.00632344
9056.00   0.36645323   0.00601861
9058.00   0.37225708   0.00553055
9060.00   0.37372482   0.00536813
9062.00   0.37251276   0.00550910
9064.00   0.37314901   0.00557194
9066.00   0.37668249   0.00563331
9068.00   0.37870735   0.00566608
9070.00   0.37571016   0.00563091
9072.00   0.36965770   0.00554926
9074.00   0.36767784   0.00550194
9076.00   0.36769551   0.00538495
9078.00   0.36832625   0.00545109
9080.00   0.37121779   0.00570961
9082.00   0.37292105   0.00593647
9084.00   0.37176731   0.00610691
9086.00   0.36953127   0.00622945
9088.00   0.36954254   0.00619136
9090.00   0.37136537   0.00592463
9092.00   0.37162513   0.00587386
9094.00   0.37005749   0.00596803
9096.00   0.37040734   0.00602962
9098.00   0.37291810   0.00605298
9100.00   0.37700656   0.00605639
9102.00   0.38348231   0.00602676
9104.00   0.39424813   0.00595138
9106.00   0.39410102   0.00595071
9108.00   0.38355365   0.00594828
9110.00   0.37614018   0.00606097
9112.00   0.36879340   0.00640596
9114.00   0.36432898   0.00664634
9116.00   0.36659396   0.00652327
9118.00   0.37391511   0.00614995
9120.00   0.37731048   0.00592894
9122.00   0.37810442   0.00563523
9124.00   0.38202700   0.00556471
9126.00   0.38985971   0.00574609
9128.00   0.39600947   0.00593559
9130.00   0.39885509   0.00608638
9132.00   0.39927188   0.00621354
9134.00   0.39549115   0.00616687
9136.00   0.38394594   0.00587898
9138.00   0.38025749   0.00579337
9140.00   0.38190079   0.00577910
9142.00   0.38276631   0.00584420
9144.00   0.38100246   0.00603968
9146.00   0.37971139   0.00625953
9148.00   0.38346428   0.00633544
9150.00   0.39281419   0.00632332
9152.00   0.39424062   0.00632510
9154.00   0.38926834   0.00627190
9156.00   0.38624579   0.00627536
9158.00   0.38310060   0.00622921
9160.00   0.38253748   0.00634583
9162.00   0.38986194   0.00696323
9164.00   0.40401915   0.00791552
9166.00   0.40292454   0.00781482
9168.00   0.38628736   0.00649587
9170.00   0.37892419   0.00586987
9172.00   0.37663805   0.00586892
9174.00   0.37686789   0.00597225
9176.00   0.38053018   0.00598889
9178.00   0.38635385   0.00602434
9180.00   0.38457084   0.00598226
9182.00   0.37486520   0.00587203
9184.00   0.37029710   0.00577511
9186.00   0.36685675   0.00563166
9188.00   0.36498991   0.00553841
9190.00   0.36580604   0.00553292
9192.00   0.36747399   0.00556876
9194.00   0.36574298   0.00558064
9196.00   0.36001247   0.00559998
9198.00   0.36124232   0.00559954
9200.00   0.36960989   0.00557833
9202.00   0.37442592   0.00556453
9204.00   0.37539035   0.00552802
9206.00   0.37468719   0.00552923
9208.00   0.37352294   0.00562378
9210.00   0.37134254   0.00576809
9212.00   0.36829644   0.00610012
9214.00   0.36270711   0.00685628
9216.00   0.35973439   0.00704254
9218.00   0.35752368   0.00663663
9220.00   0.35834098   0.00620076
9222.00   0.36506447   0.00611108
9224.00   0.37581953   0.00617972
9226.00   0.38065177   0.00620893
9228.00   0.38198712   0.00631965
9230.00   0.38344482   0.00633821
9232.00   0.38463837   0.00629081
9234.00   0.38394833   0.00623559
9236.00   0.38128960   0.00618920
9238.00   0.37651157   0.00613621
9240.00   0.36774808   0.00606007
9242.00   0.35022014   0.00592592
9244.00   0.34728542   0.00590504
9246.00   0.35862246   0.00602053
9248.00   0.36427954   0.00605415
9250.00   0.36320257   0.00597407
9252.00   0.35869080   0.00585777
9254.00   0.35079235   0.00577265
9256.00   0.33713347   0.00567882
9258.00   0.33508885   0.00565989
9260.00   0.34432137   0.00573310
9262.00   0.34837157   0.00576292
9264.00   0.34949228   0.00575561
9266.00   0.34818870   0.00574553
9268.00   0.34235534   0.00574485
9270.00   0.33291009   0.00574691
9272.00   0.33358741   0.00579641
9274.00   0.34471861   0.00580414
9276.00   0.34960866   0.00600831
9278.00   0.35220739   0.00643990
9280.00   0.35296479   0.00680373
9282.00   0.35121191   0.00705029
9284.00   0.34786966   0.00722016
9286.00   0.34637389   0.00722442
9288.00   0.34575939   0.00699296
9290.00   0.34481373   0.00692905
9292.00   0.34083861   0.00685313
9294.00   0.34261069   0.00693751
9296.00   0.35669848   0.00715677
9298.00   0.37084034   0.00753845
9300.00   0.36584908   0.00813126
9302.00   0.34601840   0.00880914
9304.00   0.33306170   0.00986364
9306.00   0.30969134   0.01125389
9308.00   0.30769926   0.01246405
9310.00   0.33341593   0.01371718
9312.00   0.36395681   0.01472988
9314.00   0.38365498   0.01528539
9316.00   0.40068960   0.01554876
9318.00   0.40169221   0.01573254
9320.00   0.38357240   0.01577180
9322.00   0.37099874   0.01567287
9324.00   0.35478073   0.01546604
9326.00   0.34456834   0.01505731
9328.00   0.34626749   0.01428256
9330.00   0.35544086   0.01323547
9332.00   0.36330041   0.01255347
9334.00   0.37968105   0.01198160
9336.00   0.38129809   0.01174309
9338.00   0.36838582   0.01216624
9340.00   0.35963070   0.01221321
9342.00   0.35948732   0.01156957
9344.00   0.36193928   0.01062260
9346.00   0.36071134   0.00996350
9348.00   0.35749677   0.00924756
9350.00   0.35642025   0.00914557
9352.00   0.35564122   0.00963790
9354.00   0.35681590   0.01020757
9356.00   0.36326623   0.01108609
9358.00   0.36746323   0.01178892
9360.00   0.35977757   0.01179452
9362.00   0.34253216   0.01127762
9364.00   0.33914512   0.01130973
9366.00   0.34552738   0.01065870
9368.00   0.34995192   0.01210047
9370.00   0.36140060   0.01548466
9372.00   0.36311865   0.01818167
9374.00   0.33889073   0.01987855
9376.00   0.30001917   0.02108325
9378.00   0.29331613   0.02073940
9380.00   0.30878794   0.01845636
9382.00   0.32409006   0.01650140
9384.00   0.35657230   0.01347938
9386.00   0.37592164   0.01066092
9388.00   0.37110430   0.00912296
9390.00   0.35492656   0.00857687
9392.00   0.34550482   0.00796359
9394.00   0.33502302   0.00793539
9396.00   0.32702485   0.00797336
9398.00   0.31863230   0.00841768
9400.00   0.31511596   0.00872187
9402.00   0.31671596   0.00884976
9404.00   0.32245955   0.00895793
9406.00   0.33397228   0.00912670
9408.00   0.35399207   0.00926429
9410.00   0.35447890   0.00980375
9412.00   0.33180192   0.01103647
9414.00   0.32598087   0.01142193
9416.00   0.33831817   0.01089044
9418.00   0.35011864   0.01035454
9420.00   0.34835720   0.01054748
9422.00   0.33990031   0.01108281
9424.00   0.34397417   0.01101863
9426.00   0.35979664   0.01034576
9428.00   0.36781338   0.01016021
9430.00   0.37338874   0.00982343
9432.00   0.37558568   0.01033254
9434.00   0.37268090   0.01214586
9436.00   0.36686406   0.01427313
9438.00   0.36453292   0.01553804
9440.00   0.36499956   0.01701606
9442.00   0.36141437   0.01685138
9444.00   0.35474193   0.01473629
9446.00   0.34818584   0.01292065
9448.00   0.33522558   0.01163997
9450.00   0.32853028   0.01086456
9452.00   0.35150188   0.01108931
9454.00   0.40379262   0.01214437
9456.00   0.42464057   0.01367670
9458.00   0.44300142   0.01672494
9460.00   0.42954791   0.01768306
9462.00   0.36178362   0.01675813
9464.00   0.30056828   0.01515924
9466.00   0.29941356   0.01347840
9468.00   0.33459359   0.01110822
9470.00   0.33841234   0.01082540
9472.00   0.32378957   0.01279908
9474.00   0.32378256   0.01384550
9476.00   0.33734944   0.01514303
9478.00   0.34742299   0.01566971
9480.00   0.34504193   0.01481893
9482.00   0.33756870   0.01301948
9484.00   0.34032825   0.01179080
9486.00   0.35288027   0.01036888
9488.00   0.35644650   0.00956676
9490.00   0.35379583   0.00937916
9492.00   0.35292506   0.00957190
9494.00   0.35192814   0.01018493
9496.00   0.35481888   0.01103033
9498.00   0.37473348   0.01187487
9500.00   0.42002130   0.01308501
9502.00   0.41729665   0.01308049
9504.00   0.37013513   0.01190838
9506.00   0.33757895   0.01091188
9508.00   0.31296954   0.00983532
9510.00   0.29863754   0.00899467
9512.00   0.30551010   0.00903963
9514.00   0.33145130   0.00977446
9516.00   0.33700252   0.01038960
9518.00   0.32852197   0.01146359
9520.00   0.32789767   0.01188899
9522.00   0.33180442   0.01188391
9524.00   0.33743912   0.01161247
9526.00   0.34487242   0.01100780
9528.00   0.35367891   0.01008580
9530.00   0.35782045   0.00954146
9532.00   0.36155254   0.00922293
9534.00   0.35779932   0.00893830
9536.00   0.34184819   0.00874746
9538.00   0.33237621   0.00867944
9540.00   0.33441770   0.00871130
9542.00   0.34217411   0.00888712
9544.00   0.35080558   0.00932842
9546.00   0.36871675   0.01007585
9548.00   0.36560979   0.01053706
9550.00   0.33445576   0.01065398
9552.00   0.32396764   0.01120376
9554.00   0.34533784   0.01247657
9556.00   0.36896580   0.01355649
9558.00   0.36514041   0.01365871
9560.00   0.34488881   0.01309181
9562.00   0.32747954   0.01284096
9564.00   0.29281619   0.01247308
9566.00   0.28439119   0.01233371
9568.00   0.30730218   0.01265285
9570.00   0.33075577   0.01273772
9572.00   0.33714235   0.01205865
9574.00   0.33598605   0.01082071
9576.00   0.33284086   0.01001330
9578.00   0.32376647   0.00924301
9580.00   0.31540641   0.00880015
9582.00   0.30442363   0.00883355
9584.00   0.29505304   0.00889066
9586.00   0.28737724   0.00878491
9588.00   0.28208578   0.00870745
9590.00   0.28400102   0.00897577
9592.00   0.29379830   0.00964423
9594.00   0.30109152   0.00988626
9596.00   0.31159610   0.01001230
9598.00   0.31788298   0.00990930
9600.00   0.31869811   0.00937505
9602.00   0.31682211   0.00876268
9604.00   0.31484333   0.00869538
9606.00   0.31161189   0.00902199
9608.00   0.30747923   0.00911410
9610.00   0.30088598   0.00908738
9612.00   0.29631904   0.00921556
9614.00   0.29007068   0.00949670
9616.00   0.28935719   0.00982380
9618.00   0.30341402   0.01020817
9620.00   0.32828099   0.01064763
9622.00   0.33274126   0.01059845
9624.00   0.32443976   0.01007400
9626.00   0.31344274   0.00962481
9628.00   0.29057306   0.00898290
9630.00   0.27356043   0.00845984
9632.00   0.26858467   0.00823606
9634.00   0.27151641   0.00821565
9636.00   0.28267726   0.00827346
9638.00   0.31001389   0.00857972
9640.00   0.32332078   0.00865907
9642.00   0.33134311   0.00863393
9644.00   0.33496967   0.00857154
9646.00   0.33560020   0.00847569
9648.00   0.33066294   0.00833941
9650.00   0.31411391   0.00812467
9652.00   0.28218353   0.00768756
9654.00   0.27058032   0.00789787
9656.00   0.26813108   0.00849772
9658.00   0.27443871   0.00930520
9660.00   0.29962248   0.01072266
9662.00   0.32096347   0.01168384
9664.00   0.31648120   0.01133457
9666.00   0.29541838   0.00995680
9668.00   0.27678329   0.00945182
9670.00   0.24268314   0.00940245
9672.00   0.23024361   0.00929663
9674.00   0.23745742   0.00920934
9676.00   0.24925256   0.00923887
9678.00   0.26170081   0.00947096
9680.00   0.27618468   0.00981795
9682.00   0.28057650   0.00998185
9684.00   0.27499014   0.01009250
9686.00   0.27411112   0.01009608
9688.00   0.27561274   0.00994258
9690.00   0.27389368   0.00981536
9692.00   0.26437724   0.00969257
9694.00   0.25429627   0.00963604
9696.00   0.25836501   0.00987553
9698.00   0.27762982   0.01046668
9700.00   0.27841890   0.01060666
9702.00   0.25707549   0.01045188
9704.00   0.25589445   0.01031984
9706.00   0.28597021   0.01013688
9708.00   0.31685305   0.01001150
9710.00   0.31852156   0.01009564
9712.00   0.30232659   0.01031524
9714.00   0.29055259   0.01069906
9716.00   0.26746967   0.01146225
9718.00   0.25967526   0.01181494
9720.00   0.27137217   0.01192002
9722.00   0.28006387   0.01181049
9724.00   0.27123380   0.01138083
9726.00   0.25357708   0.01067549
9728.00   0.24669108   0.01035275
9730.00   0.24737142   0.01028547
9732.00   0.24314584   0.01020245
9734.00   0.23226956   0.01019292
9736.00   0.22881584   0.01022397
9738.00   0.23985747   0.01032254
9740.00   0.25678355   0.01043893
9742.00   0.26296031   0.01040655
9744.00   0.25920218   0.01010987
9746.00   0.26959595   0.01031981
9748.00   0.30351052   0.01125533
9750.00   0.31182206   0.01150595
9752.00   0.27995911   0.01081062
9754.00   0.24103342   0.00979699
9756.00   0.23193596   0.00926466
9758.00   0.23915757   0.00892615
9760.00   0.24444585   0.00871963
9762.00   0.25931212   0.00881057
9764.00   0.26628596   0.00880023
9766.00   0.26815483   0.00874182
9768.00   0.26468322   0.00865444
9770.00   0.25209770   0.00850372
9772.00   0.23220119   0.00830243
9774.00   0.22743358   0.00829104
9776.00   0.23701485   0.00839253
9778.00   0.23790564   0.00858976
9780.00   0.22919179   0.00863535
9782.00   0.22856985   0.00917212
9784.00   0.24824244   0.01046671
9786.00   0.27509421   0.01197874
9788.00   0.27577209   0.01300534
9790.00   0.25129098   0.01401810
9792.00   0.24614976   0.01453122
9794.00   0.25048098   0.01476925
9796.00   0.25407606   0.01467820
9798.00   0.25649676   0.01411823
9800.00   0.25845090   0.01330344
9802.00   0.26077148   0.01260200
9804.00   0.26854813   0.01177577
9806.00   0.24850304   0.01130337
9808.00   0.18341646   0.01122881
9810.00   0.15865250   0.01107799
9812.00   0.18348862   0.01090940
9814.00   0.21298030   0.01071998
9816.00   0.21152095   0.01045023
9818.00   0.19455443   0.01011246
9820.00   0.19980074   0.00993463
9822.00   0.22342382   0.00988052
9824.00   0.23635857   0.00984112
9826.00   0.24564850   0.00987145
9828.00   0.24989845   0.00989456
9830.00   0.24671593   0.00987593
9832.00   0.23837388   0.00983830
9834.00   0.23298459   0.00979262
9836.00   0.22861800   0.00960087
9838.00   0.22162241   0.00973694
9840.00   0.21065940   0.01016650
9842.00   0.20253921   0.01055378
9844.00   0.19664674   0.01089415
9846.00   0.19467272   0.01118237
9848.00   0.20336671   0.01131650
9850.00   0.22600268   0.01134122
9852.00   0.23165974   0.01127519
9854.00   0.22197166   0.01104139
9856.00   0.22119747   0.01084540
9858.00   0.23549429   0.01059141
9860.00   0.24679320   0.01045306
9862.00   0.23663373   0.01059176
9864.00   0.21102101   0.01089580
9866.00   0.19934785   0.01171935
9868.00   0.19368085   0.01321402
9870.00   0.18814729   0.01416245
9872.00   0.18461923   0.01508678
9874.00   0.18128920   0.01547362
9876.00   0.17390412   0.01488629
9878.00   0.16594669   0.01357082
9880.00   0.17772567   0.01274724
9882.00   0.22247717   0.01183487
9884.00   0.23118550   0.01140440
9886.00   0.21190104   0.01147359
9888.00   0.19630766   0.01169795
9890.00   0.18858403   0.01207626
9892.00   0.18671533   0.01253535
9894.00   0.20123389   0.01280292
9896.00   0.23922770   0.01308229
9898.00   0.25024036   0.01297593
9900.00   0.24863157   0.01216089
9902.00   0.23792262   0.01191633
9904.00   0.20575438   0.01219804
9906.00   0.17750832   0.01299942
9908.00   0.18864231   0.01458864
9910.00   0.23041198   0.01684519
9912.00   0.24561873   0.01774590
9914.00   0.25807413   0.01819042
9916.00   0.25160915   0.01797144
9918.00   0.21133558   0.01670510
9920.00   0.17969777   0.01522748
9922.00   0.18834333   0.01418065
9924.00   0.22023138   0.01328157
9926.00   0.23261288   0.01266375
9928.00   0.24674127   0.01236848
9930.00   0.24153709   0.01230174
9932.00   0.20540078   0.01206127
9934.00   0.18403964   0.01280913
9936.00   0.19865449   0.01493540
9938.00   0.22762501   0.01746763
9940.00   0.23229834   0.01939032
9942.00   0.22495925   0.02165898
9944.00   0.21498381   0.02240271
9946.00   0.19107297   0.02166069
9948.00   0.17771022   0.02141028
9950.00   0.17980362   0.02195507
9952.00   0.18729457   0.02267175
9954.00   0.19082700   0.02309333
9956.00   0.19635144   0.02346895
9958.00   0.19057529   0.02351770
9960.00   0.16791242   0.02339122
9962.00   0.15878375   0.02290661
9964.00   0.16174777   0.02196630
9966.00   0.17069536   0.02075365
9968.00   0.18624659   0.01926774
9970.00   0.20905793   0.01737093
9972.00   0.20807664   0.01635914
9974.00   0.17258550   0.01634683
9976.00   0.17225954   0.01597669
9978.00   0.20538974   0.01552637
9980.00   0.23398168   0.01509683
9982.00   0.24276821   0.01470417
9984.00   0.24285126   0.01434885
9986.00   0.24470316   0.01409238
9988.00   0.24007937   0.01381564
9990.00   0.24504766   0.01389805
9992.00   0.26430023   0.01439897
9994.00   0.27093318   0.01480608
9996.00   0.25573954   0.01501836
9998.00   0.23393078   0.01521355
10000.00   0.22565125   0.01548554
10002.00   0.22233973   0.01548475
10004.00   0.22608426   0.01686191
10006.00   0.24541131   0.01921326
10008.00   0.25245768   0.02136918
10010.00   0.24382268   0.02384917
10012.00   0.23327349   0.02578570
10014.00   0.23095630   0.02650585
10016.00   0.23188479   0.02646133
10018.00   0.23969810   0.02602510
10020.00   0.26726660   0.02474212
10022.00   0.26928234   0.02352891
10024.00   0.24492416   0.02198433
10026.00   0.21992201   0.02054503
10028.00   0.20669609   0.01957942
10030.00   0.19742863   0.01892208
10032.00   0.18427055   0.01813659
10034.00   0.15912271   0.01704266
10036.00   0.15900826   0.01680765
10038.00   0.18662690   0.01746087
10040.00   0.20448604   0.01804942
10042.00   0.20061050   0.01857325
10044.00   0.19028249   0.01893969
10046.00   0.19396962   0.01852548
10048.00   0.20684713   0.01699484
10050.00   0.21365018   0.01689200
10052.00   0.22371615   0.01745612
10054.00   0.22333957   0.01864246
10056.00   0.20011660   0.02108864
10058.00   0.18223649   0.02303303
10060.00   0.20736553   0.02282985
10062.00   0.26850411   0.02100347
10064.00   0.27318281   0.02030658
10066.00   0.23129274   0.01987762
10068.00   0.20765764   0.01970409
10070.00   0.19286758   0.01990442
10072.00   0.18184246   0.02021334
10074.00   0.17201807   0.02034283
10076.00   0.16505325   0.02047442
10078.00   0.17162165   0.02153021
10080.00   0.19431248   0.02390389
10082.00   0.21195479   0.02480455
10084.00   0.23447855   0.02498375
10086.00   0.25042805   0.02474567
10088.00   0.25485265   0.02401382
10090.00   0.25310054   0.02289391
10092.00   0.25412005   0.02192422
10094.00   0.25691187   0.02059695
10096.00   0.25133011   0.02014421
10098.00   0.23733656   0.02062285
10100.00   0.22407861   0.02091601
10102.00   0.20867430   0.02099087
10104.00   0.19647078   0.02098414
10106.00   0.19800039   0.02085576
10108.00   0.21236059   0.02052564
10110.00   0.21376449   0.02067437
10112.00   0.20205040   0.02119068
10114.00   0.20360018   0.02171044
10116.00   0.21675690   0.02190155
10118.00   0.23633997   0.02266573
10120.00   0.26437777   0.02492766
10122.00   0.30041987   0.02794888
10124.00   0.30846012   0.02876437
10126.00   0.29784414   0.02842585
10128.00   0.27857810   0.02743965
10130.00   0.23513949   0.02472605
10132.00   0.20197842   0.02231042
10134.00   0.18735352   0.02138847
10136.00   0.18775648   0.02133402
10138.00   0.22103626   0.02135392
10140.00   0.31464964   0.02201880
10142.00   0.33939081   0.02228545
10144.00   0.31692597   0.02227239
10146.00   0.29627424   0.02254997
10148.00   0.28037003   0.02328855
10150.00   0.26527300   0.02413836
10152.00   0.25610009   0.02471353
10154.00   0.25142968   0.02520834
10156.00   0.24726512   0.02549754
10158.00   0.25752994   0.02537772
10160.00   0.24356607   0.02561959
10162.00   0.18409635   0.02577316
10164.00   0.13723500   0.02663749
10166.00   0.16124564   0.02932083
10168.00   0.23418279   0.03313187
10170.00   0.25161996   0.03392160
10172.00   0.22606310   0.03254943
10174.00   0.23099931   0.03145768
10176.00   0.27078122   0.02965680
10178.00   0.29348874   0.02819243
10180.00   0.26334068   0.02757194
10182.00   0.20925595   0.02762868
10184.00   0.21532702   0.02891174
10186.00   0.27611345   0.03242914
10188.00   0.30456451   0.03338192
10190.00   0.34573725   0.03321563
10192.00   0.34569129   0.03227782
10194.00   0.26653549   0.02975737
10196.00   0.16849297   0.02672445
10198.00   0.16091235   0.02655322
10200.00   0.21551648   0.02842555
10202.00   0.25636497   0.03035646
10204.00   0.34412453   0.03410962
10206.00   0.36793202   0.03571201
10208.00   0.28920913   0.03493164
10210.00   0.20998381   0.03348418
10212.00   0.24144512   0.03292966
10214.00   0.34987152   0.03264233
10216.00   0.35527799   0.03198996
10218.00   0.28377056   0.03070832
10220.00   0.24181597   0.03025374
10222.00   0.21232106   0.03062903
10224.00   0.18793754   0.03121354
10226.00   0.16561735   0.03185685
10228.00   0.14753440   0.03259449
10230.00   0.14514381   0.03255960
10232.00   0.16709471   0.03208752
10234.00   0.17070824   0.03108040
10236.00   0.15516974   0.02873363
10238.00   0.15507828   0.02704282
10240.00   0.18848476   0.02708914
10242.00   0.23256019   0.02780833
10244.00   0.24385826   0.02740128
10246.00   0.23328593   0.02609679
10248.00   0.22652832   0.02582772
10250.00   0.20529173   0.02623882
10252.00   0.20018370   0.02668822
10254.00   0.22236164   0.02724540
10256.00   0.24645585   0.02780817
10258.00   0.23974580   0.02815404
10260.00   0.20772685   0.02835402
10262.00   0.21882603   0.02866932
10264.00   0.28509286   0.02885552
10266.00   0.29923373   0.02940663
10268.00   0.23844609   0.03029247
10270.00   0.19791344   0.03133593
10272.00   0.25660682   0.03215633
10274.00   0.37382251   0.03295517
10276.00   0.39049283   0.03577057
10278.00   0.33696944   0.03964825
10280.00   0.29530334   0.04406426
10282.00   0.21179833   0.05059350
10284.00   0.17398892   0.05464001
10286.00   0.24099903   0.05516259
10288.00   0.34861723   0.05373285
10290.00   0.34089258   0.05213363
10292.00   0.21846607   0.04875878
10294.00   0.20895606   0.04680451
10296.00   0.27563065   0.04597888
10298.00   0.32614708   0.04461269
10300.00   0.35876885   0.04183980
10302.00   0.37660590   0.03908096
10304.00   0.36130810   0.03884001
10306.00   0.30903721   0.04072299
10308.00   0.29190320   0.04135239
10310.00   0.30065781   0.04259348
10312.00   0.29293853   0.04206451
10314.00   0.27253753   0.03861466
10316.00   0.24295995   0.03510362
10318.00   0.18852583   0.03475590
10320.00   0.11106516   0.03637165
10322.00   0.15257150   0.03678807
10324.00   0.35646632   0.03724569
10326.00   0.42436498   0.03722737
10328.00   0.38118422   0.03611544
10330.00   0.33783519   0.03579915
10332.00   0.32795823   0.03763821
10334.00   0.33369249   0.04027366
10336.00   0.38929483   0.04062759
10338.00   0.54558617   0.03863671
10340.00   0.57548505   0.03882597
10342.00   0.51816255   0.04087899
10344.00   0.45368454   0.04181939
10346.00   0.36517102   0.04085025
10348.00   0.28921863   0.03926148
10350.00   0.32856053   0.03888606
10352.00   0.48220831   0.03918611
10354.00   0.53723168   0.03926588
10356.00   0.55174750   0.03916572
10358.00   0.55211705   0.03961135
10360.00   0.51846522   0.04032800
10362.00   0.48934039   0.04171591
10364.00   0.51576591   0.04436599
10366.00   0.58367187   0.04796050
10368.00   0.57298183   0.05031397
10370.00   0.48561811   0.05372532
10372.00   0.44358072   0.05352482
10374.00   0.41958266   0.04851785
10376.00   0.42107368   0.04344405
10378.00   0.47191602   0.04159125
10380.00   0.55200881   0.04152912
10382.00   0.55130690   0.04226727
10384.00   0.48031634   0.04500357
10386.00   0.43640462   0.04661394
10388.00   0.35319287   0.04875155
10390.00   0.33657163   0.04941998
10392.00   0.44505820   0.04766564
10394.00   0.59795493   0.04469771
10396.00   0.64749998   0.04295761
10398.00   0.64724892   0.04103636
10400.00   0.61609942   0.04133299
10402.00   0.48903757   0.04408047
10404.00   0.44138053   0.04623323
10406.00   0.50806308   0.04830841
10408.00   0.59611839   0.04971630
10410.00   0.61312723   0.04915969
10412.00   0.59241551   0.04669286
10414.00   0.59845263   0.04669676
10416.00   0.61244875   0.04912474
10418.00   0.62716222   0.04961358
10420.00   0.66826504   0.04793313
10422.00   0.67642915   0.04648131
10424.00   0.59282649   0.04717143
10426.00   0.45111573   0.04892870
10428.00   0.41410491   0.04849789
10430.00   0.44718704   0.04663453
10432.00   0.47616017   0.04446685
10434.00   0.54123420   0.04041235
10436.00   0.58677286   0.03742729
10438.00   0.59284300   0.03692622
10440.00   0.57775301   0.03807032
10442.00   0.56073380   0.04012526
10444.00   0.51864159   0.04447060
10446.00   0.51620817   0.04568959
10448.00   0.55378306   0.04513851
10450.00   0.57321709   0.04420137
10452.00   0.56696814   0.04239662
10454.00   0.55158210   0.04052233
10456.00   0.53912151   0.04032973
10458.00   0.52171159   0.04144593
10460.00   0.51817667   0.04172611
10462.00   0.51702368   0.04171341
10464.00   0.53510624   0.04187480
10466.00   0.58445638   0.04253058
10468.00   0.63150090   0.04277435
10470.00   0.65352386   0.04173935
10472.00   0.66207963   0.03973527
10474.00   0.64642382   0.03872526
10476.00   0.57933426   0.03810471
10478.00   0.56199825   0.03779515
10480.00   0.58744085   0.03814521
10482.00   0.61113417   0.03832207
10484.00   0.61661893   0.03773465
10486.00   0.61568457   0.03693975
10488.00   0.61564296   0.03751813
10490.00   0.59467328   0.03917727
10492.00   0.62359911   0.04066413
10494.00   0.72404057   0.04325115
10496.00   0.77429128   0.04428453
10498.00   0.73554456   0.04236106
10500.00   0.67327130   0.04000307
10502.00   0.67556262   0.04199837
10504.00   0.72144085   0.04763225
10506.00   0.72714168   0.04823772
10508.00   0.73212302   0.04438037
10510.00   0.69686729   0.04310635
10512.00   0.58770561   0.04538673
10514.00   0.48937243   0.04763884
10516.00   0.48592368   0.04740757
10518.00   0.54473519   0.04579891
10520.00   0.55991596   0.04422263
10522.00   0.55866808   0.04115013
10524.00   0.56786400   0.03971718
10526.00   0.57629436   0.03933673
10528.00   0.59809232   0.04018397
10530.00   0.65171081   0.04308728
10532.00   0.72107965   0.04687661
10534.00   0.73768252   0.04734779
10536.00   0.70007712   0.04470025
10538.00   0.69731635   0.04385826
10540.00   0.72600895   0.04369213
10542.00   0.72263265   0.04339534
10544.00   0.65359479   0.04269093
10546.00   0.56832868   0.04193317
10548.00   0.55471516   0.04163362
10550.00   0.59642506   0.04162974
10552.00   0.60499394   0.04178198
10554.00   0.61289883   0.04238112
10556.00   0.60525423   0.04267816
10558.00   0.55894774   0.04211844
10560.00   0.52557009   0.04200751
10562.00   0.57705808   0.04388870
10564.00   0.70169717   0.04713136
10566.00   0.69684809   0.04931241
10568.00   0.57562882   0.05280360
10570.00   0.50802606   0.05278971
10572.00   0.46564016   0.04807327
10574.00   0.44263679   0.04325936
10576.00   0.44424486   0.04208737
10578.00   0.46680772   0.04288097
10580.00   0.48450413   0.04308329
10582.00   0.50929850   0.04384976
10584.00   0.53161156   0.04430577
10586.00   0.55885667   0.04474955
10588.00   0.57799417   0.04502603
10590.00   0.58160746   0.04497628
10592.00   0.57875490   0.04482056
10594.00   0.58723038   0.04509118
10596.00   0.59813035   0.04567965
10598.00   0.62031782   0.04615630
10600.00   0.66973799   0.04677424
10602.00   0.69180495   0.04717409
10604.00   0.67079329   0.04721901
10606.00   0.64177173   0.04722069
10608.00   0.64449948   0.04756004
10610.00   0.66526604   0.04811939
10612.00   0.67929918   0.04852416
10614.00   0.68745202   0.04864176
10616.00   0.71203870   0.04926685
10618.00   0.76687890   0.05072258
10620.00   0.81123722   0.05189471
10622.00   0.81783330   0.05202778
10624.00   0.80050534   0.05152414
10626.00   0.76136243   0.05108161
10628.00   0.66827333   0.05009210
10630.00   0.62468326   0.04974109
10632.00   0.62012088   0.05008386
10634.00   0.61473781   0.05022572
10636.00   0.58435369   0.04960836
10638.00   0.55354297   0.04878896
10640.00   0.58331466   0.04920761
10642.00   0.69464308   0.05114526
10644.00   0.71975905   0.05138634
10646.00   0.68339634   0.05049587
10648.00   0.65940762   0.04966762
10650.00   0.65609604   0.04897334
10652.00   0.65934157   0.04831534
10654.00   0.66445458   0.04785936
10656.00   0.67859131   0.04768202
10658.00   0.67051101   0.04695004
10660.00   0.63844550   0.04556873
10662.00   0.61821818   0.04456795
10664.00   0.61576557   0.04411565
10666.00   0.60799539   0.04361213
10668.00   0.56974977   0.04246052
10670.00   0.50927609   0.04083742
10672.00   0.50211596   0.04007205
10674.00   0.54398465   0.04011898
10676.00   0.56596452   0.03979579
10678.00   0.59217519   0.03946223
10680.00   0.59968978   0.03885528
10682.00   0.56088531   0.03728859
10684.00   0.50155443   0.03537568
10686.00   0.51852864   0.03637993
10688.00   0.61961943   0.04116247
10690.00   0.65374148   0.04196814
10692.00   0.67049938   0.04075952
10694.00   0.65640008   0.03887715
10696.00   0.59177864   0.03580081
10698.00   0.50990772   0.03218658
10700.00   0.47505778   0.03079392
10702.00   0.46992758   0.03143439
10704.00   0.45197311   0.03093707
10706.00   0.41641682   0.02997693
10708.00   0.41759941   0.02947333
10710.00   0.48129928   0.02975324
10712.00   0.54166937   0.02998698
10714.00   0.52631307   0.02928037
10716.00   0.45791084   0.02784824
10718.00   0.45381120   0.02736454
10720.00   0.51468050   0.02728147
10722.00   0.51423943   0.02768441
10724.00   0.43989816   0.02924240
10726.00   0.38341445   0.03014896
10728.00   0.40174446   0.02928272
10730.00   0.45911220   0.02730917
10732.00   0.47533605   0.02628714
10734.00   0.47056648   0.02552840
10736.00   0.47289470   0.02504483
10738.00   0.47292164   0.02467773
10740.00   0.47476664   0.02492194
10742.00   0.48044795   0.02651384
10744.00   0.48741415   0.02820318
10746.00   0.49151108   0.02744445
10748.00   0.49656641   0.02408006
10750.00   0.49271828   0.02258027
10752.00   0.46867740   0.02188350
10754.00   0.46666983   0.02154076
10756.00   0.49833009   0.02164445
10758.00   0.53574181   0.02208293
10760.00   0.55142969   0.02277509
10762.00   0.55929852   0.02393245
10764.00   0.54356271   0.02385449
10766.00   0.48133740   0.02257797
10768.00   0.46052784   0.02169003
10770.00   0.49074021   0.02067045
10772.00   0.51461136   0.02020258
10774.00   0.49430925   0.02115938
10776.00   0.44970259   0.02296618
10778.00   0.41464242   0.02329333
10780.00   0.35172349   0.02285162
10782.00   0.34588197   0.02215041
10784.00   0.40184775   0.02051659
10786.00   0.44882888   0.01919390
10788.00   0.46430963   0.01881487
10790.00   0.46628278   0.01895297
10792.00   0.46540266   0.01906057
10794.00   0.45309272   0.01976392
10796.00   0.44751352   0.01937412
10798.00   0.43660852   0.01782314
10800.00   0.43931985   0.01657424
10802.00   0.46190482   0.01563861
10804.00   0.49203184   0.01518337
10806.00   0.51449925   0.01591808
10808.00   0.53477281   0.01778492
10810.00   0.55866337   0.01851311
10812.00   0.60571766   0.01874857
10814.00   0.60995364   0.01897615
10816.00   0.55448949   0.01917207
10818.00   0.49823639   0.01925671
10820.00   0.48820907   0.01921417
10822.00   0.50293267   0.01905845
10824.00   0.49966455   0.01860729
10826.00   0.48584107   0.01770129
10828.00   0.48469740   0.01696686
10830.00   0.48519641   0.01599292
10832.00   0.50208253   0.01547908
10834.00   0.56017005   0.01606748
10836.00   0.63270152   0.01713690
10838.00   0.61766404   0.01710543
10840.00   0.50431496   0.01623899
10842.00   0.46732938   0.01569845
10844.00   0.47506407   0.01514889
10846.00   0.46974069   0.01454623
10848.00   0.43601698   0.01376607
10850.00   0.39768758   0.01300100
10852.00   0.38248965   0.01272797
10854.00   0.37858450   0.01301496
10856.00   0.38930637   0.01265940
10858.00   0.42863068   0.01133308
10860.00   0.45107937   0.01104865
10862.00   0.45532796   0.01229365
