# File created by shivutils (I.Shivvers)
# wl(A)   flm    er(optional)
3438.00   12.38793468   0.32600507
3440.00   13.06294346   0.32873574
3442.00   13.01107121   0.33325300
3444.00   12.47296810   0.32787690
3446.00   13.03677177   0.33259389
3448.00   12.47292614   0.33642289
3450.00   11.89099884   0.33091575
3452.00   12.91108704   0.34282702
3454.00   12.88862514   0.34264702
3456.00   12.51205349   0.33922449
3458.00   12.77401829   0.34329340
3460.00   12.83556938   0.34496692
3462.00   12.83839417   0.34564742
3464.00   12.46242237   0.34244636
3466.00   12.56463623   0.34716097
3468.00   13.85476589   0.35837421
3470.00   14.17779827   0.36320066
3472.00   13.85966206   0.36110172
3474.00   14.18378258   0.36574402
3476.00   13.77681065   0.36519253
3478.00   13.82013226   0.36885393
3480.00   13.77248383   0.36917627
3482.00   14.24363518   0.37428361
3484.00   15.71489716   0.38714528
3486.00   15.96450329   0.38962501
3488.00   16.33334732   0.39021271
3490.00   16.32497597   0.39375985
3492.00   17.03838158   0.40007961
3494.00   17.77276993   0.40828097
3496.00   17.90816116   0.40751344
3498.00   18.52926445   0.41322207
3500.00   19.06142998   0.41985562
3502.00   19.89236259   0.42646417
3504.00   19.78414154   0.42388734
3506.00   19.42678261   0.42120892
3508.00   19.49646950   0.42172238
3510.00   20.25412369   0.42511141
3512.00   20.50164032   0.42647845
3514.00   20.20624352   0.42697158
3516.00   20.50064659   0.42843595
3518.00   20.12200165   0.42489067
3520.00   20.52071762   0.42779359
3522.00   21.67328453   0.43174300
3524.00   21.07536125   0.42751211
3526.00   21.80924797   0.43345252
3528.00   21.94737434   0.43276960
3530.00   22.28369331   0.43416944
3532.00   23.79211617   0.44291204
3534.00   22.84226608   0.43882725
3536.00   22.17567253   0.43168688
3538.00   22.60643005   0.43169156
3540.00   23.49387360   0.43936381
3542.00   22.63196373   0.43402374
3544.00   22.82157707   0.43445379
3546.00   22.90724373   0.43313739
3548.00   22.82500648   0.42985132
3550.00   22.27102280   0.42691705
3552.00   23.14672470   0.43072662
3554.00   23.49382401   0.43356031
3556.00   24.24337578   0.43404657
3558.00   24.07938004   0.43228838
3560.00   24.22704887   0.43241459
3562.00   24.38274574   0.43012038
3564.00   24.61682129   0.42926806
3566.00   24.61323357   0.42907304
3568.00   24.72723961   0.42748904
3570.00   24.63943291   0.42654356
3572.00   24.91102028   0.42660275
3574.00   25.20402336   0.42546239
3576.00   24.71732330   0.42068747
3578.00   24.92345238   0.41872156
3580.00   24.14937592   0.41226569
3582.00   23.99257851   0.40671268
3584.00   23.65476608   0.40318063
3586.00   23.52795982   0.39870214
3588.00   23.88958740   0.39921412
3590.00   22.96484947   0.39357695
3592.00   23.01206207   0.39165044
3594.00   22.73508263   0.38788003
3596.00   22.32343483   0.38234210
3598.00   22.18103027   0.37946895
3600.00   22.57041359   0.38148868
3602.00   22.28294182   0.37648997
3604.00   22.88926315   0.37972555
3606.00   22.04662323   0.37168530
3608.00   22.96606636   0.37653214
3610.00   23.37231445   0.37762296
3612.00   23.48904610   0.38957915
3614.00   23.92279625   0.38787046
3616.00   24.67723656   0.38445151
3618.00   25.14057732   0.38405567
3620.00   25.35854530   0.38311392
3622.00   26.44906616   0.38772118
3624.00   25.87195206   0.38275018
3626.00   26.07796288   0.38486627
3628.00   26.90383148   0.38918012
3630.00   27.70769501   0.39300242
3632.00   28.45002937   0.39508620
3634.00   28.44080162   0.39285842
3636.00   29.16529083   0.39600205
3638.00   29.93798637   0.39875799
3640.00   29.61697769   0.39654073
3642.00   30.73269653   0.40129215
3644.00   30.16678047   0.39685684
3646.00   31.15461922   0.40081751
3648.00   31.12731934   0.40677175
3650.00   30.40848160   0.40654415
3652.00   31.50667763   0.40430638
3654.00   30.43060303   0.39566234
3656.00   29.95389557   0.38915354
3658.00   29.98946571   0.38171339
3660.00   28.90895081   0.37689704
3662.00   29.56717110   0.38201854
3664.00   28.97186470   0.37517059
3666.00   27.35894203   0.36089313
3668.00   27.13406372   0.35744622
3670.00   27.16130257   0.35577404
3672.00   26.45628738   0.35138083
3674.00   24.59871101   0.33837017
3676.00   24.52365875   0.33614078
3678.00   23.44628525   0.32791129
3680.00   22.51682472   0.32034355
3682.00   22.65783119   0.31949818
3684.00   21.55297661   0.31300327
3686.00   21.30925560   0.30906376
3688.00   20.86968422   0.30563092
3690.00   20.53245354   0.30326298
3692.00   18.90026474   0.29177636
3694.00   19.43923950   0.29269856
3696.00   19.48133659   0.29236805
3698.00   18.91419029   0.28830579
3700.00   19.11565590   0.28758541
3702.00   18.13031769   0.28058681
3704.00   18.75899315   0.28468192
3706.00   17.83572578   0.27813229
3708.00   18.14890862   0.27860862
3710.00   17.44641113   0.27271637
3712.00   17.99036598   0.27513054
3714.00   17.33127022   0.26992568
3716.00   17.02467346   0.26795226
3718.00   17.32199669   0.26812896
3720.00   17.52219963   0.26718467
3722.00   17.27375984   0.26374543
3724.00   16.99575615   0.26189017
3726.00   16.87376404   0.26189604
3728.00   17.48048401   0.26415133
3730.00   16.99153519   0.26078874
3732.00   17.19378853   0.26048389
3734.00   17.18118858   0.25916949
3736.00   16.19131279   0.25272140
3738.00   16.78691292   0.25614348
3740.00   16.84393692   0.25671151
3742.00   16.64042473   0.25609162
3744.00   16.52861404   0.25281897
3746.00   16.15581703   0.24715953
3748.00   16.27006531   0.24805278
3750.00   16.33664513   0.24739458
3752.00   15.72963715   0.24233411
3754.00   16.09097481   0.24519166
3756.00   15.97119236   0.24375677
3758.00   14.80840397   0.23467107
3760.00   15.16225052   0.23649590
3762.00   15.06844044   0.23461655
3764.00   14.82196617   0.23210509
3766.00   15.08631611   0.23356020
3768.00   15.03903866   0.23310196
3770.00   14.94677639   0.23249622
3772.00   14.58697796   0.22950247
3774.00   14.09336662   0.22701770
3776.00   14.35077667   0.22662714
3778.00   14.73902702   0.22877896
3780.00   14.01346684   0.22363810
3782.00   14.11744213   0.22334835
3784.00   13.80527687   0.22069079
3786.00   14.20638180   0.22183833
3788.00   13.97433758   0.22053190
3790.00   14.20405674   0.22173192
3792.00   13.55822849   0.21866699
3794.00   14.06763172   0.22049089
3796.00   13.51337147   0.21536984
3798.00   14.25532532   0.22005047
3800.00   14.16155624   0.21817701
3802.00   14.30354309   0.21906677
3804.00   14.53533363   0.21890874
3806.00   14.38685417   0.21810262
3808.00   14.78106117   0.21900311
3810.00   15.28157616   0.22169620
3812.00   15.61494446   0.22189920
3814.00   15.28207970   0.22098652
3816.00   15.72307587   0.22294180
3818.00   15.40742397   0.22172131
3820.00   16.02635574   0.22394122
3822.00   16.60418320   0.22707143
3824.00   16.95973396   0.22877686
3826.00   17.29430771   0.22978806
3828.00   17.65360832   0.23182790
3830.00   18.38891411   0.23542279
3832.00   18.61219215   0.23562114
3834.00   19.07788658   0.23677553
3836.00   18.82892418   0.23603433
3838.00   19.13215828   0.23687465
3840.00   19.86372757   0.23901959
3842.00   20.26529694   0.24153632
3844.00   20.63184738   0.24202827
3846.00   21.68232346   0.24705739
3848.00   21.47158432   0.24493320
3850.00   22.38873100   0.24957666
3852.00   22.54817390   0.25012606
3854.00   22.68356133   0.24982610
3856.00   23.79408264   0.25474417
3858.00   24.81958580   0.25941330
3860.00   24.85248756   0.26013640
3862.00   25.35725784   0.26214740
3864.00   25.77109146   0.26363447
3866.00   27.01460648   0.26880568
3868.00   26.94095612   0.26820958
3870.00   28.03124428   0.27251318
3872.00   28.60936356   0.27401805
3874.00   29.64571953   0.27928135
3876.00   30.23090935   0.28042477
3878.00   30.56995583   0.28087789
3880.00   31.06402779   0.28330013
3882.00   31.73214531   0.28590092
3884.00   32.75469589   0.28861231
3886.00   33.05088425   0.28996050
3888.00   32.84607697   0.28874499
3890.00   33.77424622   0.29178593
3892.00   33.51921463   0.29113662
3894.00   34.87134933   0.29594240
3896.00   35.38791275   0.29691571
3898.00   35.98156357   0.29858842
3900.00   36.74147034   0.30116275
3902.00   36.46142578   0.29986867
3904.00   37.23467636   0.30242971
3906.00   37.32711029   0.30385849
3908.00   37.18754959   0.30374387
3910.00   37.49529648   0.30475870
3912.00   38.40938950   0.30660644
3914.00   38.55113602   0.30625904
3916.00   38.41231918   0.30318731
3918.00   38.82247543   0.30358940
3920.00   39.15900803   0.30364403
3922.00   39.18327713   0.30293456
3924.00   39.43612671   0.30315256
3926.00   39.00594711   0.30189452
3928.00   39.32508850   0.30215037
3930.00   38.47323990   0.29824671
3932.00   36.72550583   0.29203731
3934.00   36.92744446   0.29211831
3936.00   38.71327972   0.29758644
3938.00   38.38988876   0.29562306
3940.00   38.70552826   0.29760107
3942.00   38.43522263   0.29659572
3944.00   37.73890305   0.29298899
3946.00   36.83040237   0.28915498
3948.00   37.38683701   0.28986216
3950.00   36.78221512   0.28672737
3952.00   35.91731262   0.28321791
3954.00   35.94218445   0.28288269
3956.00   35.34562302   0.28034848
3958.00   35.16662216   0.28001958
3960.00   34.32760620   0.27744991
3962.00   34.00568771   0.27559814
3964.00   33.27232361   0.27165812
3966.00   33.29647446   0.27097967
3968.00   31.49015617   0.26385292
3970.00   32.42561340   0.26642570
3972.00   31.96953583   0.26539662
3974.00   31.46369743   0.26239258
3976.00   30.89233589   0.25922292
3978.00   30.52131844   0.25757298
3980.00   29.81160355   0.25366810
3982.00   29.71310234   0.25249904
3984.00   29.31443024   0.24950443
3986.00   29.26808167   0.24900596
3988.00   29.05290222   0.24813627
3990.00   29.07141113   0.24804701
3992.00   28.97253990   0.24742399
3994.00   28.96572495   0.24801262
3996.00   29.01040077   0.24832387
3998.00   28.80953979   0.24714239
4000.00   28.56511879   0.24478395
4002.00   28.29680443   0.24393034
4004.00   28.05840302   0.24244252
4006.00   28.26772499   0.24303448
4008.00   28.69814873   0.24419138
4010.00   28.70861053   0.24389736
4012.00   28.97224998   0.24419327
4014.00   29.39151382   0.24545278
4016.00   29.61609840   0.24582171
4018.00   30.06666565   0.24865367
4020.00   29.88826180   0.24915342
4022.00   30.17564774   0.25023723
4024.00   30.53330994   0.25046632
4026.00   30.70763397   0.24931926
4028.00   31.81908989   0.25205615
4030.00   31.79025078   0.25150546
4032.00   32.16921234   0.25278983
4034.00   32.46467972   0.25274161
4036.00   32.70602036   0.25280702
4038.00   32.91748428   0.25342065
4040.00   33.19613647   0.25446388
4042.00   33.16157913   0.25487560
4044.00   33.38012314   0.26385182
4046.00   33.33219147   0.27012134
4048.00   34.01784515   0.26662338
4050.00   33.86995697   0.25721896
4052.00   34.23402405   0.25605923
4054.00   34.06634903   0.25461471
4056.00   34.66374588   0.25583607
4058.00   35.04574203   0.25604862
4060.00   35.23631668   0.25644058
4062.00   36.08261490   0.25837716
4064.00   35.77587509   0.25756353
4066.00   36.23416138   0.25802222
4068.00   36.70592499   0.25940502
4070.00   36.97479248   0.26012447
4072.00   36.88866806   0.25907734
4074.00   36.81002808   0.25909832
4076.00   37.12936020   0.26056647
4078.00   36.80696106   0.25996432
4080.00   36.93951797   0.25931409
4082.00   37.36286545   0.25957638
4084.00   37.26823044   0.25832748
4086.00   37.32332611   0.25820881
4088.00   37.64725876   0.25845122
4090.00   37.58498383   0.25738525
4092.00   37.64283371   0.25686482
4094.00   37.43989182   0.25616309
4096.00   38.05374146   0.25722674
4098.00   38.28598785   0.25797012
4100.00   38.64980316   0.25852883
4102.00   38.34349823   0.25692248
4104.00   38.36202240   0.25722808
4106.00   37.89716339   0.25538883
4108.00   38.65680313   0.25745964
4110.00   39.02706909   0.25774577
4112.00   38.80404282   0.25649348
4114.00   38.81599045   0.25569737
4116.00   38.49526978   0.25401276
4118.00   38.82044220   0.25384179
4120.00   38.84730530   0.25355396
4122.00   38.60338593   0.25278804
4124.00   38.87158966   0.25337380
4126.00   39.25637436   0.25418049
4128.00   39.44337845   0.25400349
4130.00   39.02007675   0.25264758
4132.00   38.81172562   0.25194240
4134.00   38.72435379   0.25105515
4136.00   39.14492035   0.25105062
4138.00   38.72996521   0.24997689
4140.00   38.64936447   0.24922770
4142.00   37.76729965   0.24573135
4144.00   38.34180069   0.24613509
4146.00   37.90122223   0.24467088
4148.00   37.40447998   0.24307956
4150.00   37.47591782   0.24228604
4152.00   37.38882446   0.24255963
4154.00   37.26092148   0.24153829
4156.00   36.87331009   0.23933619
4158.00   36.76817322   0.23858500
4160.00   36.43006897   0.23684804
4162.00   36.16355133   0.23654763
4164.00   35.96086884   0.23627880
4166.00   36.18258667   0.23641527
4168.00   36.36737442   0.23567162
4170.00   36.60679245   0.23534419
4172.00   36.12105179   0.23381543
4174.00   36.18381119   0.23359582
4176.00   35.60867310   0.23183826
4178.00   36.00989914   0.23272456
4180.00   36.25087357   0.23329353
4182.00   36.46589661   0.23305018
4184.00   36.27280807   0.23182678
4186.00   36.76777649   0.23320514
4188.00   37.05136490   0.23374602
4190.00   37.19580078   0.23343232
4192.00   36.91327286   0.23231891
4194.00   37.09739304   0.23257342
4196.00   36.95580292   0.23158792
4198.00   37.11677170   0.23151042
4200.00   36.76875687   0.23026757
4202.00   36.98958969   0.23176855
4204.00   36.13674164   0.22790758
4206.00   36.00963211   0.22742875
4208.00   35.81407166   0.22669055
4210.00   35.19633102   0.22457099
4212.00   34.42653275   0.22168869
4214.00   34.39412308   0.22151005
4216.00   34.21131897   0.22051252
4218.00   33.40842819   0.21796796
4220.00   33.37776947   0.21748926
4222.00   32.68753433   0.21481526
4224.00   32.72861099   0.21451168
4226.00   32.37880707   0.21323520
4228.00   32.02394867   0.21234053
4230.00   31.90802002   0.21072835
4232.00   31.49529076   0.21677479
4234.00   31.44724274   0.21261396
4236.00   31.17028999   0.20892182
4238.00   30.98375130   0.20778574
4240.00   30.54866409   0.20592293
4242.00   30.41245842   0.20447214
4244.00   30.43218613   0.20552558
4246.00   29.69229698   0.20382395
4248.00   29.51576996   0.20279117
4250.00   29.20216179   0.20059106
4252.00   29.18988800   0.19945233
4254.00   29.33696365   0.19999711
4256.00   28.74187660   0.19821520
4258.00   28.27693748   0.19630368
4260.00   28.19685555   0.19550571
4262.00   28.13317680   0.19522302
4264.00   27.64023209   0.19372477
4266.00   26.87565231   0.19041415
4268.00   26.41310883   0.18876120
4270.00   25.86784172   0.18643270
4272.00   25.38170815   0.18460084
4274.00   25.01017570   0.18354186
4276.00   24.55591583   0.18181925
4278.00   23.84177780   0.17938076
4280.00   23.42709541   0.17785026
4282.00   24.11395645   0.17993523
4284.00   23.44347572   0.17751066
4286.00   22.85939980   0.17506966
4288.00   22.99419212   0.17497827
4290.00   22.80607224   0.17396984
4292.00   22.58581161   0.17349464
4294.00   22.42581558   0.17272581
4296.00   22.40225220   0.17236798
4298.00   21.82804871   0.17028722
4300.00   21.71624374   0.16960701
4302.00   21.72471619   0.16982651
4304.00   21.77583885   0.16963805
4306.00   21.39492607   0.16841345
4308.00   21.22651291   0.16728704
4310.00   21.30694580   0.16804586
4312.00   20.94686508   0.16740705
4314.00   21.01548195   0.16808191
4316.00   21.01629448   0.16714031
4318.00   20.69890785   0.16595013
4320.00   20.96507072   0.16617604
4322.00   20.63643646   0.16480364
4324.00   20.82146645   0.16502178
4326.00   20.81821060   0.16501951
4328.00   20.81215858   0.16441734
4330.00   20.88736725   0.16448346
4332.00   21.02368546   0.16529478
4334.00   20.87018204   0.16570438
4336.00   21.08443069   0.16617666
4338.00   21.55006599   0.16770059
4340.00   21.29127693   0.16687147
4342.00   21.49608040   0.16705146
4344.00   21.17718887   0.16616862
4346.00   21.13625526   0.16654703
4348.00   21.26892090   0.16723695
4350.00   20.86038589   0.16535854
4352.00   20.93359375   0.16487783
4354.00   20.82517242   0.16792065
4356.00   20.04199028   0.18081920
4358.00   20.06592178   0.18907365
4360.00   20.86794472   0.18202649
4362.00   20.46187210   0.16884132
4364.00   20.52934837   0.16424617
4366.00   20.22743607   0.16226563
4368.00   20.40771103   0.16254102
4370.00   20.71112633   0.16319275
4372.00   20.16180420   0.16123812
4374.00   20.17893791   0.16161022
4376.00   20.36457634   0.16188549
4378.00   20.56503487   0.16171320
4380.00   20.63902855   0.16180484
4382.00   20.51916885   0.16104972
4384.00   20.64957619   0.16101196
4386.00   20.88232040   0.16167156
4388.00   21.12290573   0.16235183
4390.00   21.47205734   0.16342279
4392.00   21.77224350   0.16426864
4394.00   21.64874268   0.16347438
4396.00   21.91326332   0.16413835
4398.00   22.22764587   0.16548167
4400.00   22.37515831   0.16602999
4402.00   22.00769043   0.16461061
4404.00   22.64250946   0.16605498
4406.00   22.67550468   0.16610971
4408.00   22.89707184   0.16674845
4410.00   22.88208008   0.16698729
4412.00   22.98348618   0.16717684
4414.00   23.36739731   0.16868000
4416.00   23.23553848   0.16832329
4418.00   23.32918739   0.16819583
4420.00   22.97106552   0.16691262
4422.00   23.84315109   0.16903220
4424.00   23.81323814   0.16896518
4426.00   23.75458145   0.16864581
4428.00   23.96631241   0.16936517
4430.00   23.94562149   0.16950624
4432.00   23.99350929   0.16973005
4434.00   24.08138466   0.16958813
4436.00   24.12326241   0.16952200
4438.00   24.16778755   0.17004965
4440.00   24.07567024   0.16988946
4442.00   24.14875412   0.16975939
4444.00   24.26241493   0.16993056
4446.00   24.19429398   0.16968314
4448.00   23.74836159   0.16818735
4450.00   24.28818703   0.16969635
4452.00   24.20791245   0.16946669
4454.00   24.23913765   0.16938703
4456.00   24.39660072   0.17009439
4458.00   24.42849541   0.16997311
4460.00   24.98126793   0.17130995
4462.00   25.05895996   0.17162003
4464.00   24.87371826   0.17117935
4466.00   25.46999168   0.17278582
4468.00   25.44501114   0.17270352
4470.00   25.76079750   0.17352894
4472.00   26.43783760   0.17513403
4474.00   26.99678993   0.17659363
4476.00   27.37129974   0.17756024
4478.00   27.23568916   0.17748758
4480.00   28.11285591   0.17965096
4482.00   27.99860573   0.17929928
4484.00   28.55987549   0.18092082
4486.00   29.00217247   0.18220510
4488.00   29.11793327   0.18262535
4490.00   29.51340294   0.18376382
4492.00   30.07404709   0.18531221
4494.00   30.04138756   0.18562360
4496.00   30.23181534   0.18616737
4498.00   31.11910057   0.18773948
4500.00   31.33894539   0.18855886
4502.00   31.10924339   0.18805531
4504.00   31.75688362   0.18935342
4506.00   32.17456436   0.19053371
4508.00   32.38370514   0.19103459
4510.00   32.46334457   0.19076942
4512.00   32.65644073   0.19123018
4514.00   32.73235321   0.19122088
4516.00   32.55698776   0.19078097
4518.00   32.79457092   0.19138314
4520.00   32.91240692   0.19184980
4522.00   33.09728241   0.19209254
4524.00   33.00596237   0.19161877
4526.00   33.16408920   0.19232698
4528.00   32.85716629   0.19146220
4530.00   32.96322632   0.19122030
4532.00   33.08834457   0.19148394
4534.00   33.15362930   0.19157270
4536.00   33.03015518   0.19105132
4538.00   33.38764572   0.19210219
4540.00   33.57182693   0.19233392
4542.00   33.07780075   0.19107173
4544.00   33.19393158   0.19123387
4546.00   33.25963974   0.19091210
4548.00   33.44267654   0.19077505
4550.00   33.23046112   0.19012769
4552.00   33.48014450   0.19104113
4554.00   33.32088089   0.19058481
4556.00   32.98438263   0.19002758
4558.00   32.56434631   0.18899173
4560.00   32.51435089   0.18838318
4562.00   32.83685684   0.18848732
4564.00   32.60472107   0.18806072
4566.00   31.94514465   0.18654226
4568.00   31.87364578   0.18651175
4570.00   31.83180428   0.18600108
4572.00   31.89024925   0.18595321
4574.00   32.03009415   0.18637124
4576.00   31.63086891   0.18557149
4578.00   32.05847549   0.18658052
4580.00   31.55361176   0.18490660
4582.00   31.41820526   0.18476082
4584.00   31.57483673   0.18467443
4586.00   32.13455200   0.18605070
4588.00   31.57349968   0.18476976
4590.00   31.00755501   0.18312958
4592.00   31.34049797   0.18376496
4594.00   31.42447281   0.18375926
4596.00   31.64835358   0.18449211
4598.00   30.93778038   0.18264952
4600.00   30.95541763   0.18253000
4602.00   30.99343681   0.18243353
4604.00   30.45502090   0.18066232
4606.00   30.57854080   0.18111040
4608.00   30.58210945   0.18107738
4610.00   30.26880074   0.18032780
4612.00   30.08555031   0.17968601
4614.00   29.26814270   0.17744678
4616.00   29.78618050   0.17859419
4618.00   29.28878403   0.17710429
4620.00   29.51646614   0.17739369
4622.00   29.16954422   0.17644744
4624.00   28.99945641   0.17608060
4626.00   28.69025803   0.17533617
4628.00   28.54287148   0.17489737
4630.00   28.88049126   0.17565474
4632.00   28.64233017   0.17514078
4634.00   28.45652771   0.17443714
4636.00   27.98014450   0.17310327
4638.00   27.57353973   0.17235172
4640.00   27.45479965   0.17184030
4642.00   27.03252983   0.17031842
4644.00   26.96423912   0.16989638
4646.00   27.05894279   0.17060554
4648.00   26.57307053   0.16904101
4650.00   26.30460167   0.16822138
4652.00   26.03935051   0.16721952
4654.00   25.96680260   0.16711421
4656.00   25.61666679   0.16596405
4658.00   25.07444954   0.16438122
4660.00   25.22252083   0.16463040
4662.00   24.83800697   0.16345423
4664.00   24.95804977   0.16367961
4666.00   24.59430504   0.16295700
4668.00   24.60399818   0.16314407
4670.00   24.28729248   0.16218312
4672.00   24.27077484   0.16210666
4674.00   24.08340073   0.16124210
4676.00   24.19540977   0.16145095
4678.00   23.92456627   0.16060828
4680.00   24.32829094   0.16140082
4682.00   24.08660698   0.16069528
4684.00   23.74380112   0.15927099
4686.00   24.17721558   0.16021819
4688.00   24.01780128   0.15981640
4690.00   23.79147720   0.15909317
4692.00   23.63442421   0.15854175
4694.00   23.39395332   0.15781456
4696.00   23.30080605   0.15730134
4698.00   23.35867691   0.15712799
4700.00   23.17674446   0.15657797
4702.00   22.58436394   0.15484442
4704.00   22.83260536   0.15543222
4706.00   22.66547775   0.15490767
4708.00   22.71558571   0.15517533
4710.00   22.07466888   0.15313554
4712.00   22.17297554   0.15347825
4714.00   22.06953621   0.15315244
4716.00   21.95399094   0.15242544
4718.00   21.87180328   0.15208407
4720.00   21.59880638   0.15099800
4722.00   21.11043739   0.14985503
4724.00   21.27640915   0.15021352
4726.00   21.33325386   0.15082729
4728.00   21.66103935   0.15186340
4730.00   21.35482979   0.15128641
4732.00   21.08093262   0.15298083
4734.00   21.22021103   0.15085405
4736.00   21.15109634   0.15077445
4738.00   21.25896263   0.15125021
4740.00   21.45587730   0.15233737
4742.00   21.46494484   0.15293092
4744.00   21.00009727   0.15109576
4746.00   21.12377930   0.15043324
4748.00   20.79566574   0.14873222
4750.00   20.80175591   0.14880727
4752.00   20.84655952   0.14854418
4754.00   20.82165718   0.14852935
4756.00   20.53386307   0.14713871
4758.00   20.48174286   0.14693390
4760.00   20.36552620   0.14674801
4762.00   20.21170235   0.14605831
4764.00   19.95369530   0.14516394
4766.00   19.89105225   0.14501490
4768.00   19.85886192   0.14459530
4770.00   19.75141716   0.14418367
4772.00   19.47478676   0.14338291
4774.00   19.67370415   0.14361243
4776.00   19.59924889   0.14357767
4778.00   19.59805107   0.14372458
4780.00   19.33754921   0.14240372
4782.00   19.34298515   0.14210781
4784.00   19.52893257   0.14230351
4786.00   19.13089561   0.14128219
4788.00   19.19148636   0.14134622
4790.00   19.03152275   0.14119716
4792.00   18.75143814   0.14029834
4794.00   18.69442368   0.13975410
4796.00   18.64867783   0.13939184
4798.00   18.78729820   0.13983379
4800.00   18.96095467   0.14014713
4802.00   18.67761230   0.13891459
4804.00   18.63915634   0.13895130
4806.00   18.38947868   0.13805115
4808.00   18.34857178   0.13803467
4810.00   18.24701881   0.13741280
4812.00   18.16666603   0.13713802
4814.00   18.12092781   0.13715112
4816.00   17.93929672   0.13615534
4818.00   17.46538734   0.13483785
4820.00   17.37058449   0.13413151
4822.00   17.41061592   0.13466531
4824.00   17.42410851   0.13435893
4826.00   17.54909897   0.13473549
4828.00   17.32704926   0.13379160
4830.00   17.26027489   0.13338840
4832.00   16.72727585   0.13170454
4834.00   16.60350037   0.13132814
4836.00   16.58156395   0.13101453
4838.00   16.41550255   0.13068660
4840.00   15.82515335   0.12913360
4842.00   15.69521904   0.12843482
4844.00   16.06165695   0.12914859
4846.00   15.68319225   0.12765370
4848.00   15.85287857   0.12799415
4850.00   15.63919830   0.12730607
4852.00   15.36765003   0.12610653
4854.00   15.33351612   0.12579103
4856.00   15.13829899   0.12499309
4858.00   15.08617878   0.12485440
4860.00   15.09083080   0.12487336
4862.00   15.10918808   0.12478741
4864.00   15.13345432   0.12493904
4866.00   15.02033710   0.12447575
4868.00   14.87312031   0.12381794
4870.00   15.11977005   0.12442829
4872.00   14.85956669   0.12361459
4874.00   14.90448380   0.12359313
4876.00   14.92006683   0.12353121
4878.00   15.09273815   0.12386665
4880.00   15.23956394   0.12427744
4882.00   15.30515957   0.12452762
4884.00   15.42109394   0.12438669
4886.00   15.42204285   0.12467968
4888.00   15.72667027   0.12525754
4890.00   15.62316704   0.12526196
4892.00   15.87004566   0.12591486
4894.00   16.04899597   0.12686025
4896.00   16.31528664   0.12750104
4898.00   16.14321136   0.12676182
4900.00   16.34220314   0.12742095
4902.00   16.50069427   0.12796490
4904.00   16.53796005   0.12811232
4906.00   17.31328392   0.13004217
4908.00   17.20818138   0.12955630
4910.00   17.32558441   0.13020445
4912.00   17.64808464   0.13088425
4914.00   17.64575768   0.13102563
4916.00   17.57070923   0.13115224
4918.00   17.73405266   0.13123856
4920.00   17.90336418   0.13170201
4922.00   18.06159782   0.13226226
4924.00   17.96306801   0.13194734
4926.00   17.87570381   0.13126682
4928.00   17.85170937   0.13121071
4930.00   17.81354904   0.13079095
4932.00   17.36551094   0.12928797
4934.00   17.24195099   0.12892067
4936.00   17.24829292   0.12873088
4938.00   16.84465981   0.12764500
4940.00   16.85367012   0.12735443
4942.00   16.80843353   0.12717818
4944.00   16.58497620   0.12636563
4946.00   16.81815338   0.12689500
4948.00   16.28907776   0.12540753
4950.00   16.34483719   0.12586109
4952.00   16.18929672   0.12546410
4954.00   16.09698296   0.12493648
4956.00   16.19118309   0.12544107
4958.00   16.27827263   0.12541473
4960.00   16.25326729   0.12524028
4962.00   16.10125542   0.12463899
4964.00   16.14076614   0.12507965
4966.00   16.16189003   0.12540859
4968.00   16.24699783   0.12544984
4970.00   16.30324936   0.12587139
4972.00   16.35698128   0.12667896
4974.00   16.48128128   0.12696280
4976.00   15.97718334   0.12584241
4978.00   16.43822670   0.12730660
4980.00   15.98895931   0.12647955
4982.00   15.92711639   0.12647966
4984.00   15.91515446   0.13055249
4986.00   15.99507236   0.12668519
4988.00   15.97175026   0.12610433
4990.00   16.02268028   0.12600842
4992.00   15.93113232   0.12511730
4994.00   16.05083084   0.12515898
4996.00   15.92500877   0.12469923
4998.00   15.95959091   0.12448720
5000.00   15.98731995   0.12408764
5002.00   15.97311211   0.12413908
5004.00   15.96953964   0.12353424
5006.00   16.02819633   0.12405725
5008.00   15.96955681   0.12390041
5010.00   16.13780785   0.12427969
5012.00   16.11334610   0.12407431
5014.00   15.91279030   0.12375678
5016.00   16.39568138   0.12510358
5018.00   16.40191841   0.12532945
5020.00   16.32524872   0.12546280
5022.00   16.42518044   0.12538892
5024.00   16.42351532   0.12553264
5026.00   16.61743164   0.12575833
5028.00   16.58998489   0.12590107
5030.00   16.64057541   0.12635373
5032.00   16.66337204   0.12621719
5034.00   16.76626968   0.12642311
5036.00   16.78736115   0.12665151
5038.00   16.85321045   0.12663524
5040.00   17.01858330   0.12710831
5042.00   16.94268990   0.12706746
5044.00   17.04399300   0.12738851
5046.00   17.06565857   0.12782010
5048.00   17.19709969   0.12914941
5050.00   17.26189423   0.12920576
5052.00   17.66782188   0.13003384
5054.00   17.51321030   0.12953585
5056.00   17.99090385   0.13072656
5058.00   18.02725220   0.13106279
5060.00   17.72856712   0.13023524
5062.00   17.95237541   0.13118020
5064.00   17.98859978   0.13136429
5066.00   18.25394249   0.13258426
5068.00   18.18286324   0.13276653
5070.00   18.42015266   0.13344632
5072.00   18.20953560   0.13286196
5074.00   18.45876884   0.13352336
5076.00   18.66806793   0.13414845
5078.00   19.13817406   0.13596098
5080.00   19.03234291   0.13659638
5082.00   19.59219170   0.13921089
5084.00   19.33218002   0.13908981
5086.00   19.69864082   0.14037564
5088.00   19.69393349   0.13979763
5090.00   19.62209129   0.13866685
5092.00   20.15549278   0.13927490
5094.00   20.14837837   0.13917138
5096.00   20.25040817   0.13974762
5098.00   20.60320282   0.14107302
5100.00   20.72570992   0.14184898
5102.00   20.80630112   0.14155947
5104.00   20.89986610   0.14177889
5106.00   21.26081276   0.14265747
5108.00   21.23658180   0.14268620
5110.00   21.28810501   0.14276955
5112.00   21.53318596   0.14403859
5114.00   21.39236832   0.14380121
5116.00   21.84646606   0.14495970
5118.00   22.10304070   0.14538445
5120.00   21.86388016   0.14501221
5122.00   22.05603409   0.14582619
5124.00   22.28531647   0.14613038
5126.00   22.57457542   0.14690702
5128.00   22.70504570   0.14744401
5130.00   22.32534599   0.14654206
5132.00   22.81183243   0.14816521
5134.00   22.92739868   0.14859577
5136.00   22.61408424   0.14778830
5138.00   22.89816475   0.14875987
5140.00   22.77813911   0.14849462
5142.00   22.88379288   0.14893217
5144.00   22.69591331   0.14877512
5146.00   22.78463936   0.14894706
5148.00   22.74546623   0.14920066
5150.00   22.84235382   0.14975849
5152.00   22.55665016   0.14940269
5154.00   22.43876839   0.14936963
5156.00   22.36512184   0.14894448
5158.00   22.45912933   0.14923172
5160.00   22.23741913   0.14876316
5162.00   22.34635925   0.14888006
5164.00   22.19610596   0.14832711
5166.00   22.13918304   0.14821133
5168.00   22.16457748   0.14826015
5170.00   22.21825790   0.14889984
5172.00   22.11782646   0.14868237
5174.00   22.03955269   0.14866112
5176.00   22.10459709   0.14934003
5178.00   22.20987701   0.14965771
5180.00   21.87757301   0.14884132
5182.00   22.19061852   0.14984047
5184.00   21.90385246   0.14864974
5186.00   21.92225838   0.14926226
5188.00   22.03044128   0.14972892
5190.00   21.99526596   0.14936866
5192.00   21.91657257   0.14908652
5194.00   21.86215973   0.14901762
5196.00   22.04066467   0.14985467
5198.00   22.08558846   0.15053923
5200.00   21.97919846   0.15066338
5202.00   22.16553688   0.15137389
5204.00   22.45438004   0.15227354
5206.00   22.16934395   0.15159610
5208.00   22.27785492   0.15264027
5210.00   22.34693718   0.15331550
5212.00   22.64506531   0.15433666
5214.00   22.13352585   0.15318470
5216.00   22.40637970   0.15404163
5218.00   22.20475197   0.15373947
5220.00   22.36354256   0.15447639
5222.00   22.15117645   0.15402892
5224.00   22.08857536   0.15412840
5226.00   21.72043419   0.15316992
5228.00   21.63146400   0.15303046
5230.00   21.32889557   0.15221116
5232.00   20.97852898   0.15138941
5234.00   20.83059692   0.15126488
5236.00   20.61867905   0.15101205
5238.00   20.17807388   0.14984436
5240.00   19.88945007   0.14954309
5242.00   19.94005203   0.14936467
5244.00   20.00448608   0.14983289
5246.00   19.25336838   0.14775588
5248.00   18.83031082   0.14644453
5250.00   18.35674667   0.14495839
5252.00   17.85175896   0.14383875
5254.00   18.09935188   0.14481910
5256.00   17.53906059   0.14353795
5258.00   17.49209404   0.14388800
5260.00   16.75166893   0.14133729
5262.00   16.60651588   0.14141224
5264.00   16.42718315   0.14089972
5266.00   16.48760223   0.14086208
5268.00   16.18219948   0.14014934
5270.00   16.05539322   0.13954921
5272.00   15.80081177   0.13882494
5274.00   15.70561409   0.13868237
5276.00   15.28614616   0.13776639
5278.00   15.26586246   0.13803135
5280.00   15.27382183   0.13846844
5282.00   14.85176468   0.13707206
5284.00   14.95048237   0.13748311
5286.00   14.80042744   0.13693701
5288.00   14.72542953   0.13670807
5290.00   14.79442120   0.13740936
5292.00   14.14778996   0.13507561
5294.00   14.30580425   0.13603204
5296.00   14.70370483   0.13788334
5298.00   14.69647408   0.13871309
5300.00   14.31396294   0.13748544
5302.00   14.43111038   0.13824020
5304.00   14.38849640   0.13853616
5306.00   14.12020588   0.13784176
5308.00   14.69510078   0.14018902
5310.00   14.53147316   0.14056714
5312.00   14.58092117   0.14121605
5314.00   14.67372799   0.14171070
5316.00   14.65902233   0.14247516
5318.00   14.64509678   0.14225031
5320.00   14.66593647   0.14278446
5322.00   14.76639271   0.14318039
5324.00   14.61182976   0.14346007
5326.00   15.00365448   0.14541046
5328.00   14.83792591   0.14566876
5330.00   14.94329453   0.14595625
5332.00   15.00296211   0.14658289
5334.00   14.96327496   0.14708465
5336.00   14.97905159   0.14717484
5338.00   14.96466732   0.14729750
5340.00   15.18596554   0.14883626
5342.00   14.97199917   0.14833078
5344.00   14.98145866   0.14890948
5346.00   15.20785141   0.15011220
5348.00   15.46470642   0.15112312
5350.00   15.48308468   0.15175800
5352.00   15.54428291   0.15198685
5354.00   15.32317543   0.15172666
5356.00   15.24658108   0.15193895
5358.00   15.00000286   0.15187913
5360.00   15.51027679   0.15360200
5362.00   15.64009190   0.15396808
5364.00   15.27978230   0.15322366
5366.00   15.51729679   0.15424712
5368.00   15.38931942   0.15450493
5370.00   15.50691700   0.15495326
5372.00   15.55957127   0.15593404
5374.00   15.53304768   0.15618800
5376.00   15.91878128   0.15854199
5378.00   15.89990234   0.15845597
5380.00   15.76234627   0.15872911
5382.00   15.91208744   0.15991093
5384.00   15.97187710   0.16008785
5386.00   15.63281250   0.08377570
5388.00   15.59891319   0.09492022
5390.00   15.37680817   0.09865829
5392.00   15.52744770   0.08474090
5394.00   15.52753448   0.08004943
5396.00   15.44100666   0.08591456
5398.00   15.45823765   0.08828004
5400.00   15.56167221   0.08272559
5402.00   15.67509651   0.07740574
5404.00   15.66506767   0.07752617
5406.00   15.41504097   0.07682922
5408.00   15.39667320   0.07650244
5410.00   15.60700512   0.07670793
5412.00   15.63109589   0.07655340
5414.00   15.27626038   0.07565381
5416.00   15.11391926   0.07518404
5418.00   14.91708660   0.07953122
5420.00   14.82154751   0.07816488
5422.00   14.83317471   0.07444185
5424.00   14.73787022   0.07260244
5426.00   14.57965279   0.07430217
5428.00   14.51676178   0.07766552
5430.00   13.98998547   0.07910894
5432.00   13.81228638   0.07732058
5434.00   13.69142628   0.07343037
5436.00   13.84103680   0.07150123
5438.00   13.94085407   0.07084636
5440.00   13.73740959   0.06949374
5442.00   13.52847767   0.06898111
5444.00   13.64064026   0.07258065
5446.00   13.50486469   0.07546037
5448.00   13.39074230   0.07135215
5450.00   13.27466297   0.06739659
5452.00   13.14538193   0.06978980
5454.00   12.94297600   0.07480079
5456.00   12.63064957   0.07614930
5458.00   12.66558075   0.08185393
5460.00   12.52178574   0.07815220
5462.00   12.57143021   0.08073588
5464.00   12.55026054   0.07540706
5466.00   12.39013195   0.06564746
5468.00   12.20024681   0.06569491
5470.00   12.02125454   0.07000747
5472.00   12.07066250   0.06513552
5474.00   12.18727303   0.06420808
5476.00   12.18209457   0.06393573
5478.00   11.99841690   0.07081078
5480.00   12.11204052   0.07232682
5482.00   12.50810814   0.06240688
5484.00   12.25168705   0.06265412
5486.00   12.21037865   0.06260341
5488.00   12.63706112   0.06362716
5490.00   12.79035950   0.06738024
5492.00   12.92308235   0.06615146
5494.00   13.04330254   0.06481512
5496.00   12.92779064   0.06930525
5498.00   12.83161068   0.06808194
5500.00   13.22380352   0.06130109
5502.00   13.18342495   0.06657905
5504.00   13.07221413   0.07488202
5506.00   13.25649357   0.07188785
5508.00   13.63459396   0.06451719
5510.00   13.91631031   0.06663727
5512.00   14.17932987   0.06359908
5514.00   14.39044952   0.06359091
5516.00   14.41460609   0.06351026
5518.00   14.45219803   0.06347295
5520.00   14.68332767   0.06626130
5522.00   15.01330471   0.06966072
5524.00   15.28894043   0.07075916
5526.00   15.66576576   0.07425477
5528.00   15.76325321   0.07832418
5530.00   15.52625561   0.06963094
5532.00   15.68289375   0.06702482
5534.00   15.99868870   0.07022666
5536.00   16.24561691   0.06965885
5538.00   16.56085205   0.06544513
5540.00   16.72179222   0.06874966
5542.00   16.79807281   0.06792291
5544.00   17.08752823   0.06921547
5546.00   17.32884026   0.06928457
5548.00   17.26823044   0.06897710
5550.00   17.02551651   0.07108776
5552.00   16.99353409   0.07408357
5554.00   17.31427956   0.06993426
5556.00   17.27550125   0.06719104
5558.00   17.59519768   0.06627218
5560.00   17.87884331   0.06638654
5562.00   17.87090302   0.06579369
5564.00   17.75216103   0.06663906
5566.00   17.85266495   0.07153771
5568.00   18.11722755   0.07217150
5570.00   18.11367607   0.07398774
5572.00   18.34137535   0.07741372
5574.00   18.59573555   0.07781571
5576.00   18.49880791   0.07683915
5578.00   18.15474510   0.07578135
5580.00   18.14125633   0.07196785
5582.00   18.53383827   0.07090487
5584.00   18.57513428   0.06852388
5586.00   18.71139336   0.07692228
5588.00   18.69038963   0.07940201
5590.00   18.53898621   0.07224414
5592.00   18.51715088   0.06476051
5594.00   18.64619446   0.06802804
5596.00   18.43647575   0.08083583
5598.00   18.71203423   0.07710198
5600.00   18.89809036   0.06982003
5602.00   18.66741943   0.07146266
5604.00   18.67131042   0.07275874
5606.00   19.13455009   0.06536096
5608.00   19.02386093   0.06355602
5610.00   19.00721931   0.06384937
5612.00   19.09131050   0.06759501
5614.00   19.21151924   0.06585735
5616.00   19.22995949   0.06508601
5618.00   18.97530174   0.06919961
5620.00   18.70299149   0.07162499
5622.00   19.07381058   0.06442919
5624.00   19.21924400   0.06363651
5626.00   19.35265541   0.06323576
5628.00   19.35301399   0.06869327
5630.00   19.51859856   0.07662378
5632.00   19.59598732   0.07672621
5634.00   19.36509323   0.06619573
5636.00   19.52573967   0.06218250
5638.00   19.18388939   0.06494068
5640.00   19.47461891   0.07558461
5642.00   19.22427368   0.06926885
5644.00   19.06629944   0.06102800
5646.00   19.20876884   0.06249531
5648.00   19.14500237   0.06461647
5650.00   19.21471405   0.06770281
5652.00   19.21005821   0.06715423
5654.00   19.17400169   0.07007539
5656.00   19.17111588   0.07562085
5658.00   19.20742989   0.07343121
5660.00   19.22504807   0.06645600
5662.00   19.14704132   0.06699756
5664.00   18.95134735   0.06535645
5666.00   18.90426064   0.06196393
5668.00   18.72627258   0.06056003
5670.00   18.84005928   0.06378265
5672.00   19.08957291   0.07211263
5674.00   19.01379776   0.07647679
5676.00   18.62996483   0.06988726
5678.00   18.85574150   0.06713308
5680.00   18.76244545   0.06202988
5682.00   18.62814713   0.06209629
5684.00   18.53795433   0.06169547
5686.00   18.55773926   0.06548031
5688.00   18.58102798   0.07305115
5690.00   18.41855049   0.07461437
5692.00   18.19332504   0.06636889
5694.00   18.29789162   0.06905118
5696.00   18.17740631   0.06281495
5698.00   17.91417885   0.05845910
5700.00   17.81867981   0.06067884
5702.00   17.97640038   0.06371651
5704.00   18.04103661   0.06348489
5706.00   17.46167374   0.06109905
5708.00   17.25001144   0.06657655
5710.00   17.29395866   0.06475691
5712.00   17.15688133   0.05982478
5714.00   17.05575371   0.05743343
5716.00   17.16062546   0.05770271
5718.00   17.07706070   0.05702170
5720.00   17.04544830   0.05732645
5722.00   16.88951683   0.05652958
5724.00   16.67335510   0.05793694
5726.00   16.73954201   0.05941841
5728.00   16.95728302   0.05778557
5730.00   16.99189949   0.05657856
5732.00   16.84377861   0.06333872
5734.00   16.66823578   0.06368656
5736.00   16.42575073   0.05851464
5738.00   16.43433762   0.06340352
5740.00   16.42120743   0.06624939
5742.00   16.32011986   0.06113741
5744.00   16.26771927   0.05502087
5746.00   16.23159790   0.05787233
5748.00   16.25009155   0.06229946
5750.00   16.26123619   0.05879935
5752.00   16.23350525   0.05926093
5754.00   16.18399429   0.05970754
5756.00   16.11542130   0.05614478
5758.00   15.98364162   0.05447074
5760.00   15.75378704   0.06319628
5762.00   15.63120651   0.06004610
5764.00   15.80825710   0.05726583
5766.00   15.83200169   0.05686007
5768.00   15.79759407   0.05730281
5770.00   15.78503895   0.05772953
5772.00   15.68657875   0.05792377
5774.00   15.51493168   0.05611140
5776.00   15.48788834   0.05686050
5778.00   15.41448212   0.05487257
5780.00   15.15600109   0.05674886
5782.00   15.11790466   0.05666894
5784.00   15.13301277   0.05799961
5786.00   14.83310127   0.06451687
5788.00   15.00286007   0.05814528
5790.00   15.47418880   0.07053145
5792.00   15.67971611   0.06964682
5794.00   15.49480629   0.06182196
5796.00   15.32544136   0.05724047
5798.00   15.39772892   0.05845105
5800.00   15.45877266   0.05930698
5802.00   15.23507309   0.06031452
5804.00   15.10393429   0.06009810
5806.00   15.24508190   0.05938730
5808.00   15.31312943   0.05874478
5810.00   15.16138744   0.06288284
5812.00   15.14213943   0.06543126
5814.00   15.55183601   0.05708857
5816.00   15.61272812   0.05619615
5818.00   15.68445683   0.05417981
5820.00   15.94265556   0.05994026
5822.00   15.92489815   0.06289546
5824.00   15.66751766   0.06228305
5826.00   15.56109715   0.05967738
5828.00   15.76033401   0.05458321
5830.00   15.84816456   0.05751239
5832.00   16.21660805   0.06357174
5834.00   16.28217125   0.06303985
5836.00   16.13927269   0.05752389
5838.00   16.05106544   0.05436154
5840.00   16.21461487   0.05561750
5842.00   16.52350426   0.05507663
5844.00   16.18600464   0.05909734
5846.00   16.15792847   0.05577312
5848.00   16.24020576   0.05895994
5850.00   16.25938416   0.05811863
5852.00   16.42744064   0.05692894
5854.00   16.78027725   0.06073583
5856.00   16.82862663   0.06033826
5858.00   16.51204681   0.06114810
5860.00   16.62235641   0.05648141
5862.00   16.90025902   0.05425524
5864.00   16.92144394   0.05484020
5866.00   16.93127251   0.06197414
5868.00   17.10308647   0.06926249
5870.00   16.86578178   0.06091418
5872.00   16.70512962   0.05699136
5874.00   16.48381615   0.06002346
5876.00   16.78293991   0.05780993
5878.00   16.78739357   0.05470974
5880.00   16.41522598   0.05777795
5882.00   16.32863808   0.06250914
5884.00   16.55987740   0.05986765
5886.00   16.28079414   0.07814816
5888.00   16.07552719   0.06836321
5890.00   15.95071602   0.06369569
5892.00   15.94080257   0.07677239
5894.00   16.05704880   0.08162637
5896.00   16.26545906   0.06594841
5898.00   16.49904251   0.06678850
5900.00   16.54512787   0.06287190
5902.00   16.63209534   0.05869146
5904.00   16.54450798   0.05496238
5906.00   16.58839035   0.05355279
5908.00   16.61163330   0.05469728
5910.00   16.29607773   0.05611923
5912.00   16.25235367   0.05618218
5914.00   16.19067574   0.06297521
5916.00   16.42727280   0.05952237
5918.00   16.56609344   0.05740223
5920.00   16.54719734   0.05560230
5922.00   16.49512482   0.05273910
5924.00   16.46434593   0.05316039
5926.00   16.41049385   0.05446992
5928.00   16.39810181   0.05892166
5930.00   16.65893364   0.05838571
5932.00   16.86869431   0.05938900
5934.00   16.70200539   0.06044345
5936.00   16.46328926   0.05830490
5938.00   16.62477303   0.05490273
5940.00   16.52345085   0.05580884
5942.00   16.57228279   0.05382160
5944.00   16.48549843   0.05349991
5946.00   16.29124451   0.05650663
5948.00   16.33481789   0.05610142
5950.00   16.66566467   0.05197216
5952.00   16.86042213   0.05251965
5954.00   16.69929504   0.05213897
5956.00   16.45718384   0.05224575
5958.00   16.41082382   0.05439275
5960.00   16.57727432   0.05540560
5962.00   16.73270416   0.05396900
5964.00   16.69314957   0.05183493
5966.00   16.51305199   0.05155012
5968.00   16.35838318   0.05153701
5970.00   16.19096184   0.05162005
5972.00   16.34379578   0.05220819
5974.00   16.45552635   0.05199584
5976.00   16.40470314   0.05149944
5978.00   16.35780334   0.05132781
5980.00   16.39764977   0.05121141
5982.00   16.31559181   0.05522934
5984.00   16.49630547   0.06259792
5986.00   16.24275780   0.05636179
5988.00   15.91256523   0.05177503
5990.00   15.82078934   0.05307186
5992.00   15.99168587   0.05493752
5994.00   16.29862595   0.06085455
5996.00   16.05263519   0.05029283
5998.00   15.88938046   0.05200300
6000.00   15.60419464   0.05724582
6002.00   15.51917076   0.05552042
6004.00   15.58295727   0.05046414
6006.00   15.45593262   0.05072493
6008.00   15.14418125   0.05202719
6010.00   15.08555889   0.05290577
6012.00   15.09979248   0.06183540
6014.00   14.78830528   0.05487412
6016.00   14.46507835   0.04829478
6018.00   14.22617149   0.05102693
6020.00   14.02304268   0.05456526
6022.00   14.17279720   0.06328245
6024.00   13.95482826   0.05892535
6026.00   13.62215233   0.05239354
6028.00   13.03112125   0.04953231
6030.00   12.46290016   0.05103849
6032.00   12.18703175   0.05092052
6034.00   12.09327221   0.04657451
6036.00   11.78330421   0.04726686
6038.00   11.45639420   0.04583108
6040.00   11.24416447   0.05044904
6042.00   10.69352245   0.04583773
6044.00   10.28399563   0.04421004
6046.00   10.15330982   0.05066194
6048.00   9.77838039   0.05083074
6050.00   9.05990887   0.03923976
6052.00   8.65533066   0.03857323
6054.00   8.60615730   0.04136576
6056.00   8.57029438   0.04709845
6058.00   8.15028286   0.04506927
6060.00   7.60885954   0.03625735
6062.00   7.50275946   0.03602365
6064.00   7.41015530   0.03722846
6066.00   7.17098808   0.04098418
6068.00   6.97782421   0.04090108
6070.00   6.79434204   0.03765406
6072.00   6.54855871   0.03470370
6074.00   6.30779982   0.03453753
6076.00   6.20882082   0.03606621
6078.00   6.14193201   0.03827853
6080.00   5.92661190   0.03939004
6082.00   5.83524609   0.04239809
6084.00   5.62323856   0.04077868
6086.00   5.54088163   0.03541060
6088.00   5.63869667   0.03225560
6090.00   5.48629761   0.03407975
6092.00   5.38504601   0.03625399
6094.00   5.24310350   0.03698123
6096.00   5.00124645   0.03664474
6098.00   4.98726606   0.03643642
6100.00   5.14681196   0.03946450
6102.00   5.12634802   0.04128268
6104.00   4.81546021   0.03335871
6106.00   4.82978773   0.03274336
6108.00   4.81181574   0.03237909
6110.00   4.77496386   0.03310965
6112.00   4.73356867   0.03375636
6114.00   4.64660263   0.03477792
6116.00   4.56013870   0.03550152
6118.00   4.63094568   0.03381899
6120.00   4.68891859   0.03771593
6122.00   4.62215757   0.03211683
6124.00   4.55567789   0.03097752
6126.00   4.41260719   0.03261904
6128.00   4.37671995   0.03259580
6130.00   4.57202387   0.03200480
6132.00   4.67603493   0.03379922
6134.00   4.65514898   0.03022363
6136.00   4.62792015   0.03044274
6138.00   4.70099783   0.03246444
6140.00   4.72548866   0.03272492
6142.00   4.71366024   0.03176789
6144.00   4.77924919   0.03164249
6146.00   4.83205271   0.03095238
6148.00   4.78415823   0.03099151
6150.00   4.74591541   0.03006696
6152.00   4.95060968   0.03272949
6154.00   5.19965172   0.03880820
6156.00   5.21993685   0.03972786
6158.00   5.07408142   0.03298182
6160.00   5.16979361   0.03623846
6162.00   5.19459677   0.03325366
6164.00   5.25085258   0.03634314
6166.00   5.45091105   0.03607189
6168.00   5.66646910   0.03429641
6170.00   5.84896278   0.03733905
6172.00   6.01561260   0.04166840
6174.00   5.97951126   0.03298307
6176.00   6.17319965   0.03363372
6178.00   6.36872435   0.03950466
6180.00   6.40948153   0.04016874
6182.00   6.40889978   0.03637525
6184.00   6.48803425   0.03335439
6186.00   6.61876202   0.03476637
6188.00   6.75358152   0.03883142
6190.00   6.94156313   0.03728038
6192.00   7.16754246   0.03684762
6194.00   7.28929043   0.03691889
6196.00   7.45716095   0.03901124
6198.00   7.62868118   0.04038550
6200.00   7.62933064   0.03821984
6202.00   7.98713064   0.04432597
6204.00   8.06642532   0.03815789
6206.00   8.20455360   0.03640306
6208.00   8.45974064   0.03677916
6210.00   8.69315434   0.03696585
6212.00   8.79509068   0.03723293
6214.00   8.86598969   0.03750023
6216.00   9.17529392   0.03733498
6218.00   9.27166176   0.03854994
6220.00   9.36451626   0.04037136
6222.00   9.68730354   0.03973442
6224.00   10.02090073   0.03855020
6226.00   10.13219833   0.04044762
6228.00   10.16701794   0.04390861
6230.00   10.22299767   0.04120553
6232.00   10.42169476   0.03986012
6234.00   10.74068451   0.04099688
6236.00   10.97426033   0.04645228
6238.00   11.07192516   0.04706962
6240.00   11.14285946   0.04049002
6242.00   11.28158283   0.04056263
6244.00   11.47857094   0.04151342
6246.00   11.60760117   0.04088426
6248.00   11.65567589   0.04489264
6250.00   11.80276871   0.05124555
6252.00   12.05161858   0.05213311
6254.00   12.22563171   0.04563738
6256.00   12.23647690   0.04174145
6258.00   12.35614681   0.04247361
6260.00   12.54547977   0.04665767
6262.00   12.46105862   0.04807778
6264.00   12.58230114   0.04549301
6266.00   12.98423004   0.04413062
6268.00   13.23279572   0.04609291
6270.00   13.14938164   0.04296498
6272.00   13.23177147   0.04315136
6274.00   13.17806435   0.04782056
6276.00   13.31772900   0.04691299
6278.00   13.43291664   0.04628634
6280.00   13.49090958   0.04690254
6282.00   13.69218445   0.04593350
6284.00   13.91923428   0.05027542
6286.00   13.58912182   0.05225396
6288.00   13.62093925   0.04665340
6290.00   13.68825722   0.04332059
6292.00   13.88012695   0.05136779
6294.00   14.12188625   0.05679308
6296.00   14.09350109   0.04865760
6298.00   13.82115555   0.04642690
6300.00   14.15368748   0.04959947
6302.00   14.25182056   0.04767916
6304.00   14.21506119   0.04539192
6306.00   14.26143837   0.04615322
6308.00   14.37965679   0.04819070
6310.00   14.40639496   0.04889457
6312.00   14.39886093   0.05057853
6314.00   14.37825680   0.04669527
6316.00   14.55070019   0.04507175
6318.00   14.57001400   0.04522324
6320.00   14.53118229   0.04748117
6322.00   14.72353745   0.05108270
6324.00   15.05893421   0.05235820
6326.00   14.82752609   0.04620523
6328.00   14.43163300   0.05265911
6330.00   14.34688568   0.05636724
6332.00   14.52559948   0.05122003
6334.00   14.71296883   0.04712780
6336.00   14.68026829   0.04926781
6338.00   14.49086380   0.04739402
6340.00   14.69520855   0.04744390
6342.00   14.66670132   0.05038001
6344.00   14.67176247   0.04757566
6346.00   14.67663002   0.04448374
6348.00   14.66573715   0.04335378
6350.00   14.66579723   0.04723357
6352.00   14.66189861   0.05634130
6354.00   14.52670097   0.04876402
6356.00   14.64068508   0.04417315
6358.00   14.71743679   0.04361722
6360.00   14.97124004   0.04788238
6362.00   15.08211517   0.04970097
6364.00   14.85649490   0.04661816
6366.00   14.73516464   0.04649821
6368.00   14.42717361   0.04984197
6370.00   14.65934277   0.04707304
6372.00   14.66328430   0.04431288
6374.00   14.58312416   0.04355004
6376.00   14.53095818   0.04375556
6378.00   14.45789433   0.04365155
6380.00   14.42760944   0.04362868
6382.00   14.54554653   0.04402565
6384.00   14.63276958   0.04418566
6386.00   14.55105591   0.04390732
6388.00   14.42054653   0.04559834
6390.00   14.36316395   0.04879013
6392.00   14.41377640   0.04967927
6394.00   14.51423836   0.04564595
6396.00   14.17797184   0.04712879
6398.00   14.10880089   0.04556043
6400.00   14.22238827   0.04559949
6402.00   14.30537415   0.04585099
6404.00   14.27070427   0.04444310
6406.00   14.20178890   0.04248146
6408.00   14.20747662   0.04269811
6410.00   14.33018208   0.04329195
6412.00   14.23740578   0.04601394
6414.00   14.03339386   0.04976610
6416.00   13.98621178   0.04905539
6418.00   14.07157993   0.04490034
6420.00   14.05888844   0.04331132
6422.00   13.97657394   0.04333231
6424.00   13.97609043   0.04355588
6426.00   13.84965038   0.04632672
6428.00   13.86423016   0.04799897
6430.00   13.92012596   0.04622310
6432.00   13.77931595   0.04420078
6434.00   13.49805641   0.04522869
6436.00   13.54733562   0.04257876
6438.00   13.40371227   0.05708503
6440.00   13.44887447   0.05957774
6442.00   13.68915844   0.04907776
6444.00   13.73579216   0.04310267
6446.00   13.52331257   0.04808184
6448.00   13.40556145   0.04633705
6450.00   13.40030289   0.04270430
6452.00   13.40794468   0.04254664
6454.00   13.55570126   0.04774422
6456.00   13.56404781   0.05062662
6458.00   13.29166603   0.04729211
6460.00   13.00240612   0.04251962
6462.00   13.04917240   0.04559868
6464.00   13.13801193   0.04947567
6466.00   13.19306755   0.04463566
6468.00   13.10941982   0.04251041
6470.00   13.05187130   0.04299756
6472.00   13.01910019   0.04242777
6474.00   12.90262985   0.04040857
6476.00   12.74049854   0.04028973
6478.00   12.88544369   0.04165892
6480.00   12.82602119   0.04439536
6482.00   12.72371197   0.04379887
6484.00   12.67802143   0.04212746
6486.00   12.66089630   0.04246768
6488.00   12.65119076   0.04437103
6490.00   12.69546127   0.04496496
6492.00   12.65432358   0.04629342
6494.00   12.50312614   0.04198793
6496.00   12.56171322   0.04130755
6498.00   12.52865219   0.04405330
6500.00   12.43052483   0.04598426
6502.00   12.50376987   0.04566771
6504.00   12.63977051   0.04504699
6506.00   12.27512264   0.04232095
6508.00   12.25216293   0.04454917
6510.00   12.42654514   0.04192426
6512.00   12.44077301   0.03948826
6514.00   12.26470661   0.03980268
6516.00   12.08023071   0.04041570
6518.00   11.92086124   0.04138581
6520.00   11.96501255   0.03924654
6522.00   12.01763630   0.03965104
6524.00   12.01752567   0.04021503
6526.00   12.03939152   0.04086388
6528.00   12.15396690   0.04349039
6530.00   12.17053127   0.04576002
6532.00   11.72253704   0.04057385
6534.00   11.64701748   0.04247018
6536.00   11.83142662   0.04001958
6538.00   11.85695267   0.03941487
6540.00   11.77703285   0.04195516
6542.00   11.68107605   0.04254106
6544.00   11.59512901   0.03890035
6546.00   11.67813778   0.03910321
6548.00   11.65135574   0.04131932
6550.00   11.44173241   0.04069030
6552.00   11.45071411   0.03933059
6554.00   11.46696854   0.03857431
6556.00   11.30457306   0.03831708
6558.00   11.16888809   0.03812060
6560.00   11.32289886   0.03849847
6562.00   11.36851978   0.03883130
6564.00   11.41687202   0.03842705
6566.00   11.42200279   0.03831990
6568.00   11.39804554   0.04105412
6570.00   11.32120991   0.04390567
6572.00   11.16805363   0.04226061
6574.00   11.08874226   0.03881543
6576.00   10.93779373   0.04102737
6578.00   11.09533691   0.03980185
6580.00   11.24940014   0.03977354
6582.00   11.12905312   0.04015004
6584.00   10.88140869   0.03889755
6586.00   10.84422112   0.03747974
6588.00   10.86732769   0.03740484
6590.00   11.06870461   0.03756135
6592.00   11.19953823   0.03762791
6594.00   11.09136772   0.03777862
6596.00   10.94143200   0.04090573
6598.00   10.94031811   0.04329189
6600.00   10.95662498   0.03911979
6602.00   10.73026752   0.04212731
6604.00   10.71761990   0.03932780
6606.00   10.66995049   0.03746413
6608.00   10.59264183   0.03700178
6610.00   10.60148144   0.03688687
6612.00   10.69059372   0.03769957
6614.00   10.69642353   0.04016293
6616.00   10.63603878   0.03883418
6618.00   10.58706760   0.03683395
6620.00   10.43631077   0.03869627
6622.00   10.42318821   0.03868512
6624.00   10.50791264   0.03804618
6626.00   10.45240593   0.04066094
6628.00   10.22725296   0.04342722
6630.00   10.21196079   0.04086539
6632.00   10.22330666   0.03777552
6634.00   10.20517635   0.03626928
6636.00   10.22649193   0.03898403
6638.00   10.16605663   0.04185488
6640.00   10.03552151   0.04067125
6642.00   10.17027473   0.03716967
6644.00   10.13378620   0.03601846
6646.00   9.98134995   0.03541069
6648.00   10.01054573   0.03706947
6650.00   10.12229156   0.03897083
6652.00   10.10756588   0.04015651
6654.00   9.96039391   0.04022684
6656.00   9.90116310   0.03748250
6658.00   9.79449558   0.03503715
6660.00   9.79122829   0.03924673
6662.00   9.76120853   0.03981897
6664.00   9.63062668   0.03670290
6666.00   9.56092739   0.03440377
6668.00   9.67703342   0.03523684
6670.00   9.72819996   0.03531086
6672.00   9.71451283   0.03501178
6674.00   9.64402962   0.03571106
6676.00   9.55620384   0.03621744
6678.00   9.50155640   0.03535918
6680.00   9.52100372   0.03520836
6682.00   9.56974888   0.03750117
6684.00   9.48678017   0.03766616
6686.00   9.40244389   0.03452076
6688.00   9.36691093   0.03778378
6690.00   9.33960247   0.04011406
6692.00   9.31226540   0.03840650
6694.00   9.25682068   0.03550988
6696.00   9.20069885   0.03545788
6698.00   9.34356213   0.03491199
6700.00   9.13811302   0.03909301
6702.00   9.03188896   0.04260510
6704.00   9.13726139   0.04052744
6706.00   9.16480350   0.03637832
6708.00   9.06797409   0.03654741
6710.00   9.10559082   0.04024430
6712.00   9.07177925   0.03927662
6714.00   8.89565754   0.03609648
6716.00   8.89682484   0.03385876
6718.00   8.98288441   0.03411886
6720.00   8.98532867   0.03571754
6722.00   8.90253735   0.03691239
6724.00   8.90702724   0.03727307
6726.00   9.08815765   0.03735946
6728.00   8.89725304   0.03478701
6730.00   8.82400703   0.03593709
6732.00   8.72147465   0.03479727
6734.00   8.64336109   0.03302792
6736.00   8.65964317   0.03426193
6738.00   8.62811279   0.03525119
6740.00   8.56552029   0.03364789
6742.00   8.58468723   0.03505670
6744.00   8.54851437   0.03336472
6746.00   8.51657677   0.03265748
6748.00   8.41318417   0.03731997
6750.00   8.35520363   0.04262706
6752.00   8.63402557   0.04087995
6754.00   8.48537445   0.03460153
6756.00   8.24333668   0.03911071
6758.00   8.24360275   0.03573645
6760.00   8.39709949   0.03232409
6762.00   8.48753262   0.03278513
6764.00   8.40553284   0.03319778
6766.00   8.23622608   0.03427500
6768.00   8.27352619   0.03361969
6770.00   8.13131237   0.03960592
6772.00   8.06556129   0.03906608
6774.00   8.17144394   0.03508758
6776.00   8.31258965   0.03256668
6778.00   8.32508278   0.03551923
6780.00   8.25503731   0.04438577
6782.00   8.27400970   0.04226419
6784.00   8.25996685   0.03698033
6786.00   8.19706059   0.03573124
6788.00   8.06355381   0.03442341
6790.00   7.99110413   0.03180754
6792.00   8.08360004   0.03162029
6794.00   8.15387821   0.03192974
6796.00   8.02796650   0.03181099
6798.00   8.07912159   0.03184002
6800.00   8.00947952   0.03162448
6802.00   7.95503712   0.03175316
6804.00   8.02112389   0.03208156
6806.00   8.07061481   0.03189334
6808.00   7.97909641   0.03161587
6810.00   7.94276190   0.03253036
6812.00   7.88925457   0.03209466
6814.00   7.87413073   0.03153555
6816.00   7.86035490   0.03137725
6818.00   7.80979204   0.03125109
6820.00   7.79849052   0.03144309
6822.00   7.99000502   0.03392402
6824.00   7.90618563   0.03566335
6826.00   7.72295427   0.03624796
6828.00   7.74746227   0.03660644
6830.00   7.82491112   0.03505642
6832.00   7.78590202   0.03291438
6834.00   7.73913240   0.03368380
6836.00   7.79686975   0.03273275
6838.00   7.78731251   0.03078663
6840.00   7.87397957   0.03477665
6842.00   7.93106127   0.03516360
6844.00   7.85273504   0.03335913
6846.00   7.74429750   0.03432375
6848.00   7.77982998   0.03652310
6850.00   7.77979994   0.03410647
6852.00   7.69838667   0.03165079
6854.00   7.71566772   0.03088433
6856.00   7.74762201   0.03112420
6858.00   7.73257160   0.03139397
6860.00   7.69689798   0.03151264
6862.00   7.66792059   0.03187391
6864.00   7.52312708   0.03259589
6866.00   7.39497805   0.03391800
6868.00   7.50749111   0.03838865
6870.00   7.57410431   0.04247506
6872.00   7.55228806   0.04207966
6874.00   7.59029007   0.03715283
6876.00   7.66586637   0.03367279
6878.00   7.46553898   0.03693832
6880.00   7.32987356   0.03695706
6882.00   7.31361675   0.03300676
6884.00   7.29214954   0.03260946
6886.00   7.24626017   0.03534158
6888.00   7.27864552   0.03538414
6890.00   7.42292881   0.03265372
6892.00   7.41948748   0.03289073
6894.00   7.28749704   0.03229225
6896.00   7.25083923   0.03207325
6898.00   7.26493597   0.03197249
6900.00   7.23402739   0.03234268
6902.00   7.17100048   0.03332504
6904.00   7.15851879   0.03352590
6906.00   7.00353622   0.03204352
6908.00   7.00298309   0.03296601
6910.00   7.14744568   0.03220931
6912.00   7.20261192   0.03144424
6914.00   7.14939499   0.03131278
6916.00   7.10558891   0.03069144
6918.00   7.01694298   0.03057761
6920.00   7.09886360   0.03139896
6922.00   7.07596827   0.03210498
6924.00   7.03258801   0.03108038
6926.00   6.97653866   0.03034784
6928.00   6.90251207   0.03125953
6930.00   6.84066105   0.03201728
6932.00   6.83149099   0.03013908
6934.00   6.85153818   0.02981666
6936.00   6.97430515   0.03128575
6938.00   6.89644527   0.03371576
6940.00   6.86225033   0.03301046
6942.00   6.92279577   0.03019814
6944.00   6.85814571   0.03010310
6946.00   6.84131193   0.03026511
6948.00   6.79038668   0.03039050
6950.00   6.82370806   0.03024511
6952.00   6.82046795   0.02983212
6954.00   6.74265337   0.02951016
6956.00   6.71218443   0.03001335
6958.00   6.78268814   0.03159009
6960.00   6.63875484   0.03296978
6962.00   6.69591045   0.03038606
6964.00   6.69090748   0.02909930
6966.00   6.74378633   0.02917032
6968.00   6.89022732   0.03089700
6970.00   6.95842934   0.03208533
6972.00   6.80106401   0.03022083
6974.00   6.70322371   0.03022702
6976.00   6.65883446   0.03000441
6978.00   6.65942717   0.02962923
6980.00   6.70981550   0.02985192
6982.00   6.66606808   0.03187374
6984.00   6.53829908   0.03320424
6986.00   6.55542135   0.03040830
6988.00   6.68875837   0.02995134
6990.00   6.67712307   0.02963297
6992.00   6.60481358   0.02994996
6994.00   6.62112284   0.03183486
6996.00   6.61193037   0.03295557
6998.00   6.54031277   0.03194522
7000.00   6.58668709   0.03109154
7002.00   6.44840860   0.03258779
7004.00   6.32832623   0.03119854
7006.00   6.43443871   0.02943510
7008.00   6.55840540   0.03001876
7010.00   6.59252453   0.03241817
7012.00   6.57676792   0.03322987
7014.00   6.54863167   0.03033298
7016.00   6.62501526   0.03028606
7018.00   6.54855680   0.02970715
7020.00   6.46827745   0.02907922
7022.00   6.41308880   0.02893490
7024.00   6.40250397   0.02906886
7026.00   6.41308022   0.02899032
7028.00   6.35049629   0.02875414
7030.00   6.25499821   0.02855335
7032.00   6.34427977   0.02863985
7034.00   6.33299828   0.02916090
7036.00   6.28857517   0.02951865
7038.00   6.33555269   0.02936432
7040.00   6.42048645   0.02888419
7042.00   6.35385942   0.02863509
7044.00   6.24822712   0.03031813
7046.00   6.28616810   0.03031428
7048.00   6.32874489   0.02879010
7050.00   6.32959366   0.02927011
7052.00   6.31720638   0.03189733
7054.00   6.27356195   0.03292270
7056.00   6.09814262   0.03002255
7058.00   6.09957552   0.02776839
7060.00   6.13843155   0.02992817
7062.00   6.12542915   0.03152024
7064.00   6.13380432   0.03049187
7066.00   6.16625118   0.02857693
7068.00   6.14312172   0.02831511
7070.00   6.10931253   0.02820913
7072.00   6.15998030   0.02824416
7074.00   6.19913673   0.02852153
7076.00   6.13877439   0.02857151
7078.00   6.05204916   0.02831287
7080.00   6.05615044   0.02796767
7082.00   6.15079498   0.02813729
7084.00   6.17472315   0.02984960
7086.00   6.12753439   0.03224752
7088.00   6.14855242   0.03126251
7090.00   6.11285448   0.02891534
7092.00   6.04341984   0.02772917
7094.00   5.98790741   0.02781358
7096.00   5.95416164   0.02763118
7098.00   6.05982828   0.02851302
7100.00   6.02633190   0.03095295
7102.00   6.01984596   0.03138378
7104.00   6.03036737   0.02928625
7106.00   6.01336098   0.02770370
7108.00   6.02617788   0.02810978
7110.00   6.14509010   0.02802130
7112.00   6.14550257   0.02828164
7114.00   6.14999771   0.02886248
7116.00   5.98257589   0.02860666
7118.00   5.85149193   0.02857589
7120.00   5.84923315   0.02839431
7122.00   5.88888884   0.02767989
7124.00   5.89569998   0.02761259
7126.00   6.03872585   0.02891986
7128.00   6.09012699   0.02962084
7130.00   5.97729921   0.02899746
7132.00   5.92155790   0.03102592
7134.00   5.98315430   0.03127784
7136.00   6.06587696   0.02762722
7138.00   6.09693480   0.02845174
7140.00   6.00179672   0.03207640
7142.00   5.80029106   0.03485189
7144.00   5.78223276   0.03281237
7146.00   5.86344719   0.02927837
7148.00   6.00286007   0.02824162
7150.00   6.10210752   0.02910754
7152.00   5.91823006   0.02841731
7154.00   5.77984428   0.03062574
7156.00   5.87687254   0.02874363
7158.00   5.94098186   0.02994404
7160.00   5.82194614   0.02953863
7162.00   5.72483206   0.02748007
7164.00   5.78220415   0.02763866
7166.00   5.69854498   0.02819361
7168.00   5.82802010   0.03168964
7170.00   5.85939837   0.03001761
7172.00   5.80446625   0.02893836
7174.00   5.77400398   0.02914333
7176.00   5.74299288   0.02968032
7178.00   5.67654896   0.02996788
7180.00   5.74529028   0.02937688
7182.00   5.77384996   0.03160127
7184.00   5.71067715   0.03086660
7186.00   5.74033880   0.03139302
7188.00   5.78948212   0.03096111
7190.00   5.75934410   0.03035768
7192.00   5.69240236   0.03180486
7194.00   5.70208073   0.02974860
7196.00   5.69792461   0.02888483
7198.00   5.65559340   0.02873622
7200.00   5.66760111   0.03181677
7202.00   5.67066956   0.03243458
7204.00   5.65113020   0.02966303
7206.00   5.67346191   0.02889364
7208.00   5.68268108   0.03047418
7210.00   5.71530676   0.02904488
7212.00   5.74498367   0.02768172
7214.00   5.65798187   0.02837515
7216.00   5.66103268   0.03049713
7218.00   5.70937490   0.03174052
7220.00   5.56873846   0.03111610
7222.00   5.65799141   0.03124963
7224.00   5.55893087   0.03309999
7226.00   5.53889132   0.03072951
7228.00   5.41451406   0.03134954
7230.00   5.28770494   0.03197887
7232.00   5.38179493   0.03065165
7234.00   5.67133236   0.03198817
7236.00   5.76053667   0.03134640
7238.00   5.64508963   0.02944006
7240.00   5.43199158   0.03149705
7242.00   5.36902809   0.03263827
7244.00   5.47169924   0.03151304
7246.00   5.56825447   0.02970190
7248.00   5.54556227   0.02874144
7250.00   5.54317045   0.03048226
7252.00   5.46694803   0.03049000
7254.00   5.48371029   0.02870827
7256.00   5.46714497   0.02945373
7258.00   5.42110062   0.03026087
7260.00   5.43630981   0.02986890
7262.00   5.47914791   0.03268404
7264.00   5.32012558   0.03207781
7266.00   5.33887482   0.02794057
7268.00   5.44113588   0.02781496
7270.00   5.52522278   0.02864918
7272.00   5.51788759   0.03040954
7274.00   5.42172432   0.03356811
7276.00   5.32319164   0.03390124
7278.00   5.36599970   0.02977416
7280.00   5.34199715   0.02816627
7282.00   5.35753155   0.02823365
7284.00   5.39303350   0.02821293
7286.00   5.42011309   0.02888826
7288.00   5.42663860   0.03093890
7290.00   5.39113426   0.03171941
7292.00   5.32974482   0.02849234
7294.00   5.36236572   0.02743526
7296.00   5.34671974   0.02861799
7298.00   5.33341455   0.03094972
7300.00   5.32679987   0.03130319
7302.00   5.24978542   0.02907627
7304.00   5.09760284   0.02970060
7306.00   5.02804470   0.02994316
7308.00   5.10654640   0.02874593
7310.00   5.13046646   0.03099369
7312.00   5.12071085   0.03208825
7314.00   5.16926289   0.03028705
7316.00   5.23657656   0.02871980
7318.00   5.13975191   0.02849896
7320.00   5.10142899   0.02695763
7322.00   4.94493198   0.02736126
7324.00   4.93214607   0.02870863
7326.00   5.03130388   0.02842144
7328.00   5.01039314   0.02723354
7330.00   4.83783007   0.02741960
7332.00   4.92573881   0.02641412
7334.00   4.96337414   0.02730142
7336.00   4.91355133   0.02940121
7338.00   4.92857933   0.03049587
7340.00   4.95645189   0.03021347
7342.00   4.88809967   0.02870650
7344.00   4.76096535   0.02654383
7346.00   4.77264977   0.02640506
7348.00   4.80793858   0.02761303
7350.00   4.80676699   0.02985121
7352.00   4.77972460   0.02789330
7354.00   4.69999886   0.02569627
7356.00   4.58374500   0.02728869
7358.00   4.52793503   0.02854403
7360.00   4.61564827   0.02614918
7362.00   4.62059641   0.02822809
7364.00   4.44793415   0.03143222
7366.00   4.41296244   0.02935403
7368.00   4.48933077   0.02623107
7370.00   4.51531649   0.02662897
7372.00   4.49569941   0.02598039
7374.00   4.44015121   0.02536388
7376.00   4.41905499   0.02523954
7378.00   4.37359715   0.02528566
7380.00   4.34655952   0.02549869
7382.00   4.33751583   0.02551421
7384.00   4.34723091   0.02521958
7386.00   4.40533113   0.02509276
7388.00   4.43199682   0.02513656
7390.00   4.33407450   0.02525129
7392.00   4.31606197   0.02538162
7394.00   4.29184961   0.02517267
7396.00   4.16124630   0.02473478
7398.00   4.01276541   0.02461197
7400.00   4.03742123   0.02506608
7402.00   4.02830696   0.02513453
7404.00   3.98379016   0.02472284
7406.00   3.87162328   0.02447220
7408.00   3.83488846   0.02415312
7410.00   3.85771608   0.02380181
7412.00   3.82686853   0.02410266
7414.00   3.76968741   0.02576327
7416.00   3.85943460   0.02888450
7418.00   3.67900681   0.02524363
7420.00   3.57328987   0.02306645
7422.00   3.55409718   0.02322560
7424.00   3.57241082   0.02356541
7426.00   3.58340263   0.02355243
7428.00   3.48884439   0.02426796
7430.00   3.42779922   0.02843034
7432.00   3.40234470   0.02554862
7434.00   3.43560362   0.02338433
7436.00   3.38708162   0.02347255
7438.00   3.32176852   0.02387605
7440.00   3.40101767   0.02393838
7442.00   3.48906422   0.02467383
7444.00   3.33488202   0.02585612
7446.00   3.30376244   0.02475481
7448.00   3.33199930   0.02357111
7450.00   3.34218025   0.02299619
7452.00   3.34069824   0.02278780
7454.00   3.36112213   0.02276617
7456.00   3.35226417   0.02282836
7458.00   3.37375307   0.02296361
7460.00   3.41473484   0.02304222
7462.00   3.44003272   0.02379515
7464.00   3.44030881   0.02397389
7466.00   3.45350432   0.02433123
7468.00   3.46748424   0.02586460
7470.00   3.31013870   0.02407240
7472.00   3.26259422   0.02317901
7474.00   3.34299350   0.02305681
7476.00   3.32639837   0.02540590
7478.00   3.25872350   0.02578906
7480.00   3.23974514   0.02496523
7482.00   3.25963855   0.02743489
7484.00   3.36786866   0.02492168
7486.00   3.34778094   0.02314173
7488.00   3.36056423   0.02326832
7490.00   3.37346005   0.02341025
7492.00   3.33049297   0.02305149
7494.00   3.25255346   0.02352971
7496.00   3.23509264   0.02515428
7498.00   3.33887744   0.02382141
7500.00   3.47261548   0.02593519
7502.00   3.43160892   0.02515804
7504.00   3.32839394   0.02427055
7506.00   3.33168650   0.02405549
7508.00   3.39268947   0.02358572
7510.00   3.31847882   0.02324629
7512.00   3.32633877   0.02319449
7514.00   3.38051581   0.02415125
7516.00   3.44196749   0.02495517
7518.00   3.41363668   0.02535189
7520.00   3.37519407   0.02506362
7522.00   3.44384861   0.02528931
7524.00   3.54939294   0.02746606
7526.00   3.42821813   0.02554786
7528.00   3.41086459   0.02393275
7530.00   3.52913833   0.02399977
7532.00   3.52729607   0.02452231
7534.00   3.52007461   0.02670659
7536.00   3.63600802   0.02899430
7538.00   3.58253598   0.02574505
7540.00   3.54405451   0.02334644
7542.00   3.51901269   0.02560979
7544.00   3.58439779   0.02572065
7546.00   3.65069318   0.02429974
7548.00   3.71169734   0.02397559
7550.00   3.79432940   0.02551232
7552.00   3.80028796   0.02696422
7554.00   3.71664834   0.02521417
7556.00   3.72017360   0.02638107
7558.00   3.70549250   0.02622107
7560.00   3.70796371   0.02487482
7562.00   3.75365162   0.02414879
7564.00   3.80848241   0.02455473
7566.00   3.84717178   0.02468763
7568.00   3.87207770   0.02507352
7570.00   3.79085517   0.02534282
7572.00   3.81947970   0.02543941
7574.00   3.84300995   0.02501439
7576.00   3.84965992   0.02546239
7578.00   3.93254495   0.02715091
7580.00   3.92020345   0.02603319
7582.00   3.88046193   0.02474067
7584.00   3.83773971   0.02476696
7586.00   3.86427140   0.02489008
7588.00   3.84803081   0.02468880
7590.00   3.77221060   0.02487892
7592.00   3.76659250   0.02659435
7594.00   3.85820246   0.03036724
7596.00   4.19353628   0.03682748
7598.00   4.12459993   0.04175839
7600.00   4.02218723   0.05066398
7602.00   4.00528240   0.05685544
7604.00   4.04133415   0.05899602
7606.00   4.07374001   0.06037211
7608.00   3.85860705   0.05438074
7610.00   4.11672592   0.04709928
7612.00   4.10434294   0.04499898
7614.00   4.04362249   0.04013327
7616.00   4.08603334   0.03359753
7618.00   4.12064219   0.03081858
7620.00   4.03610611   0.03030635
7622.00   4.11752796   0.03157941
7624.00   4.19960070   0.03824124
7626.00   4.21168137   0.04303126
7628.00   4.35063219   0.04199750
7630.00   4.34233952   0.03960846
7632.00   4.12603712   0.03948972
7634.00   4.14058304   0.03773930
7636.00   4.16321230   0.03522981
7638.00   4.18022156   0.03503019
7640.00   4.26832008   0.03633680
7642.00   4.26540709   0.03574604
7644.00   4.26475048   0.03375633
7646.00   4.33319759   0.03347892
7648.00   4.28730917   0.03544065
7650.00   4.28080225   0.03476194
7652.00   4.17201233   0.03266558
7654.00   4.22599173   0.03107526
7656.00   4.26762056   0.02958995
7658.00   4.18125248   0.03020911
7660.00   4.11827087   0.03234660
7662.00   4.26814461   0.03060159
7664.00   4.17930746   0.02787305
7666.00   4.12475538   0.02754475
7668.00   4.09766722   0.02717088
7670.00   4.13774824   0.02684774
7672.00   4.20548487   0.02703139
7674.00   4.22815132   0.02805971
7676.00   4.20804167   0.03029613
7678.00   4.16823435   0.03195253
7680.00   4.15655756   0.02927042
7682.00   4.18569946   0.02678142
7684.00   4.24263096   0.02641987
7686.00   4.26874065   0.02613497
7688.00   4.19597864   0.02697784
7690.00   4.03701162   0.03433200
7692.00   4.09130383   0.03159947
7694.00   4.22127438   0.02653513
7696.00   4.29563522   0.02641455
7698.00   4.31630754   0.02905705
7700.00   4.30492020   0.02957876
7702.00   4.27182865   0.02741214
7704.00   4.26936531   0.02606957
7706.00   4.28619385   0.02739648
7708.00   4.25152206   0.02788909
7710.00   4.25056982   0.02791828
7712.00   4.32681561   0.02837978
7714.00   4.40977716   0.02867322
7716.00   4.35692358   0.02895481
7718.00   4.10088158   0.03283360
7720.00   4.08283663   0.03035066
7722.00   4.29856300   0.02810761
7724.00   4.32539701   0.02958468
7726.00   4.24234247   0.02976059
7728.00   4.20618439   0.02801701
7730.00   4.17783642   0.02895347
7732.00   4.20970774   0.02783149
7734.00   4.21456385   0.02742824
7736.00   4.22746754   0.02727421
7738.00   4.24720764   0.02678154
7740.00   4.27144814   0.02635966
7742.00   4.31183624   0.02667770
7744.00   4.38247681   0.02758542
7746.00   4.46720934   0.02811727
7748.00   4.48290205   0.03020974
7750.00   4.47460079   0.03064132
7752.00   4.39094734   0.03238324
7754.00   4.29306889   0.03233067
7756.00   4.27162600   0.02900637
7758.00   4.32234955   0.02727184
7760.00   4.35702562   0.02773519
7762.00   4.32620430   0.02859589
7764.00   4.47346783   0.02904653
7766.00   4.54226685   0.02837857
7768.00   4.47728968   0.02735016
7770.00   4.39397478   0.02756403
7772.00   4.35600042   0.02910466
7774.00   4.48880816   0.02815050
7776.00   4.54008007   0.03048084
7778.00   4.57884645   0.03021852
7780.00   4.50837326   0.02842196
7782.00   4.45440769   0.02703351
7784.00   4.52168846   0.02807058
7786.00   4.55040741   0.03188211
7788.00   4.59633160   0.03135724
7790.00   4.56162500   0.02961824
7792.00   4.48224735   0.02902027
7794.00   4.55534744   0.03137906
7796.00   4.61957455   0.03311862
7798.00   4.48776388   0.03177418
7800.00   4.40847731   0.03064162
7802.00   4.45115900   0.02912164
7804.00   4.43537712   0.02784474
7806.00   4.52798510   0.03027665
7808.00   4.53635073   0.03271658
7810.00   4.47968769   0.03180773
7812.00   4.53146982   0.02850892
7814.00   4.60898876   0.02809324
7816.00   4.56349087   0.02828544
7818.00   4.58962631   0.02914276
7820.00   4.52338886   0.03119492
7822.00   4.53839540   0.03131218
7824.00   4.59887981   0.02942886
7826.00   4.57920122   0.02854318
7828.00   4.73452139   0.02933357
7830.00   4.79488325   0.02960533
7832.00   4.81471539   0.02890153
7834.00   4.67439413   0.02835934
7836.00   4.64822912   0.02885211
7838.00   4.69195127   0.02931392
7840.00   4.58090830   0.02882936
7842.00   4.68842125   0.02981799
7844.00   4.74970436   0.03225264
7846.00   4.67848015   0.03176678
7848.00   4.63597536   0.03248895
7850.00   4.65498734   0.03243179
7852.00   4.66258192   0.03098180
7854.00   4.64331532   0.03152861
7856.00   4.74651337   0.03384762
7858.00   4.76867008   0.03126059
7860.00   4.81133652   0.03018498
7862.00   4.89136076   0.03004692
7864.00   4.78725338   0.02958931
7866.00   4.57732773   0.02931116
7868.00   4.58490801   0.03091664
7870.00   4.53383350   0.03439255
7872.00   4.66638279   0.03103138
7874.00   4.74770498   0.02941520
7876.00   4.72826004   0.02956166
7878.00   4.61836004   0.03101614
7880.00   4.56349182   0.03264119
7882.00   4.70641327   0.03302345
7884.00   4.77351952   0.03446188
7886.00   4.76035452   0.03136376
7888.00   4.70372200   0.03075665
7890.00   4.69233751   0.03131308
7892.00   4.66798592   0.03070423
7894.00   4.65100479   0.02966189
7896.00   4.75921154   0.03086093
7898.00   4.61769676   0.03302150
7900.00   4.62149858   0.02991705
7902.00   4.71922159   0.03015511
7904.00   4.75572824   0.03265583
7906.00   4.79227638   0.03240361
7908.00   4.84349680   0.03024924
7910.00   4.71879911   0.03375901
7912.00   4.67414713   0.03862724
7914.00   4.78435898   0.03534701
7916.00   4.76540852   0.03417711
7918.00   4.67114925   0.03305940
7920.00   4.59427500   0.03299859
7922.00   4.58422947   0.03530589
7924.00   4.66147614   0.03443307
7926.00   4.63541842   0.03025218
7928.00   4.60799789   0.03231280
7930.00   4.68799400   0.03519605
7932.00   4.70543289   0.03454589
7934.00   4.68957186   0.03141107
7936.00   4.77949762   0.03018584
7938.00   4.86305475   0.03228432
7940.00   4.72249079   0.03360043
7942.00   4.60868168   0.03150936
7944.00   4.64540243   0.03160160
7946.00   4.57593489   0.03305674
7948.00   4.48708344   0.03323430
7950.00   4.61376095   0.03222274
7952.00   4.68651104   0.03272052
7954.00   4.71723509   0.03310211
7956.00   4.59304190   0.03139582
7958.00   4.52711010   0.03331418
7960.00   4.59839201   0.03468021
7962.00   4.65153933   0.03474204
7964.00   4.53520775   0.03619697
7966.00   4.42298937   0.03529040
7968.00   4.58140707   0.03391536
7970.00   4.60617733   0.03351897
7972.00   4.60553885   0.03163599
7974.00   4.64371681   0.03074715
7976.00   4.65500402   0.03167583
7978.00   4.59078550   0.03173559
7980.00   4.60335445   0.03155508
7982.00   4.48256207   0.03281542
7984.00   4.48715687   0.03234462
7986.00   4.66054296   0.03228914
7988.00   4.68237877   0.03438273
7990.00   4.55472040   0.03775815
7992.00   4.62355137   0.03960519
7994.00   4.69721651   0.03672504
7996.00   4.51876116   0.03304366
7998.00   4.51141834   0.03193453
8000.00   4.49649858   0.03228053
8002.00   4.46555996   0.03196290
8004.00   4.41989565   0.03171736
8006.00   4.30457926   0.03324581
8008.00   4.40800476   0.03208114
8010.00   4.34076691   0.03462298
8012.00   4.39138365   0.03373949
8014.00   4.36025095   0.03401091
8016.00   4.27458382   0.03569461
8018.00   4.30895805   0.03605879
8020.00   4.47352743   0.03487107
8022.00   4.53255177   0.03459954
8024.00   4.39182806   0.03482169
8026.00   4.45760965   0.03799850
8028.00   4.49191141   0.03683053
8030.00   4.30978298   0.03265189
8032.00   4.14292955   0.03108911
