# File created by shivutils (I.Shivvers)
# wl(A)   flm    er(optional)
3444.00   16.10678482   0.19934501
3446.00   16.17946243   0.20187289
3448.00   15.86107826   0.20161945
3450.00   16.06384468   0.20615970
3452.00   16.03150940   0.20780571
3454.00   16.03540039   0.21020046
3456.00   15.68132019   0.21034998
3458.00   16.21423149   0.21573642
3460.00   15.93446827   0.21670122
3462.00   15.92283440   0.21932253
3464.00   16.20544052   0.22353001
3466.00   16.55806541   0.22900474
3468.00   16.40870667   0.23143849
3470.00   16.24783134   0.23187679
3472.00   16.64798164   0.23747371
3474.00   16.32358932   0.23765948
3476.00   17.30631828   0.24608110
3478.00   17.68249512   0.25198692
3480.00   17.68616104   0.25509316
3482.00   18.05538559   0.25949284
3484.00   18.58617592   0.26424643
3486.00   18.23228455   0.26448631
3488.00   19.22602844   0.27221426
3490.00   18.70505905   0.27065763
3492.00   18.85544586   0.27274838
3494.00   19.26271439   0.27693543
3496.00   19.54450226   0.27965307
3498.00   19.42144585   0.28070033
3500.00   19.15026855   0.27938578
3502.00   19.72382545   0.28508428
3504.00   19.15209961   0.28137416
3506.00   18.84811974   0.28104952
3508.00   19.41843796   0.28477627
3510.00   19.35888100   0.28490072
3512.00   18.62194824   0.28064865
3514.00   18.67319679   0.28230479
3516.00   18.64690590   0.28217641
3518.00   18.67133331   0.28277048
3520.00   18.89867210   0.28421834
3522.00   18.98199844   0.28460789
3524.00   19.03265953   0.28421977
3526.00   18.84934235   0.28349745
3528.00   19.37000275   0.28712961
3530.00   19.15679741   0.28645140
3532.00   19.24234772   0.28622428
3534.00   19.15437126   0.28467628
3536.00   19.62424469   0.28648624
3538.00   19.73158264   0.28704888
3540.00   19.71289635   0.28713220
3542.00   19.18400955   0.28249407
3544.00   19.71655464   0.28603762
3546.00   19.28326988   0.28320724
3548.00   19.73844147   0.28399247
3550.00   19.85261154   0.28367311
3552.00   19.62662315   0.28150803
3554.00   19.56310844   0.28023198
3556.00   19.08208275   0.27497876
3558.00   19.61194992   0.27738979
3560.00   19.53995705   0.27593276
3562.00   19.55130959   0.27411827
3564.00   19.69541359   0.27287474
3566.00   19.49423027   0.26931968
3568.00   18.95343208   0.26513320
3570.00   18.92637062   0.26344329
3572.00   18.70131302   0.26078016
3574.00   18.31552505   0.25664887
3576.00   18.80024338   0.25717172
3578.00   18.66247368   0.25510088
3580.00   18.71351433   0.25388762
3582.00   17.66320992   0.24578370
3584.00   17.98484230   0.24459815
3586.00   17.53223991   0.24082369
3588.00   17.04409599   0.23694238
3590.00   17.06016731   0.23526433
3592.00   16.36890030   0.22933310
3594.00   16.51440239   0.22862662
3596.00   16.32830048   0.22547722
3598.00   16.19383049   0.22318371
3600.00   15.91662884   0.22008549
3602.00   15.68817043   0.21749462
3604.00   15.83948803   0.21672398
3606.00   15.63649368   0.21414390
3608.00   15.67044640   0.21363090
3610.00   15.38792610   0.20982368
3612.00   15.31215286   0.20796080
3614.00   15.58454227   0.20889427
3616.00   15.33767223   0.20562616
3618.00   15.30672550   0.20432681
3620.00   15.40372086   0.20320971
3622.00   15.33879852   0.20100194
3624.00   14.78797340   0.19678092
3626.00   14.33481216   0.19304194
3628.00   14.52661228   0.19293021
3630.00   13.55105019   0.18624677
3632.00   13.52943611   0.18534049
3634.00   13.22689819   0.18170674
3636.00   13.04551983   0.17940605
3638.00   12.89413643   0.17770135
3640.00   12.44571304   0.17421001
3642.00   12.00896072   0.17048588
3644.00   12.08474827   0.17043903
3646.00   11.93840027   0.16823165
3648.00   11.64970112   0.16873956
3650.00   11.39377594   0.16824365
3652.00   11.28615475   0.16484290
3654.00   10.91777706   0.16084467
3656.00   10.63260174   0.15662798
3658.00   10.70353127   0.15487683
3660.00   10.16944218   0.15125397
3662.00   9.92667389   0.15018663
3664.00   9.90893841   0.14828959
3666.00   9.13869381   0.14123052
3668.00   9.18302250   0.14016058
3670.00   9.05344105   0.13884175
3672.00   8.61383438   0.13523331
3674.00   8.84015179   0.13615169
3676.00   8.43452549   0.13259611
3678.00   8.53962326   0.13291968
3680.00   8.50640869   0.13168186
3682.00   8.44287491   0.13079946
3684.00   8.31446552   0.12875745
3686.00   8.34587097   0.12927467
3688.00   8.27320099   0.12811221
3690.00   7.88065529   0.12515117
3692.00   7.82585907   0.12382399
3694.00   7.93999958   0.12400950
3696.00   7.80144787   0.12250129
3698.00   7.81920671   0.12200220
3700.00   7.77534056   0.12137706
3702.00   7.76519823   0.12079778
3704.00   7.72968388   0.12003577
3706.00   7.62815571   0.11870490
3708.00   7.68301725   0.11868580
3710.00   7.81806850   0.11934956
3712.00   7.82037449   0.11987830
3714.00   7.75870132   0.11789995
3716.00   7.91586447   0.11836827
3718.00   7.89269590   0.11796157
3720.00   7.88117695   0.11772785
3722.00   8.01891899   0.11789586
3724.00   8.10407448   0.11844267
3726.00   8.33231735   0.11990290
3728.00   8.56742096   0.12055328
3730.00   8.89327717   0.12261812
3732.00   9.28583050   0.12469443
3734.00   9.30156994   0.12448110
3736.00   9.32206821   0.12381980
3738.00   9.22815514   0.12357708
3740.00   9.66585159   0.12538840
3742.00   9.58079243   0.12509689
3744.00   9.80897808   0.12563272
3746.00   9.98641491   0.12574115
3748.00   10.13460732   0.12603793
3750.00   9.99708462   0.12487386
3752.00   10.07077217   0.12475452
3754.00   10.25057125   0.12608649
3756.00   10.18733883   0.12538786
3758.00   10.29745102   0.12566778
3760.00   10.50554752   0.12621632
3762.00   10.58533669   0.12626359
3764.00   10.93944359   0.12805061
3766.00   11.12880993   0.12890950
3768.00   11.13274002   0.12872685
3770.00   11.04656410   0.12824340
3772.00   11.09955502   0.12846673
3774.00   11.17180538   0.12820804
3776.00   11.32221127   0.12842728
3778.00   11.60434723   0.12991112
3780.00   11.87993145   0.13155845
3782.00   11.98580074   0.13148078
3784.00   12.12075043   0.13203169
3786.00   12.27207470   0.13288759
3788.00   12.39105034   0.13296504
3790.00   12.53381824   0.13373654
3792.00   12.42543030   0.13314256
3794.00   12.75872231   0.13448869
3796.00   12.90550613   0.13498677
3798.00   12.95954037   0.13478991
3800.00   13.22883511   0.13592593
3802.00   13.34894848   0.13636434
3804.00   13.87412262   0.13840517
3806.00   13.96195030   0.13808329
3808.00   14.21207619   0.13925809
3810.00   14.40523434   0.13965112
3812.00   14.49879074   0.13987061
3814.00   15.25239658   0.14309944
3816.00   15.42258453   0.14368586
3818.00   15.62775326   0.14475924
3820.00   15.89774895   0.14553438
3822.00   16.27223396   0.14713052
3824.00   16.42366982   0.14744589
3826.00   16.95275497   0.14950611
3828.00   17.22377777   0.15034465
3830.00   17.44095039   0.15124187
3832.00   18.27621841   0.15407018
3834.00   18.50158882   0.15431400
3836.00   18.75495338   0.15509917
3838.00   19.34155083   0.15706648
3840.00   19.48242950   0.15724592
3842.00   19.97973633   0.15892047
3844.00   20.58956528   0.16086100
3846.00   20.82382584   0.16136825
3848.00   21.44045448   0.16351078
3850.00   21.57893562   0.16369011
3852.00   22.16293716   0.16532409
3854.00   22.13398743   0.16528259
3856.00   22.28168488   0.16549088
3858.00   22.84167480   0.16734535
3860.00   23.10338783   0.16826613
3862.00   23.16178894   0.16807407
3864.00   23.58893204   0.16933097
3866.00   23.74062920   0.16958579
3868.00   23.84131050   0.16974507
3870.00   23.96393204   0.16978678
3872.00   24.02745438   0.16974148
3874.00   24.32041931   0.17066000
3876.00   24.60891914   0.17163993
3878.00   24.73394203   0.17139032
3880.00   24.57402802   0.17077754
3882.00   24.45626068   0.17016383
3884.00   24.36844063   0.16978787
3886.00   24.64911461   0.17043753
3888.00   24.34757423   0.16910468
3890.00   24.96100616   0.17049615
3892.00   25.23019218   0.17156516
3894.00   25.10619164   0.17107950
3896.00   25.03178596   0.17059763
3898.00   25.21794891   0.17109700
3900.00   25.40198135   0.17134680
3902.00   25.71115875   0.17228565
3904.00   26.14987373   0.17344895
3906.00   26.46656418   0.17478354
3908.00   26.52636147   0.17501239
3910.00   26.97297478   0.17610624
3912.00   26.69428444   0.17543356
3914.00   26.97739983   0.17596267
3916.00   26.88182259   0.17473994
3918.00   27.10053253   0.17498703
3920.00   26.86643410   0.17368273
3922.00   26.51706505   0.17253487
3924.00   26.31522751   0.17165910
3926.00   26.26194572   0.17129399
3928.00   26.02776909   0.17028485
3930.00   25.11094284   0.16732788
3932.00   23.64048767   0.16243802
3934.00   23.81555367   0.16263573
3936.00   24.34149551   0.16374880
3938.00   23.60811234   0.16086911
3940.00   23.86140060   0.16170943
3942.00   23.78509903   0.16120407
3944.00   23.11560822   0.15901016
3946.00   23.28463745   0.15880331
3948.00   22.78574944   0.15679047
3950.00   22.01853752   0.15403925
3952.00   22.04650879   0.15392336
3954.00   22.00334930   0.15351729
3956.00   22.18093872   0.15424033
3958.00   21.97894859   0.15353499
3960.00   21.79842567   0.15292022
3962.00   21.57417488   0.15201415
3964.00   21.57533646   0.15179025
3966.00   20.99497604   0.14958067
3968.00   20.59252548   0.14797734
3970.00   21.08954811   0.14962101
3972.00   21.25511360   0.15003155
3974.00   20.90470505   0.14871661
3976.00   21.06436729   0.14869522
3978.00   20.65580368   0.14706533
3980.00   20.95928764   0.14762735
3982.00   21.14917183   0.14780241
3984.00   21.15030289   0.14715008
3986.00   20.73153305   0.14587881
3988.00   20.76533127   0.14578994
3990.00   21.07548332   0.14678037
3992.00   21.17796516   0.14721480
3994.00   20.75369453   0.14587595
3996.00   21.11308289   0.14702015
3998.00   20.98067856   0.14613289
4000.00   21.33524132   0.14690734
4002.00   21.30994797   0.14644943
4004.00   21.31308365   0.14637071
4006.00   21.69534111   0.14744119
4008.00   21.95694733   0.14790076
4010.00   22.00221062   0.14783852
4012.00   22.14742470   0.14785916
4014.00   22.70028114   0.14930692
4016.00   22.93136978   0.14965662
4018.00   23.22655678   0.15094805
4020.00   23.29634857   0.15121119
4022.00   23.84597588   0.15275842
4024.00   23.95649529   0.15282419
4026.00   24.07825661   0.15226690
4028.00   24.54634094   0.15322421
4030.00   24.63834000   0.15342370
4032.00   25.05992889   0.15432793
4034.00   25.34727478   0.15445283
4036.00   25.16316414   0.15376122
4038.00   25.28005028   0.15390898
4040.00   25.65247726   0.15454574
4042.00   25.76566505   0.15481229
4044.00   25.94977188   0.15816252
4046.00   25.86017418   0.15968834
4048.00   26.03824997   0.15812224
4050.00   26.27991104   0.15534081
4052.00   26.40756607   0.15505311
4054.00   26.86404037   0.15611124
4056.00   26.75148582   0.15544778
4058.00   27.00411797   0.15578932
4060.00   27.26132584   0.15603691
4062.00   27.07527351   0.15506439
4064.00   27.45486259   0.15592028
4066.00   27.43041039   0.15591377
4068.00   27.24372101   0.15505464
4070.00   27.39201164   0.15499727
4072.00   27.59133720   0.15510732
4074.00   27.71080589   0.15541840
4076.00   27.77850151   0.15580374
4078.00   27.97362137   0.15620463
4080.00   27.83192253   0.15535387
4082.00   27.39091873   0.15370156
4084.00   28.07403183   0.15519439
4086.00   27.87060738   0.15447815
4088.00   27.76537514   0.15366875
4090.00   27.89054108   0.15347672
4092.00   28.15894318   0.15386325
4094.00   28.08382988   0.15338379
4096.00   27.73963356   0.15232250
4098.00   27.96552277   0.15256099
4100.00   27.49921036   0.15117428
4102.00   27.25331497   0.15040536
4104.00   26.95325661   0.14927879
4106.00   26.99238586   0.14895722
4108.00   26.37912178   0.14723146
4110.00   26.51992989   0.14714254
4112.00   26.34655571   0.14648338
4114.00   26.09212303   0.14532293
4116.00   26.24296761   0.14516424
4118.00   26.19067764   0.14471413
4120.00   26.07695580   0.14428420
4122.00   26.10307693   0.14409426
4124.00   25.82261658   0.14311276
4126.00   25.91183853   0.14308146
4128.00   25.81269836   0.14250739
4130.00   25.75410461   0.14202318
4132.00   25.78271294   0.14197792
4134.00   25.32519531   0.14060137
4136.00   25.29065132   0.13984494
4138.00   25.16928673   0.13938101
4140.00   25.02028275   0.13870943
4142.00   25.10965157   0.13847521
4144.00   24.89485168   0.13745283
4146.00   24.96655846   0.13715431
4148.00   24.49372101   0.13572821
4150.00   24.62524986   0.13592894
4152.00   24.76751900   0.13608626
4154.00   24.78762436   0.13582471
4156.00   24.80340767   0.13550110
4158.00   24.48000145   0.13430935
4160.00   24.85029030   0.13494384
4162.00   24.53688622   0.13404511
4164.00   24.30959320   0.13350457
4166.00   24.50589180   0.13357587
4168.00   23.99117470   0.13179629
4170.00   24.04431152   0.13171288
4172.00   24.02708435   0.13129286
4174.00   23.80192947   0.13042541
4176.00   23.55867577   0.12966555
4178.00   23.57146263   0.12956724
4180.00   23.30531502   0.12867130
4182.00   23.12047005   0.12789020
4184.00   22.89883804   0.12706916
4186.00   22.76535225   0.12642376
4188.00   22.40414047   0.12522517
4190.00   22.27551842   0.12482785
4192.00   22.04158211   0.12393468
4194.00   22.01844788   0.12368000
4196.00   21.93340111   0.12306900
4198.00   21.60040283   0.12216565
4200.00   21.33740044   0.12127955
4202.00   21.32244110   0.12116637
4204.00   21.05405426   0.12027760
4206.00   20.72315216   0.11919124
4208.00   20.62941360   0.11890166
4210.00   20.11388588   0.11730321
4212.00   20.14467239   0.11712184
4214.00   19.98933411   0.11652531
4216.00   19.79013252   0.11559146
4218.00   19.71751785   0.11523983
4220.00   19.36615753   0.11420926
4222.00   19.24297714   0.11364595
4224.00   19.30472946   0.11464480
4226.00   18.94138336   0.11255263
4228.00   18.69262695   0.11178302
4230.00   18.50871849   0.11084324
4232.00   18.07917976   0.10974704
4234.00   18.01233101   0.10938416
4236.00   17.87933731   0.10895445
4238.00   17.70418549   0.10814643
4240.00   17.47463799   0.10706875
4242.00   16.96888542   0.10541137
4244.00   17.03678322   0.10567810
4246.00   16.52266312   0.10446589
4248.00   16.31346893   0.10353367
4250.00   16.25685692   0.10295979
4252.00   15.97486401   0.10175303
4254.00   15.62808990   0.10062812
4256.00   15.71848965   0.10071927
4258.00   15.20187187   0.09919326
4260.00   14.91881466   0.09812857
4262.00   14.84368420   0.09771212
4264.00   14.70046139   0.09699161
4266.00   14.43481255   0.09597024
4268.00   14.26434898   0.09543309
4270.00   13.98640633   0.09447724
4272.00   14.03079700   0.09452082
4274.00   13.91718006   0.09406560
4276.00   13.99530888   0.09413609
4278.00   13.68433380   0.09312694
4280.00   13.75994682   0.09329812
4282.00   13.67161655   0.09299198
4284.00   13.99725723   0.09390207
4286.00   13.79546642   0.09298281
4288.00   14.02176094   0.09343582
4290.00   13.92384624   0.09306284
4292.00   14.05947876   0.09331686
4294.00   14.23386097   0.09390149
4296.00   14.31035709   0.09395714
4298.00   14.52031040   0.09454119
4300.00   14.60497570   0.09475926
4302.00   14.97829151   0.09567699
4304.00   15.01541615   0.09573769
4306.00   15.05893898   0.09587961
4308.00   15.22229958   0.09614918
4310.00   15.42664814   0.09666283
4312.00   15.52018738   0.09708995
4314.00   15.79372692   0.09789634
4316.00   15.72826576   0.09739295
4318.00   16.18463898   0.09844036
4320.00   15.92348957   0.09775630
4322.00   16.23821831   0.09870170
4324.00   16.55238342   0.09920663
4326.00   16.48729897   0.09891003
4328.00   16.64365387   0.09909998
4330.00   16.60294533   0.09896976
4332.00   16.65570068   0.09935068
4334.00   16.88400269   0.10005737
4336.00   16.66282845   0.09961556
4338.00   17.04739952   0.10040925
4340.00   16.95107460   0.10018635
4342.00   16.91228294   0.09973775
4344.00   17.00692749   0.10014822
4346.00   17.10645866   0.10058765
4348.00   17.05903625   0.10053896
4350.00   16.74254227   0.09941131
4352.00   16.93129158   0.09981325
4354.00   16.89886665   0.10075124
4356.00   16.83364296   0.10544352
4358.00   17.13772011   0.10853936
4360.00   16.78516388   0.10471162
4362.00   17.06423950   0.10163315
4364.00   17.05795097   0.10025258
4366.00   17.56841660   0.10114590
4368.00   17.47394180   0.10069341
4370.00   17.20497131   0.09992065
4372.00   17.30980492   0.10017532
4374.00   17.23060417   0.10009180
4376.00   16.91732407   0.09907462
4378.00   17.01722908   0.09916623
4380.00   16.82433701   0.09851590
4382.00   16.85126114   0.09844072
4384.00   16.61748886   0.09764138
4386.00   16.57706451   0.09746639
4388.00   16.46131516   0.09698252
4390.00   16.26241493   0.09623275
4392.00   16.05010986   0.09570336
4394.00   16.23616219   0.09595031
4396.00   16.05699921   0.09537510
4398.00   16.11176682   0.09552868
4400.00   16.37493134   0.09621676
4402.00   16.05599403   0.09504877
4404.00   16.08892250   0.09500572
4406.00   16.17463493   0.09505543
4408.00   16.10402679   0.09507637
4410.00   16.25054932   0.09537400
4412.00   16.31811905   0.09560487
4414.00   16.28013992   0.09550979
4416.00   16.10227966   0.09509463
4418.00   16.26038551   0.09543434
4420.00   16.57300568   0.09604686
4422.00   16.57193184   0.09589206
4424.00   16.68452072   0.09617395
4426.00   16.82491302   0.09646457
4428.00   17.00550079   0.09714443
4430.00   17.34979248   0.09789553
4432.00   17.52000999   0.09847832
4434.00   17.56730270   0.09857399
4436.00   17.86765671   0.09936059
4438.00   18.04287338   0.09971225
4440.00   18.19072914   0.10019285
4442.00   18.44439697   0.10072956
4444.00   18.29176140   0.10040159
4446.00   18.68781471   0.10134587
4448.00   18.89412689   0.10165513
4450.00   19.01359177   0.10210355
4452.00   19.21853638   0.10249678
4454.00   19.22238159   0.10254807
4456.00   19.62172890   0.10351376
4458.00   19.55603790   0.10349539
4460.00   19.76817703   0.10374478
4462.00   20.02247620   0.10435115
4464.00   20.13728142   0.10464840
4466.00   20.29469299   0.10496889
4468.00   20.40598869   0.10523044
4470.00   20.35126305   0.10493337
4472.00   20.46072578   0.10515092
4474.00   20.47048569   0.10505318
4476.00   20.78119659   0.10575970
4478.00   20.94497490   0.10605820
4480.00   20.66551971   0.10540899
4482.00   21.13366127   0.10651137
4484.00   20.91520309   0.10608666
4486.00   21.41415024   0.10715909
4488.00   21.34768867   0.10707976
4490.00   21.60699463   0.10772399
4492.00   21.64899826   0.10787383
4494.00   21.66609573   0.10790682
4496.00   21.93793488   0.10849345
4498.00   21.79776764   0.10809154
4500.00   21.71186447   0.10789798
4502.00   21.99187851   0.10826700
4504.00   21.95359993   0.10823085
4506.00   22.01552391   0.10826209
4508.00   22.18334389   0.10876832
4510.00   22.05106544   0.10839535
4512.00   21.78578949   0.10778458
4514.00   21.82406807   0.10765896
4516.00   21.70072937   0.10739473
4518.00   21.52539444   0.10691585
4520.00   21.26897621   0.10655246
4522.00   21.25405502   0.10647062
4524.00   21.22993851   0.10641289
4526.00   20.93974495   0.10567694
4528.00   20.85904121   0.10556296
4530.00   20.67451286   0.10494960
4532.00   20.87254906   0.10531294
4534.00   20.72125626   0.10498130
4536.00   20.66130257   0.10495281
4538.00   20.64188004   0.10477690
4540.00   20.64901924   0.10487377
4542.00   20.74685478   0.10493129
4544.00   20.82279587   0.10505047
4546.00   20.71493912   0.10457046
4548.00   20.79705811   0.10474603
4550.00   20.83510780   0.10487643
4552.00   20.83123970   0.10462238
4554.00   20.82429886   0.10468644
4556.00   20.80844688   0.10472840
4558.00   20.72962379   0.10443211
4560.00   20.83103943   0.10479461
4562.00   20.85646629   0.10473543
4564.00   20.48928642   0.10373137
4566.00   20.60938454   0.10399522
4568.00   20.51552200   0.10374514
4570.00   20.48141861   0.10356866
4572.00   20.39072800   0.10334703
4574.00   20.46048355   0.10350051
4576.00   20.31849098   0.10326083
4578.00   20.35356903   0.10312079
4580.00   20.41499901   0.10328434
4582.00   20.20929527   0.10274537
4584.00   20.34938431   0.10311922
4586.00   20.42838669   0.10325821
4588.00   20.50192451   0.10347157
4590.00   20.53008270   0.10340276
4592.00   20.35347557   0.10318372
4594.00   20.48306847   0.10339051
4596.00   20.29110336   0.10300062
4598.00   20.06827164   0.10226644
4600.00   19.90331459   0.10185657
4602.00   19.86165810   0.10187076
4604.00   19.57126236   0.10112333
4606.00   19.40191650   0.10080394
4608.00   19.23766327   0.10030888
4610.00   18.85491562   0.09943818
4612.00   18.44436646   0.09839323
4614.00   18.25119591   0.09779341
4616.00   18.02556038   0.09724639
4618.00   17.70927238   0.09639744
4620.00   17.45871925   0.09577268
4622.00   17.50925255   0.09568690
4624.00   17.12861061   0.09477624
4626.00   16.98089409   0.09442252
4628.00   16.70012093   0.09356107
4630.00   16.62360382   0.09336893
4632.00   16.47491837   0.09302881
4634.00   16.59345245   0.09327950
4636.00   16.40394974   0.09274177
4638.00   16.41711807   0.09273168
4640.00   16.36912727   0.09250668
4642.00   16.32641983   0.09247990
4644.00   16.21357918   0.09220167
4646.00   16.12105751   0.09189818
4648.00   16.39061928   0.09239791
4650.00   16.17142677   0.09177048
4652.00   16.17171860   0.09181915
4654.00   16.10863304   0.09158355
4656.00   16.30437469   0.09202086
4658.00   16.22224236   0.09182293
4660.00   16.25600433   0.09174731
4662.00   16.26931953   0.09183805
4664.00   16.19577408   0.09161950
4666.00   16.32824326   0.09198803
4668.00   16.28860664   0.09206723
4670.00   16.44604683   0.09242838
4672.00   16.26149368   0.09187306
4674.00   16.45084000   0.09218924
4676.00   16.25647354   0.09176983
4678.00   16.31151390   0.09178737
4680.00   16.53680992   0.09233448
4682.00   16.39574623   0.09184378
4684.00   16.52016068   0.09215026
4686.00   16.56737709   0.09210557
4688.00   16.39950180   0.09156708
4690.00   16.51591301   0.09194926
4692.00   16.45709038   0.09165146
4694.00   16.45849609   0.09170804
4696.00   16.55408096   0.09189387
4698.00   16.27521896   0.09122066
4700.00   16.20427322   0.09092179
4702.00   16.25778770   0.09094360
4704.00   16.09713936   0.09068414
4706.00   16.08558846   0.09055575
4708.00   15.65922165   0.08948220
4710.00   15.43717957   0.08870634
4712.00   15.34560204   0.08857856
4714.00   15.17136574   0.08799328
4716.00   15.11492920   0.08771362
4718.00   14.85042381   0.08708304
4720.00   14.73206425   0.08664236
4722.00   14.47797394   0.08591530
4724.00   14.37270927   0.08547904
4726.00   14.27533531   0.08521558
4728.00   14.35232162   0.08562564
4730.00   14.31623363   0.08553360
4732.00   14.28963661   0.08553358
4734.00   14.31313133   0.08568037
4736.00   14.29223251   0.08573686
4738.00   14.06548500   0.08522711
4740.00   14.31848145   0.08586873
4742.00   14.44236660   0.08636874
4744.00   14.42142296   0.08621121
4746.00   14.41978836   0.08576793
4748.00   14.56144714   0.08579322
4750.00   14.59311390   0.08588992
4752.00   14.71481609   0.08621701
4754.00   14.84502602   0.08645816
4756.00   14.88498020   0.08651027
4758.00   14.60287952   0.08571293
4760.00   14.84635353   0.08628009
4762.00   14.91457367   0.08642175
4764.00   15.06913567   0.08683044
4766.00   15.15435791   0.08703760
4768.00   15.15093708   0.08687880
4770.00   15.10654926   0.08669780
4772.00   15.04646492   0.08652996
4774.00   14.68147278   0.08549111
4776.00   14.77443409   0.08571050
4778.00   14.53154373   0.08527064
4780.00   14.21353722   0.08424537
4782.00   14.33891582   0.08437895
4784.00   14.03568077   0.08354937
4786.00   13.85749912   0.08290332
4788.00   13.66036606   0.08230118
4790.00   13.40000629   0.08162744
4792.00   13.11164188   0.08069833
4794.00   12.78248596   0.07972878
4796.00   12.60506535   0.07920226
4798.00   12.39565086   0.07847480
4800.00   12.01354408   0.07807150
4802.00   11.75472069   0.07656729
4804.00   11.71121597   0.07624616
4806.00   11.31090260   0.07508531
4808.00   11.21431065   0.07466181
4810.00   10.91068840   0.07379220
4812.00   10.77847862   0.07322000
4814.00   10.65141010   0.07276519
4816.00   10.48280144   0.07232185
4818.00   10.43455029   0.07215247
4820.00   10.42693520   0.07201883
4822.00   10.09826946   0.07089693
4824.00   10.02339649   0.07092317
4826.00   10.06782722   0.07079086
4828.00   9.74299908   0.06988553
4830.00   9.76235962   0.06988702
4832.00   9.72174168   0.06959487
4834.00   9.62034225   0.06933451
4836.00   9.41707802   0.06859864
4838.00   9.59629917   0.06917117
4840.00   9.61918545   0.06937082
4842.00   9.50326824   0.06885741
4844.00   9.53203106   0.06880748
4846.00   9.52001095   0.06878675
4848.00   9.54110050   0.06880143
4850.00   9.65247059   0.06904294
4852.00   9.60845566   0.06882212
4854.00   9.62070465   0.06890561
4856.00   9.70196342   0.06909230
4858.00   9.86526108   0.06942188
4860.00   9.84720135   0.06928990
4862.00   10.05115795   0.07014256
4864.00   10.05738831   0.07005828
4866.00   10.23567295   0.07047343
4868.00   10.29572582   0.07072972
4870.00   10.34668159   0.07088565
4872.00   10.40277195   0.07095098
4874.00   10.52685928   0.07128274
4876.00   10.56550598   0.07128674
4878.00   10.73976994   0.07166631
4880.00   10.74533367   0.07159584
4882.00   10.75874901   0.07160431
4884.00   10.74564362   0.07154621
4886.00   10.93863297   0.07198028
4888.00   11.04338551   0.07214058
4890.00   11.04753399   0.07215799
4892.00   10.94552994   0.07196285
4894.00   10.72649574   0.07126202
4896.00   11.08707237   0.07222526
4898.00   11.08596134   0.07227686
4900.00   11.02450562   0.07205869
4902.00   11.05761814   0.07221371
4904.00   11.17033672   0.07232938
4906.00   11.23563194   0.07247640
4908.00   11.12013721   0.07219003
4910.00   11.19264412   0.07236104
4912.00   11.34472752   0.07274244
4914.00   11.24476624   0.07237234
4916.00   11.48488426   0.07316080
4918.00   11.42505169   0.07291747
4920.00   11.47404957   0.07305901
4922.00   11.51534843   0.07320414
4924.00   11.52789211   0.07319429
4926.00   11.51172352   0.07298457
4928.00   11.70628548   0.07354023
4930.00   11.58987331   0.07315648
4932.00   11.55924988   0.07294909
4934.00   11.60951042   0.07311884
4936.00   11.59922600   0.07310209
4938.00   11.57441807   0.07291507
4940.00   11.52092934   0.07260186
4942.00   11.51554680   0.07257387
4944.00   11.60792637   0.07277653
4946.00   11.57260132   0.07272851
4948.00   11.51791573   0.07256967
4950.00   11.56419086   0.07282744
4952.00   11.60519314   0.07303730
4954.00   11.69211769   0.07308805
4956.00   11.61333656   0.07287049
4958.00   11.65044975   0.07298752
4960.00   11.56579971   0.07258154
4962.00   11.50284672   0.07262557
4964.00   11.80260277   0.07341810
4966.00   11.66359615   0.07317653
4968.00   11.89728451   0.07367000
4970.00   11.77641392   0.07361577
4972.00   11.81542015   0.07376985
4974.00   11.86350632   0.07399285
4976.00   11.93701553   0.07405152
4978.00   12.08084869   0.07473855
4980.00   11.94337654   0.07447154
4982.00   12.08131599   0.07484046
4984.00   11.98021030   0.07463846
4986.00   11.94128895   0.07440186
4988.00   11.97335339   0.07432936
4990.00   11.96871376   0.07414969
4992.00   12.09096146   0.07448810
4994.00   12.03002739   0.07415281
4996.00   11.80904484   0.07352959
4998.00   11.78958702   0.07341550
5000.00   11.95960808   0.07375402
5002.00   11.99201679   0.07373032
5004.00   11.93210793   0.07357729
5006.00   11.99594784   0.07362969
5008.00   11.88227749   0.07337606
5010.00   12.16475487   0.07411737
5012.00   12.10954094   0.07406744
5014.00   12.16045666   0.07420371
5016.00   12.22590160   0.07433622
5018.00   12.18109226   0.07441359
5020.00   12.35361576   0.07484615
5022.00   12.20301056   0.07435336
5024.00   12.55634117   0.07534081
5026.00   12.53368092   0.07521628
5028.00   12.61335754   0.07549879
5030.00   12.80520916   0.07610340
5032.00   12.80554485   0.07609568
5034.00   12.85616875   0.07619412
5036.00   12.95207596   0.07631963
5038.00   12.83896446   0.07605689
5040.00   12.88487148   0.07622138
5042.00   13.13155365   0.07692555
5044.00   13.15648937   0.07689680
5046.00   13.21338463   0.07721365
5048.00   13.17323685   0.07724267
5050.00   13.16261196   0.07727009
5052.00   13.27836704   0.07763854
5054.00   13.30216312   0.07764352
5056.00   13.35272694   0.07770731
5058.00   13.53024292   0.07821391
5060.00   13.32304478   0.07778543
5062.00   13.63794994   0.07861701
5064.00   13.68558598   0.07885634
5066.00   13.75938797   0.07917628
5068.00   13.78165531   0.07937981
5070.00   13.80852699   0.07940705
5072.00   13.67799854   0.07930938
5074.00   14.20354652   0.08056447
5076.00   14.15359688   0.08046043
5078.00   14.03773975   0.08034526
5080.00   14.22487164   0.08113515
5082.00   14.35463619   0.08190976
5084.00   14.19483471   0.08178298
5086.00   14.28279972   0.08187938
5088.00   14.07115173   0.08113944
5090.00   14.35956001   0.08162106
5092.00   14.31782246   0.08127376
5094.00   14.08216953   0.08068745
5096.00   14.09741592   0.08086140
5098.00   14.06198883   0.08094057
5100.00   13.84558868   0.08025697
5102.00   13.88629246   0.08017918
5104.00   13.78395081   0.07994451
5106.00   13.74202919   0.07984605
5108.00   13.63277245   0.07963297
5110.00   13.66273117   0.07983071
5112.00   13.45425701   0.07934257
5114.00   13.40440178   0.07932264
5116.00   13.35103321   0.07935792
5118.00   13.28424835   0.07905923
5120.00   13.32426262   0.07913309
5122.00   13.34445572   0.07916113
5124.00   13.18953419   0.07873946
5126.00   13.07241344   0.07850664
5128.00   13.14173412   0.07876521
5130.00   13.10920238   0.07878839
5132.00   13.12697697   0.07881500
5134.00   12.93320274   0.07847358
5136.00   13.03424644   0.07888369
5138.00   12.99411106   0.07888305
5140.00   12.92111015   0.07867563
5142.00   13.01089478   0.07907353
5144.00   13.05729485   0.07913443
5146.00   13.01727390   0.07922378
5148.00   13.19877720   0.07981119
5150.00   13.30925846   0.08019514
5152.00   13.18145847   0.08009308
5154.00   13.37809277   0.08059815
5156.00   13.50382710   0.08105376
5158.00   13.37543488   0.08081612
5160.00   13.56159782   0.08132131
5162.00   13.60558319   0.08139820
5164.00   13.75144672   0.08172715
5166.00   13.64615154   0.08158645
5168.00   13.81285858   0.08207230
5170.00   13.71673965   0.08195610
5172.00   13.87006664   0.08233880
5174.00   13.94257641   0.08269050
5176.00   13.96717644   0.08286903
5178.00   13.92921734   0.08304960
5180.00   13.85386848   0.08305386
5182.00   14.03413963   0.08353592
5184.00   13.90227699   0.08315791
5186.00   13.85654163   0.08309235
5188.00   14.01189518   0.08355596
5190.00   13.66242027   0.08252458
5192.00   13.43158531   0.08188859
5194.00   13.32969666   0.08180277
5196.00   12.98260021   0.08100200
5198.00   12.92504978   0.08125196
5200.00   12.78083897   0.08093416
5202.00   12.55091286   0.08034760
5204.00   12.39622688   0.08000293
5206.00   12.02960300   0.07904677
5208.00   12.04441261   0.07899706
5210.00   11.74974155   0.07846369
5212.00   11.53785133   0.07805965
5214.00   11.27663708   0.07758867
5216.00   11.31402206   0.07770899
5218.00   11.01588154   0.07697585
5220.00   10.94041824   0.07686464
5222.00   10.74119854   0.07629517
5224.00   10.58582973   0.07601026
5226.00   10.42020130   0.07541528
5228.00   10.47102833   0.07546243
5230.00   10.31833458   0.07515515
5232.00   10.10530281   0.07472170
5234.00   10.21725178   0.07520409
5236.00   9.93355179   0.07465594
5238.00   9.96579742   0.07478112
5240.00   9.84343338   0.07450055
5242.00   9.78635120   0.07450911
5244.00   9.85160351   0.07468516
5246.00   9.76896667   0.07452662
5248.00   9.58344364   0.07408320
5250.00   9.47275639   0.07382290
5252.00   9.55777073   0.07429004
5254.00   9.63212585   0.07464141
5256.00   9.66014004   0.07507109
5258.00   9.53923893   0.07499269
5260.00   9.52184868   0.07501734
5262.00   9.51691246   0.07515789
5264.00   9.55138588   0.07538711
5266.00   9.52794647   0.07545955
5268.00   9.73596668   0.07627494
5270.00   9.61549854   0.07612675
5272.00   9.55519867   0.07607430
5274.00   9.62667561   0.07660936
5276.00   9.55424976   0.07654092
5278.00   9.52046967   0.07654683
5280.00   9.69728851   0.07713659
5282.00   9.71401119   0.07742240
5284.00   9.57382870   0.07714526
5286.00   9.57130051   0.07712641
5288.00   9.69150352   0.07745602
5290.00   9.67960930   0.07759063
5292.00   9.79290676   0.07820290
5294.00   9.64747047   0.07787395
5296.00   9.65407181   0.07828618
5298.00   9.66436005   0.07842773
5300.00   9.60642147   0.07859723
5302.00   9.74170780   0.07934346
5304.00   9.55804634   0.07881831
5306.00   9.89087963   0.08013579
5308.00   9.98834991   0.08078717
5310.00   9.84516716   0.08055408
5312.00   9.97830391   0.08118713
5314.00   10.18027782   0.08195270
5316.00   10.09575462   0.08189790
5318.00   9.99038029   0.08166047
5320.00   10.07409286   0.08218817
5322.00   10.17000103   0.08258388
5324.00   10.08412457   0.08233585
5326.00   10.10143757   0.08261690
5328.00   10.36665058   0.08382641
5330.00   10.12269783   0.08347508
5332.00   10.25458145   0.08378965
5334.00   10.25732899   0.08416449
5336.00   10.16429806   0.08407678
5338.00   10.20871544   0.08436044
5340.00   10.23005486   0.08460802
5342.00   10.24799347   0.08483049
5344.00   10.14640331   0.08470566
5346.00   10.17487049   0.08502614
5348.00   10.00653839   0.08442976
5350.00   10.34097004   0.08577257
5352.00   10.22594070   0.08554009
5354.00   10.13307858   0.08555837
5356.00   10.21850491   0.08593995
5358.00   10.15059662   0.08620433
5360.00   10.10749817   0.08604394
5362.00   9.92840195   0.08566968
5364.00   10.11137676   0.08653128
5366.00   9.80374241   0.08557633
5368.00   9.98441124   0.08608198
5370.00   9.60413456   0.08521110
5372.00   9.71858501   0.08566558
5374.00   9.70676517   0.08630639
5376.00   9.67056847   0.08621384
5378.00   9.72927570   0.08653658
5380.00   9.64957523   0.08662783
5382.00   9.63062668   0.08676928
5384.00   9.61017227   0.08660558
5386.00   9.39930248   0.08618543
5388.00   9.08694744   0.08545834
5390.00   9.05859089   0.08532908
5392.00   9.24416828   0.08638363
5394.00   9.10701370   0.08574566
5396.00   8.95903301   0.08582254
5398.00   8.99528790   0.08590501
5400.00   8.89971256   0.08581889
5402.00   9.00513077   0.04433572
5404.00   8.68715191   0.04348988
5406.00   8.35130596   0.04641737
5408.00   8.27983570   0.04571523
5410.00   8.44502354   0.04087456
5412.00   8.45321369   0.04429227
5414.00   8.27366924   0.04756962
5416.00   8.26737595   0.04243603
5418.00   8.20167732   0.03732304
5420.00   8.11563969   0.03984234
5422.00   8.07858372   0.04306832
5424.00   8.00603962   0.04082931
5426.00   7.75253487   0.04183837
5428.00   7.70489836   0.04045735
5430.00   7.91945171   0.03672348
5432.00   7.98554134   0.03591457
5434.00   7.88008881   0.03789090
5436.00   7.91299772   0.04014741
5438.00   8.13797474   0.04105138
5440.00   7.97972393   0.03966118
5442.00   7.86393547   0.04071502
5444.00   8.05429554   0.03847473
5446.00   8.18783092   0.03605838
5448.00   8.21238422   0.03797828
5450.00   8.28417969   0.04008868
5452.00   8.38790703   0.03764955
5454.00   8.18435001   0.03915755
5456.00   8.49441719   0.03843262
5458.00   8.80227661   0.03848426
5460.00   8.78699970   0.04385773
5462.00   8.77739048   0.04729286
5464.00   9.00051880   0.04424880
5466.00   9.24813652   0.03800350
5468.00   9.38399029   0.03711988
5470.00   9.38826275   0.03905394
5472.00   9.72665501   0.04208186
5474.00   9.87580776   0.04027796
5476.00   9.83844471   0.03721684
5478.00   9.85417366   0.03826154
5480.00   9.93076611   0.04233666
5482.00   9.93013000   0.04706333
5484.00   10.17438507   0.04057755
5486.00   10.07982349   0.03848664
5488.00   10.03447723   0.03976277
5490.00   10.28350735   0.04387071
5492.00   10.55223846   0.04585880
5494.00   10.46128845   0.03952194
5496.00   10.44733524   0.03906946
5498.00   10.59387684   0.03727739
5500.00   10.76499653   0.03806560
5502.00   10.78386402   0.04213784
5504.00   10.74025631   0.04461978
5506.00   10.79378700   0.04316361
5508.00   10.93866158   0.04156029
5510.00   11.13321590   0.04492811
5512.00   11.14729786   0.04071907
5514.00   11.00116539   0.04026342
5516.00   11.16744804   0.04152230
5518.00   11.30511093   0.04036900
5520.00   11.12777424   0.03935011
5522.00   11.20929718   0.04440956
5524.00   11.51236248   0.04553172
5526.00   11.33336735   0.04381755
5528.00   10.90365982   0.04492325
5530.00   10.75393677   0.04364074
5532.00   10.88719845   0.03992616
5534.00   10.93537712   0.03956697
5536.00   10.79389954   0.04325661
5538.00   10.77425766   0.03947942
5540.00   10.85440540   0.03679452
5542.00   10.94544411   0.03645383
5544.00   10.97737312   0.03650915
5546.00   11.03997517   0.03658447
5548.00   11.11477089   0.04036380
5550.00   10.92837429   0.04907217
5552.00   10.92014408   0.04560023
5554.00   11.10972595   0.03888727
5556.00   11.22618389   0.03956887
5558.00   11.58861542   0.04460221
5560.00   11.92902279   0.04656216
5562.00   11.78684616   0.04401904
5564.00   11.62834358   0.04208485
5566.00   11.60741043   0.04437310
5568.00   11.83085537   0.04410173
5570.00   11.90761089   0.04484998
5572.00   12.22973919   0.05523687
5574.00   12.38438797   0.06253219
5576.00   11.82581234   0.05458019
5578.00   11.77112007   0.04415208
5580.00   12.24429703   0.05209329
5582.00   12.21218300   0.04816553
5584.00   12.00873089   0.04508461
5586.00   11.96808720   0.04301865
5588.00   12.26535225   0.04680071
5590.00   12.66485977   0.05687125
5592.00   12.38660526   0.04889722
5594.00   12.18921375   0.04455498
5596.00   12.30588055   0.04503742
5598.00   12.14154911   0.04548535
5600.00   12.01342106   0.04502534
5602.00   12.32045937   0.04539184
5604.00   12.77152348   0.04608090
5606.00   12.72000504   0.04207065
5608.00   12.81518173   0.04062076
5610.00   13.01255798   0.04423425
5612.00   12.90292931   0.04289683
5614.00   12.90777302   0.04939814
5616.00   12.97030640   0.05751809
5618.00   12.48379517   0.04875247
5620.00   12.44630432   0.04502821
5622.00   13.03871059   0.04495401
5624.00   12.95794296   0.04041970
5626.00   12.80992603   0.04177308
5628.00   12.79518223   0.04352230
5630.00   12.76594448   0.04640759
5632.00   12.80593681   0.05741660
5634.00   13.13909531   0.04776395
5636.00   12.91431236   0.03920288
5638.00   12.83748913   0.03829437
5640.00   13.01736259   0.04272903
5642.00   13.22262287   0.05305694
5644.00   13.13224888   0.05793570
5646.00   12.69013405   0.04137683
5648.00   12.50079250   0.04283033
5650.00   12.66839600   0.04070248
5652.00   13.00789928   0.04490942
5654.00   12.96127701   0.04975041
5656.00   12.76304626   0.04667211
5658.00   12.73123646   0.03874166
5660.00   12.52995491   0.04385405
5662.00   12.55651951   0.04364744
5664.00   12.67440224   0.04091235
5666.00   12.65268517   0.03775874
5668.00   12.53602028   0.03657717
5670.00   12.46454430   0.03707353
5672.00   12.45647430   0.03737977
5674.00   12.36404896   0.03721560
5676.00   12.15766430   0.03811610
5678.00   12.12276745   0.03655012
5680.00   11.89692688   0.03585823
5682.00   11.70072937   0.03577608
5684.00   11.61794949   0.03611026
5686.00   11.56547451   0.03748931
5688.00   11.61599922   0.03910276
5690.00   11.39696312   0.03619478
5692.00   11.14041328   0.03751247
5694.00   11.03065014   0.03993360
5696.00   11.00173759   0.03689028
5698.00   10.87495136   0.03405563
5700.00   10.60841751   0.04001647
5702.00   10.42533493   0.04292345
5704.00   10.59397602   0.03439876
5706.00   10.62331676   0.03575109
5708.00   10.47482300   0.03573254
5710.00   10.35112667   0.03410856
5712.00   10.30258465   0.03401506
5714.00   10.22792721   0.03427910
5716.00   10.18682194   0.03205823
5718.00   10.02475643   0.03125899
5720.00   10.08865643   0.03401927
5722.00   10.25978470   0.03828705
5724.00   10.16162586   0.03973854
5726.00   9.86200905   0.03722015
5728.00   9.73512173   0.03403103
5730.00   9.59099483   0.03548951
5732.00   9.53190231   0.03670901
5734.00   9.57942104   0.03415857
5736.00   9.62874508   0.03622266
5738.00   9.68033504   0.03893185
5740.00   9.69590473   0.03784079
5742.00   9.59437466   0.03517801
5744.00   9.48351955   0.03340306
5746.00   9.54432201   0.03429058
5748.00   9.76281643   0.03558348
5750.00   9.63843441   0.03663754
5752.00   9.46367073   0.03599968
5754.00   9.52394581   0.03658615
5756.00   9.53958702   0.04118750
5758.00   9.43387508   0.03826985
5760.00   9.30745411   0.03470981
5762.00   9.30713558   0.03438624
5764.00   9.58355618   0.03531226
5766.00   9.70149136   0.03773325
5768.00   9.60380173   0.04040221
5770.00   9.83621502   0.03965979
5772.00   9.82018661   0.03694231
5774.00   9.23612309   0.04369366
5776.00   9.39138699   0.04190189
5778.00   9.80323792   0.03628084
5780.00   9.73438454   0.03879370
5782.00   9.39637661   0.04519406
5784.00   9.69142723   0.04043407
5786.00   10.04330635   0.03647719
5788.00   9.52882576   0.04521291
5790.00   9.48999310   0.04090991
5792.00   9.95160484   0.03449664
5794.00   10.32772923   0.03567773
5796.00   10.34221554   0.03881989
5798.00   10.31927586   0.03745713
5800.00   10.07717800   0.03737972
5802.00   10.18348694   0.03597682
5804.00   9.98899174   0.04256727
5806.00   9.86517620   0.04302203
5808.00   10.10774994   0.03743444
5810.00   10.39872837   0.03854781
5812.00   10.23232555   0.04694024
5814.00   10.36432648   0.04095587
5816.00   10.57580185   0.03565070
5818.00   10.60064411   0.03547406
5820.00   10.67459011   0.03750845
5822.00   10.69318676   0.04203804
5824.00   10.55778599   0.04659430
5826.00   10.76456356   0.04216471
5828.00   10.38197327   0.05002685
5830.00   10.49982071   0.04450549
5832.00   10.42920494   0.04420720
5834.00   10.25913239   0.04850283
5836.00   10.44210911   0.04748883
5838.00   10.90100574   0.03956359
5840.00   10.78298187   0.03834630
5842.00   10.92480755   0.03510616
5844.00   10.62477303   0.04386765
5846.00   10.92413139   0.04508850
5848.00   11.35897923   0.04192884
5850.00   11.47081852   0.04090447
5852.00   11.47011757   0.04118475
5854.00   11.37201595   0.03937818
5856.00   11.56306076   0.03973432
5858.00   11.36836433   0.04027979
5860.00   11.34772491   0.03627734
5862.00   11.60240841   0.03550335
5864.00   11.84699345   0.03968088
5866.00   11.88383579   0.04056389
5868.00   11.87990093   0.03989011
5870.00   11.61566448   0.03464038
5872.00   11.88483047   0.03616405
5874.00   12.10454845   0.03834824
5876.00   12.06440735   0.04124842
5878.00   11.93405819   0.04298624
5880.00   11.90951061   0.04047729
5882.00   12.09019470   0.04440630
5884.00   12.30235863   0.04272483
5886.00   12.24845695   0.04505540
5888.00   11.76353645   0.05400787
5890.00   11.58032990   0.05280182
5892.00   11.88482475   0.04106234
5894.00   11.93961048   0.04295973
5896.00   12.11978245   0.03982286
5898.00   12.42098427   0.04053448
5900.00   12.63719940   0.04614177
5902.00   12.60992432   0.04614407
5904.00   12.48643303   0.04361216
5906.00   12.35160732   0.04628826
5908.00   12.16098785   0.05008553
5910.00   12.56755447   0.03662833
5912.00   12.78112984   0.03486671
5914.00   12.65509224   0.03479918
5916.00   12.54528236   0.03499665
5918.00   12.68598175   0.03517748
5920.00   12.89886570   0.03548613
5922.00   12.86280537   0.03709801
5924.00   12.90828228   0.03750741
5926.00   12.71223831   0.04176288
5928.00   12.82736492   0.03963634
5930.00   12.81248379   0.03887628
5932.00   12.76955986   0.03875128
5934.00   12.94771957   0.03515240
5936.00   12.94709682   0.03478028
5938.00   12.89150047   0.03551794
5940.00   12.63458633   0.03926542
5942.00   12.54368687   0.03936517
5944.00   12.43864918   0.03932612
5946.00   12.35490704   0.03866111
5948.00   12.38182259   0.03534659
5950.00   12.22957325   0.03475055
5952.00   12.06969261   0.03887450
5954.00   12.14462280   0.03855995
5956.00   12.01431274   0.03644269
5958.00   11.97280693   0.04919788
5960.00   12.10697651   0.05537568
5962.00   12.08970642   0.03946678
5964.00   11.74836731   0.03430822
5966.00   11.52795982   0.04027696
5968.00   11.18254375   0.04311849
5970.00   11.36646080   0.04721406
5972.00   11.38348675   0.04516242
5974.00   11.03352356   0.03789278
5976.00   10.92487431   0.03804651
5978.00   11.08726215   0.04650811
5980.00   10.61876774   0.04057641
5982.00   10.40744400   0.04026261
5984.00   10.31763172   0.04420949
5986.00   10.09027386   0.04524464
5988.00   9.82311630   0.04201703
5990.00   9.71808243   0.03878287
5992.00   9.45192623   0.03780825
5994.00   9.44079208   0.03804857
5996.00   9.22301483   0.03799025
5998.00   9.03504372   0.04077318
6000.00   8.80930138   0.03978937
6002.00   8.57286072   0.03567166
6004.00   8.51138973   0.03801165
6006.00   8.42390347   0.04162134
6008.00   8.28694916   0.04217767
6010.00   8.07799530   0.03957807
6012.00   7.76952171   0.03211133
6014.00   7.61615276   0.02956817
6016.00   7.60307169   0.03396376
6018.00   7.39977121   0.03329436
6020.00   7.16187716   0.03364946
6022.00   6.77672338   0.03258425
6024.00   6.81629133   0.03239105
6026.00   6.60574055   0.03228667
6028.00   6.35024071   0.03121658
6030.00   6.39190865   0.03019306
6032.00   6.39410353   0.03051130
6034.00   6.12012815   0.02652464
6036.00   5.92412663   0.02885412
6038.00   5.71576357   0.03077688
6040.00   5.69039631   0.02935055
6042.00   5.72366571   0.02595581
6044.00   5.61691093   0.02583494
6046.00   5.49240971   0.03068555
6048.00   5.74746704   0.02965515
6050.00   5.68435812   0.03006090
6052.00   5.51848793   0.03231911
6054.00   5.37265158   0.03046331
6056.00   5.26115847   0.02621159
6058.00   5.22226238   0.02744725
6060.00   5.28937960   0.03341295
6062.00   4.91226053   0.02947268
6064.00   4.89706707   0.02970974
6066.00   5.10826635   0.03254302
6068.00   5.12787676   0.03335681
6070.00   4.83083582   0.03075533
6072.00   4.54321194   0.02705476
6074.00   4.64284134   0.02631968
6076.00   4.68987083   0.02762604
6078.00   4.64221191   0.02773985
6080.00   4.69210482   0.02818400
6082.00   4.69007587   0.02732261
6084.00   4.59310865   0.02449353
6086.00   4.54960966   0.02316621
6088.00   4.63651085   0.02774343
6090.00   4.56237221   0.02678639
6092.00   4.49117231   0.02596714
6094.00   4.52646446   0.02725770
6096.00   4.44373369   0.02804588
6098.00   4.32299948   0.02711124
6100.00   4.36479998   0.02554449
6102.00   4.33364677   0.02409793
6104.00   4.48963070   0.02375130
6106.00   4.73831415   0.02971042
6108.00   4.65087843   0.02704279
6110.00   4.61687469   0.02529023
6112.00   4.74095774   0.02872322
6114.00   4.66610336   0.02888398
6116.00   4.45926476   0.02695877
6118.00   4.76383257   0.02426278
6120.00   5.03984642   0.03091924
6122.00   5.05338383   0.03066912
6124.00   4.90882206   0.02681184
6126.00   4.89395189   0.02469293
6128.00   5.10027647   0.02387018
6130.00   5.16246510   0.02783776
6132.00   5.11838627   0.02812587
6134.00   5.47529984   0.03256471
6136.00   5.32898617   0.03075862
6138.00   5.20611477   0.02567315
6140.00   5.53265142   0.02739312
6142.00   5.74650717   0.03397025
6144.00   5.59480715   0.03055306
6146.00   5.94337749   0.02988332
6148.00   5.86096478   0.02895447
6150.00   5.95966434   0.02996789
6152.00   6.09607697   0.03038098
6154.00   6.13747072   0.02952716
6156.00   6.40303564   0.03067205
6158.00   6.47720671   0.03168094
6160.00   6.96547222   0.03524676
6162.00   7.01344633   0.03177370
6164.00   7.10761213   0.03340627
6166.00   7.22565508   0.03460651
6168.00   7.23780966   0.03201699
6170.00   7.38504696   0.03599372
6172.00   7.49403334   0.03604652
6174.00   7.48481798   0.03449054
6176.00   7.71174097   0.03412990
6178.00   7.83158493   0.03462292
6180.00   7.96728039   0.03298080
6182.00   8.27031517   0.02955813
6184.00   8.43369293   0.02955826
6186.00   8.53884506   0.02780664
6188.00   8.67435932   0.03014505
6190.00   8.69650745   0.03229311
6192.00   8.76479244   0.03193906
6194.00   8.83534336   0.03177064
6196.00   8.92557430   0.03283678
6198.00   9.27616978   0.03098997
6200.00   9.33836746   0.03182582
6202.00   9.25229073   0.03504146
6204.00   9.37653732   0.03503393
6206.00   9.54179859   0.03285573
6208.00   9.56701183   0.03041659
6210.00   9.54009342   0.02890401
6212.00   9.67671967   0.02924718
6214.00   9.76906872   0.03065511
6216.00   9.85286140   0.03564161
6218.00   10.06347561   0.03443049
6220.00   10.15289593   0.03080907
6222.00   10.17136955   0.02950453
6224.00   10.30924225   0.03181933
6226.00   10.37853527   0.03713147
6228.00   10.42617130   0.03601735
6230.00   10.59601402   0.03374868
6232.00   10.79229736   0.03160650
6234.00   10.80221272   0.03088278
6236.00   10.83115959   0.03314213
6238.00   11.13291359   0.03647356
6240.00   11.30923462   0.03518521
6242.00   11.38905144   0.03477120
6244.00   11.32799721   0.03260675
6246.00   11.25819206   0.03120756
6248.00   11.40240288   0.03136511
6250.00   11.52511024   0.03487386
6252.00   11.38872051   0.03896698
6254.00   11.64148426   0.03243196
6256.00   11.81698418   0.03185498
6258.00   11.85916519   0.03513944
6260.00   11.81760979   0.03861762
6262.00   11.76181602   0.03934548
6264.00   11.91945744   0.03868232
6266.00   12.29876900   0.03846608
6268.00   12.13799477   0.03258726
6270.00   12.21547508   0.03279191
6272.00   12.11973000   0.04143279
6274.00   12.21736526   0.04294516
6276.00   12.09092808   0.04082146
6278.00   11.89356232   0.03960376
6280.00   12.30493736   0.03671746
6282.00   12.33495522   0.03596339
6284.00   12.31747627   0.03332242
6286.00   12.31809235   0.03812034
6288.00   12.18091965   0.04888077
6290.00   12.14376259   0.04867905
6292.00   12.25447369   0.03588111
6294.00   12.22535610   0.03358049
6296.00   12.37753391   0.04111339
6298.00   12.37607861   0.03794394
6300.00   12.46161842   0.03593326
6302.00   12.52714825   0.03982773
6304.00   12.51858330   0.04008168
6306.00   12.52008820   0.03373352
6308.00   12.60086727   0.03300373
6310.00   12.55095387   0.03546074
6312.00   12.46985531   0.03358848
6314.00   12.49852371   0.03791062
6316.00   12.42184734   0.04093883
6318.00   12.40792561   0.03944191
6320.00   12.51976299   0.03751808
6322.00   12.42146397   0.03971629
6324.00   12.63070965   0.03449033
6326.00   12.72827244   0.03402479
6328.00   12.80761814   0.03737263
6330.00   12.72715473   0.04067671
6332.00   12.59605122   0.04216190
6334.00   12.61864853   0.04093024
6336.00   12.74042130   0.03594353
6338.00   12.75992775   0.03301283
6340.00   12.47619915   0.03793035
6342.00   12.31235981   0.04128422
6344.00   12.45833206   0.03961554
6346.00   12.67868137   0.03490146
6348.00   12.65422630   0.03366211
6350.00   12.44450092   0.03957436
6352.00   12.45715046   0.04076095
6354.00   12.32642746   0.04508369
6356.00   12.33966923   0.04471536
6358.00   12.34616470   0.04466714
6360.00   12.29337025   0.04809285
6362.00   12.36359024   0.04978754
6364.00   12.66687393   0.04327932
6366.00   12.98907948   0.04273229
6368.00   12.83462429   0.03669390
6370.00   12.85472488   0.03659561
6372.00   12.69579792   0.04289691
6374.00   12.53304005   0.04657168
6376.00   12.73915100   0.04491770
6378.00   12.44262314   0.04640367
6380.00   12.40285873   0.04403688
6382.00   12.36950016   0.04134900
6384.00   12.33808994   0.03765279
6386.00   12.59777164   0.03846855
6388.00   12.87537861   0.04096080
6390.00   12.69214916   0.03823072
6392.00   12.57992363   0.03728677
6394.00   12.68327236   0.03887868
6396.00   12.71850586   0.03749613
6398.00   12.46059799   0.04146280
6400.00   12.44192123   0.04501815
6402.00   12.65200520   0.04403114
6404.00   12.52842140   0.04228546
6406.00   12.55572128   0.04321374
6408.00   12.67889118   0.04288581
6410.00   12.53142738   0.03996909
6412.00   12.34237003   0.03532837
6414.00   12.37118053   0.03384133
6416.00   12.49525547   0.03597773
6418.00   12.37963200   0.03584741
6420.00   12.17614174   0.03243283
6422.00   12.39359379   0.03367296
6424.00   12.54470634   0.03374256
6426.00   12.42896366   0.03305306
6428.00   12.32115459   0.03566763
6430.00   12.41210461   0.03940208
6432.00   12.44683170   0.03938912
6434.00   12.13648415   0.04461211
6436.00   11.98464394   0.04148229
6438.00   12.19753170   0.03217806
6440.00   12.22725201   0.03577970
6442.00   12.00694084   0.04316641
6444.00   11.95240593   0.04143427
6446.00   12.24060345   0.03566384
6448.00   12.08159733   0.03909830
6450.00   11.97898579   0.03572081
6452.00   12.20104027   0.03427188
6454.00   12.29532719   0.03456126
6456.00   12.16567707   0.03397082
6458.00   12.06417179   0.03360458
6460.00   12.07733440   0.03676798
6462.00   11.98123169   0.03612534
6464.00   11.81770420   0.03455070
6466.00   11.88210678   0.03554242
6468.00   11.92927933   0.03538709
6470.00   11.76371288   0.03403023
6472.00   11.55146122   0.03478168
6474.00   11.61567497   0.03710723
6476.00   11.67841530   0.03295746
6478.00   11.63215733   0.03192038
6480.00   11.72618675   0.03556288
6482.00   11.81354713   0.03732106
6484.00   11.64026642   0.03483316
6486.00   11.34440804   0.03157664
6488.00   11.47240257   0.03256888
6490.00   11.50477409   0.03174937
6492.00   11.31815243   0.03320089
6494.00   11.31582832   0.03300539
6496.00   11.36201668   0.03317647
6498.00   11.33196640   0.03536500
6500.00   11.28255081   0.03724676
6502.00   11.22441769   0.03547922
6504.00   11.29607201   0.03476124
6506.00   11.47636795   0.03777110
6508.00   11.56320190   0.03877238
6510.00   11.47618389   0.03849001
6512.00   11.28584385   0.03780415
6514.00   11.07145500   0.03587326
6516.00   10.80053425   0.03374341
6518.00   10.84853554   0.03508925
6520.00   10.95115376   0.03183784
6522.00   10.92097473   0.03109740
6524.00   10.86234093   0.03181431
6526.00   10.97806263   0.03481596
6528.00   11.20480919   0.04204061
6530.00   11.06419563   0.04586316
6532.00   10.85086918   0.03423860
6534.00   10.93211555   0.03295261
6536.00   11.05026817   0.03672462
6538.00   10.98671150   0.03639622
6540.00   10.83448696   0.03309784
6542.00   10.82179070   0.03322568
6544.00   10.85831928   0.03256600
6546.00   10.85443878   0.03024343
6548.00   10.86448574   0.03012427
6550.00   10.69231701   0.03369783
6552.00   10.77975464   0.03734020
6554.00   11.09693336   0.04044453
6556.00   11.00656986   0.04350812
6558.00   10.99819374   0.03784626
6560.00   10.81144047   0.03177712
6562.00   10.66030121   0.03447252
6564.00   10.57326984   0.03644939
6566.00   10.58459187   0.03348117
6568.00   10.64718151   0.02911449
6570.00   10.64505768   0.03068932
6572.00   10.66561031   0.03845035
6574.00   10.82159042   0.04648105
6576.00   10.70036793   0.03754979
6578.00   10.52509880   0.02974809
6580.00   10.45527649   0.03020546
6582.00   10.50883007   0.03145616
6584.00   10.62827015   0.03558176
6586.00   10.41786289   0.03253943
6588.00   10.37424564   0.03105393
6590.00   10.39000607   0.03137793
6592.00   10.27668762   0.03343869
6594.00   10.20870972   0.03302315
6596.00   10.35851860   0.03092938
6598.00   10.49938774   0.03545873
6600.00   10.53601074   0.03717081
6602.00   10.36760235   0.03166178
6604.00   10.42719460   0.03623721
6606.00   10.40477276   0.03586407
6608.00   10.30511665   0.03277576
6610.00   10.27955914   0.03625083
6612.00   10.11160946   0.03453927
6614.00   10.15310955   0.02984726
6616.00   10.15682316   0.03346763
6618.00   10.00811291   0.03200869
6620.00   9.97337151   0.02856344
6622.00   10.06888103   0.03016492
6624.00   10.07941723   0.03425850
6626.00   9.98582172   0.03197263
6628.00   9.85008907   0.03042596
6630.00   9.83280945   0.02855269
6632.00   9.89512253   0.03195572
6634.00   9.94470406   0.03262395
6636.00   9.89364052   0.03060022
6638.00   9.79061985   0.03142318
6640.00   9.85147190   0.02994725
6642.00   9.93477726   0.02823279
6644.00   9.81653595   0.02745409
6646.00   9.96738911   0.03160969
6648.00   10.11824989   0.03268480
6650.00   9.95531559   0.03105427
6652.00   9.65398407   0.03397002
6654.00   9.66586304   0.03765240
6656.00   9.77216530   0.03349623
6658.00   10.01171780   0.03287111
6660.00   9.94721508   0.03587719
6662.00   9.78212833   0.03614248
6664.00   9.78924179   0.03215196
6666.00   9.87775993   0.02857339
6668.00   9.83540916   0.02816431
6670.00   9.74009609   0.02792707
6672.00   9.77292824   0.02897054
6674.00   9.82160091   0.03060901
6676.00   9.78193951   0.03065968
6678.00   9.71327305   0.02890631
6680.00   9.73313808   0.02777985
6682.00   9.73535347   0.02879974
6684.00   9.90145302   0.03611810
6686.00   9.83741951   0.03577081
6688.00   9.78476715   0.03184988
6690.00   9.75753403   0.03186651
6692.00   9.60064316   0.03398368
6694.00   9.36503792   0.02995500
6696.00   9.53654575   0.02769836
6698.00   9.48974800   0.02714194
6700.00   9.40329266   0.02976291
6702.00   9.43136024   0.03267886
6704.00   9.57076645   0.03251879
6706.00   9.65476131   0.02995956
6708.00   9.54630184   0.02933218
6710.00   9.43776512   0.02752564
6712.00   9.49310493   0.02988089
6714.00   9.48015785   0.03160908
6716.00   9.43303680   0.02958795
6718.00   9.41334629   0.02747544
6720.00   9.41872215   0.02897320
6722.00   9.42429829   0.03024256
6724.00   9.51408005   0.03016485
6726.00   9.53916645   0.03037034
6728.00   9.56886578   0.03039705
6730.00   9.58797169   0.03072475
6732.00   9.48775482   0.03293438
6734.00   9.33822155   0.03529576
6736.00   9.41434193   0.03311642
6738.00   9.36727238   0.02960873
6740.00   9.34704590   0.03210191
6742.00   9.39153957   0.03155462
6744.00   9.45662498   0.03209886
6746.00   9.45051289   0.03362407
6748.00   9.44802856   0.03248315
6750.00   9.67449379   0.03043442
6752.00   9.58250427   0.03154754
6754.00   9.46730709   0.03272793
6756.00   9.47152805   0.03123333
6758.00   9.62667274   0.03026543
6760.00   9.70816898   0.03071297
6762.00   9.55022430   0.03025384
6764.00   9.39848232   0.02940444
6766.00   9.38812065   0.03375824
6768.00   9.50341415   0.03010137
6770.00   9.56769562   0.02922385
6772.00   9.51959324   0.03034364
6774.00   9.44769955   0.03131413
6776.00   9.45879936   0.03275477
6778.00   9.49851227   0.03334269
6780.00   9.23915863   0.04540036
6782.00   9.27635288   0.03878494
6784.00   9.37568665   0.03415640
6786.00   9.22474098   0.04043495
6788.00   9.11142635   0.04205871
6790.00   9.39812088   0.02957280
6792.00   9.41822529   0.03179223
6794.00   9.42858315   0.03048851
6796.00   9.43240070   0.03012245
6798.00   9.57752514   0.03231595
6800.00   9.67730236   0.03251348
6802.00   9.53632736   0.03146174
6804.00   9.29957962   0.03301310
6806.00   9.40731716   0.02894739
6808.00   9.30225658   0.02761618
6810.00   9.41013622   0.02957448
6812.00   9.38728237   0.02931970
6814.00   9.35342979   0.02838155
6816.00   9.34606075   0.03016161
6818.00   9.17811203   0.03276699
6820.00   9.28139687   0.03030730
6822.00   9.06191921   0.03222619
6824.00   9.20802212   0.03243869
6826.00   9.13647842   0.04010609
6828.00   8.89690781   0.04273398
6830.00   8.86883640   0.03702584
6832.00   9.05793953   0.03626068
6834.00   9.14935493   0.03220271
6836.00   9.11980820   0.02864115
6838.00   8.94884109   0.03028835
6840.00   8.81574726   0.03345305
6842.00   8.84139347   0.03166403
6844.00   8.87601662   0.03045623
6846.00   8.68709469   0.04066918
6848.00   8.63764763   0.03908130
6850.00   8.83271980   0.03016753
6852.00   8.93878746   0.02649539
6854.00   8.86746597   0.02685112
6856.00   8.69799042   0.02872192
6858.00   8.68658066   0.03117375
6860.00   9.02188492   0.03107676
6862.00   9.10852146   0.02841925
6864.00   8.11406136   0.02887520
#6866.00   6.78328705   0.02855761
#6868.00   5.98811913   0.02652037
#6870.00   5.93521881   0.02437626
#6872.00   6.31304169   0.02392418
#6874.00   6.90443087   0.02444939
#6876.00   7.75771618   0.02551179
#6878.00   8.00338936   0.02813115
#6880.00   7.95554304   0.03074341
6882.00   8.00572872   0.03109213
6884.00   8.22970009   0.03008906
6886.00   8.35013676   0.02974890
6888.00   8.06780720   0.02935582
6890.00   7.56516457   0.02933431
6892.00   7.54647589   0.02855638
6894.00   7.72688627   0.02662659
6896.00   7.83732700   0.02686823
6898.00   7.81178713   0.02792151
6900.00   7.76565790   0.02641214
6902.00   7.80841684   0.02493694
6904.00   7.74098063   0.02504964
6906.00   7.67049265   0.02705269
6908.00   7.68996286   0.02889076
6910.00   7.89487743   0.02778959
6912.00   8.08894634   0.02617414
6914.00   8.02610588   0.02820662
6916.00   7.92023802   0.02954617
6918.00   8.09139919   0.02572870
6920.00   8.14726353   0.02615864
6922.00   8.13276958   0.02734588
6924.00   8.13360405   0.02700176
6926.00   8.09873104   0.02638211
6928.00   7.98922491   0.02690285
6930.00   8.05369186   0.02568297
6932.00   8.00154686   0.02731778
6934.00   8.00906754   0.02682400
6936.00   8.07877159   0.02559771
6938.00   8.08403301   0.02536251
6940.00   8.06978703   0.02644902
6942.00   8.13910198   0.02722798
6944.00   7.96499443   0.02496260
6946.00   7.91514254   0.02503733
6948.00   8.01086807   0.02521826
6950.00   8.10099983   0.02619947
6952.00   8.16615105   0.02878398
6954.00   8.14492035   0.02993637
6956.00   7.98627090   0.02820440
6958.00   8.08393669   0.03535530
6960.00   7.78931379   0.02793665
6962.00   7.88457680   0.02476170
6964.00   8.09817886   0.02894878
6966.00   8.14458084   0.03166500
6968.00   8.06040096   0.02913724
6970.00   8.04324341   0.02520291
6972.00   8.02263737   0.02528380
6974.00   8.04058456   0.02992894
6976.00   7.91979980   0.02904628
6978.00   7.83471394   0.02611786
6980.00   7.81422043   0.02502078
6982.00   7.77451992   0.02540782
6984.00   7.72101116   0.02461878
6986.00   7.76007843   0.02473446
6988.00   7.70554447   0.02464292
6990.00   7.68360662   0.02707477
6992.00   7.72022963   0.02811191
6994.00   7.73079062   0.02654163
6996.00   7.69174767   0.02448546
6998.00   7.72542238   0.02458194
7000.00   7.83506632   0.02587363
7002.00   7.69916773   0.02501042
7004.00   7.61932564   0.02419733
7006.00   7.61462784   0.02480923
7008.00   7.61589003   0.02540529
7010.00   7.60965395   0.02494143
7012.00   7.64501667   0.02521037
7014.00   7.68480206   0.02466519
7016.00   7.63884878   0.02421391
7018.00   7.61902761   0.02378856
7020.00   7.56334639   0.02565601
7022.00   7.49018431   0.02730011
7024.00   7.47688675   0.02643279
7026.00   7.49242258   0.02666938
7028.00   7.53190565   0.02526717
7030.00   7.64011049   0.02510354
7032.00   7.62356949   0.02496713
7034.00   7.53538036   0.02424886
7036.00   7.52886629   0.02406269
7038.00   7.60812759   0.02496970
7040.00   7.56098223   0.02463497
7042.00   7.51990223   0.02406396
7044.00   7.48400879   0.02401687
7046.00   7.54422903   0.02727035
7048.00   7.59712982   0.02883122
7050.00   7.55787086   0.02691605
7052.00   7.50146198   0.02467764
7054.00   7.57309151   0.02506869
7056.00   7.58991528   0.02714843
7058.00   7.54796219   0.02774117
7060.00   7.51248789   0.02417435
7062.00   7.65083122   0.02840688
7064.00   7.81312656   0.03604423
7066.00   7.70369482   0.03431055
7068.00   7.55063200   0.02507447
7070.00   7.62723446   0.02514309
7072.00   7.61708355   0.02570877
7074.00   7.58266878   0.02789055
7076.00   7.49869204   0.02880275
7078.00   7.42596865   0.02699259
7080.00   7.51309395   0.02506396
7082.00   7.66824913   0.02533558
7084.00   7.56915998   0.02620333
7086.00   7.47388268   0.02529550
7088.00   7.43884373   0.02572789
7090.00   7.43476629   0.02756493
7092.00   7.49867821   0.02886950
7094.00   7.66892004   0.02884521
7096.00   7.66721296   0.02806083
7098.00   7.55642176   0.02611533
7100.00   7.50950480   0.02555617
7102.00   7.48528910   0.02549810
7104.00   7.48009253   0.02512882
7106.00   7.53960371   0.02621517
7108.00   7.65663862   0.03002088
7110.00   7.68563366   0.03064992
7112.00   7.51462030   0.02726609
7114.00   7.57656717   0.02496441
7116.00   7.58361292   0.02700081
7118.00   7.49198723   0.02836978
7120.00   7.46728945   0.02612684
7122.00   7.50481081   0.02541387
7124.00   7.42305136   0.03033500
7126.00   7.62414265   0.02754043
7128.00   7.69858646   0.02680608
7130.00   7.82140589   0.03472393
7132.00   7.77653885   0.03533086
7134.00   7.48666048   0.02258634
7136.00   7.51103830   0.02357604
7138.00   7.54645157   0.02399771
7140.00   7.40887070   0.02626751
7142.00   7.43888426   0.02772680
7144.00   7.45122957   0.02574032
7146.00   7.38524389   0.02383473
7148.00   7.36879921   0.02727772
7150.00   7.41844845   0.03197860
7152.00   7.48267126   0.02915867
7154.00   7.51559925   0.02955499
7156.00   7.46597624   0.03143578
7158.00   7.41865587   0.02841344
7160.00   7.38761520   0.02307709
7162.00   7.32905626   0.02541332
7164.00   7.27320862   0.03114947
7166.00   7.15044689   0.02489248
7168.00   7.21929407   0.02649802
7170.00   7.35717964   0.02846448
7172.00   7.25599575   0.02906406
7174.00   7.11617136   0.02901908
7176.00   7.30486107   0.02919494
7178.00   7.45945501   0.03082960
7180.00   6.93621206   0.02626454
7182.00   6.91106558   0.02526399
7184.00   6.75895071   0.02746448
7186.00   6.62919188   0.02713505
7188.00   6.80287170   0.02585328
7190.00   7.13327074   0.02786385
7192.00   7.24860001   0.02532469
7194.00   6.94852638   0.02476311
7196.00   6.82174778   0.02344647
7198.00   6.78422785   0.02486837
7200.00   6.78118944   0.02536755
7202.00   6.75238657   0.02324237
7204.00   6.64907837   0.02275261
7206.00   6.59945345   0.02675892
7208.00   6.80898523   0.02443612
7210.00   6.78966761   0.02613205
7212.00   6.74812126   0.02551681
7214.00   6.77083731   0.02359639
7216.00   6.81959057   0.02309238
7218.00   6.83924437   0.02333956
7220.00   6.73290157   0.02672271
7222.00   6.80702066   0.02503435
7224.00   6.78370237   0.02244014
7226.00   6.75871134   0.02385277
7228.00   6.72059107   0.02672781
7230.00   6.68389463   0.02711315
7232.00   6.74273491   0.02527085
7234.00   6.75076437   0.02529649
7236.00   6.70802450   0.02416826
7238.00   6.54803133   0.02390209
7240.00   6.45183659   0.02406280
7242.00   6.51043177   0.02358270
7244.00   6.60354567   0.02408511
7246.00   6.57445574   0.02753612
7248.00   6.64750099   0.02711783
7250.00   6.46058798   0.02362925
7252.00   6.26612473   0.02129027
7254.00   6.33412361   0.02362410
7256.00   6.48230600   0.02614478
7258.00   6.44078970   0.02523661
7260.00   6.32432508   0.02324203
7262.00   6.41274214   0.02373401
7264.00   6.40217257   0.02620545
7266.00   6.35080242   0.02580383
7268.00   6.32761908   0.02312464
7270.00   6.35354900   0.02163211
7272.00   6.38445425   0.02285846
7274.00   6.34693813   0.02334947
7276.00   6.17392349   0.02246777
7278.00   6.22633410   0.02505430
7280.00   6.34694767   0.02594592
7282.00   6.36132050   0.02398228
7284.00   6.27060366   0.02201564
7286.00   6.18699837   0.02246919
7288.00   6.16471100   0.02213302
7290.00   6.29953384   0.02254783
7292.00   6.39896774   0.02281557
7294.00   6.32168055   0.02201821
7296.00   6.20467710   0.02277115
7298.00   6.17827272   0.02476997
7300.00   6.21962643   0.02502560
7302.00   6.24100876   0.02278706
7304.00   6.31250048   0.02451128
7306.00   6.26445818   0.02372101
7308.00   6.05142593   0.02206687
7310.00   5.96306896   0.02143328
7312.00   6.06886053   0.02192443
7314.00   6.12837219   0.02236528
7316.00   6.02888203   0.02255305
7318.00   6.15917397   0.02208727
7320.00   6.24987602   0.02349889
7322.00   6.07246494   0.02509400
7324.00   5.88729858   0.02375812
7326.00   5.88965797   0.02103255
7328.00   5.94461012   0.02154889
7330.00   5.90240288   0.02213890
7332.00   5.97207355   0.02279129
7334.00   6.06054115   0.02336992
7336.00   5.97850132   0.02514433
7338.00   5.90858126   0.02467141
7340.00   5.97918177   0.02275961
7342.00   6.04300117   0.02429721
7344.00   5.98717737   0.02514099
7346.00   5.89717293   0.02617045
7348.00   5.78092718   0.02349027
7350.00   5.74078846   0.02128032
7352.00   5.76916027   0.02090691
7354.00   5.79731417   0.02117315
7356.00   5.77572155   0.02177821
7358.00   5.67288733   0.02258874
7360.00   5.62505007   0.02145224
7362.00   5.65972137   0.02110885
7364.00   5.65130424   0.02126986
7366.00   5.65762997   0.02164914
7368.00   5.72182941   0.02230905
7370.00   5.73981142   0.02353349
7372.00   5.73727655   0.02644962
7374.00   5.62406874   0.02361909
7376.00   5.52179146   0.02123871
7378.00   5.38410568   0.02063648
7380.00   5.24820614   0.02118866
7382.00   5.20308352   0.02142047
7384.00   5.24300385   0.02031072
7386.00   5.17944574   0.02010842
7388.00   5.15929365   0.02030227
7390.00   5.23233652   0.02087111
7392.00   5.24196672   0.02114273
7394.00   5.10754967   0.02083904
7396.00   4.93356705   0.02058606
7398.00   4.87765408   0.02115606
7400.00   4.82204390   0.02057753
7402.00   4.69968224   0.02368221
7404.00   4.64337873   0.02176681
7406.00   4.69010162   0.01927216
7408.00   4.72372150   0.01923516
7410.00   4.71256876   0.02113930
7412.00   4.81364250   0.02496818
7414.00   4.73114204   0.02077013
7416.00   4.53960514   0.02255922
7418.00   4.54507160   0.02120120
7420.00   4.65171576   0.01924148
7422.00   4.68891621   0.01907112
7424.00   4.64612341   0.01919787
7426.00   4.62952566   0.01990939
7428.00   4.47711658   0.02318714
7430.00   4.42720747   0.02391201
7432.00   4.45886803   0.02390191
7434.00   4.55677986   0.02370168
7436.00   4.57228851   0.02342931
7438.00   4.44545078   0.02260552
7440.00   4.45500803   0.01996638
7442.00   4.44769335   0.02008257
7444.00   4.51078081   0.02027764
7446.00   4.49045515   0.01942726
7448.00   4.49342012   0.02045915
7450.00   4.52625227   0.02155624
7452.00   4.48798037   0.01937773
7454.00   4.49334526   0.01873933
7456.00   4.53334427   0.01895653
7458.00   4.58501530   0.01897340
7460.00   4.63704538   0.01957183
7462.00   4.59199905   0.02183417
7464.00   4.51975060   0.02284509
7466.00   4.56497097   0.01996964
7468.00   4.56579065   0.01905723
7470.00   4.55527115   0.02030347
7472.00   4.49685764   0.01954530
7474.00   4.41618252   0.02152754
7476.00   4.43055630   0.02203202
7478.00   4.54416180   0.02049336
7480.00   4.61415958   0.02217281
7482.00   4.57716370   0.02317675
7484.00   4.47131300   0.02062589
7486.00   4.44694853   0.01902041
7488.00   4.44412327   0.01891235
7490.00   4.42517948   0.01908120
7492.00   4.42575121   0.01890067
7494.00   4.45500278   0.01881781
7496.00   4.33326674   0.01859681
7498.00   4.38090086   0.01877620
7500.00   4.46845150   0.01884276
7502.00   4.42217970   0.01884542
7504.00   4.31582069   0.01874314
7506.00   4.26866674   0.01854382
7508.00   4.24876499   0.01842974
7510.00   4.24640369   0.01839338
7512.00   4.27546835   0.01844385
7514.00   4.28170681   0.01844144
7516.00   4.32992363   0.01899283
7518.00   4.36046791   0.01981254
7520.00   4.31131363   0.01999813
7522.00   4.26580858   0.01932316
7524.00   4.31856871   0.01979080
7526.00   4.22974873   0.02056160
7528.00   4.20122385   0.01977973
7530.00   4.17791176   0.01871397
7532.00   4.12767363   0.01897242
7534.00   4.12191153   0.01981134
7536.00   4.22775126   0.01901898
7538.00   4.30073500   0.01834070
7540.00   4.35997772   0.01921964
7542.00   4.38022900   0.01927247
7544.00   4.38478899   0.01877872
7546.00   4.39355040   0.01848336
7548.00   4.38732243   0.01919035
7550.00   4.33934450   0.02117337
7552.00   4.37642765   0.02007699
7554.00   4.42724085   0.01886133
7556.00   4.41208124   0.01866058
7558.00   4.38051510   0.01870218
7560.00   4.42423439   0.01864982
7562.00   4.55075407   0.01909611
7564.00   4.63161182   0.02007269
7566.00   4.49398661   0.01975021
7568.00   4.51191950   0.01934672
7570.00   4.60866880   0.01939746
7572.00   4.67303753   0.01959575
7574.00   4.65478992   0.01955170
7576.00   4.57919598   0.01931049
7578.00   4.50735807   0.01932505
7580.00   4.57830095   0.02049723
7582.00   4.69213009   0.02227042
7584.00   4.72055531   0.02170042
7586.00   4.65171242   0.01965892
7588.00   4.51965237   0.01912785
7590.00   4.38590527   0.02215232
7592.00   4.37451267   0.02757197
7594.00   4.45662165   0.03407440
7596.00   4.29769135   0.03652538
7598.00   4.16336060   0.03519931
7600.00   4.40026188   0.03975411
7602.00   4.71821690   0.04620258
7604.00   4.58257484   0.04394737
7606.00   4.44932938   0.03828188
7608.00   4.74594307   0.04398397
7610.00   5.03851604   0.04094707
7612.00   5.16158485   0.03911642
7614.00   5.10717058   0.03956176
7616.00   4.97022820   0.03582596
7618.00   4.84056759   0.02606793
7620.00   4.70358562   0.02703916
7622.00   4.77741003   0.03290019
7624.00   4.84590244   0.03153389
7626.00   4.75156403   0.02791692
7628.00   4.69470406   0.02725564
7630.00   4.76648426   0.02862172
7632.00   4.79208708   0.02805916
7634.00   4.96314192   0.02874593
7636.00   4.86242199   0.03094287
7638.00   4.76781654   0.03001845
7640.00   4.86091280   0.02996678
7642.00   4.99347734   0.02984256
7644.00   4.96516466   0.02719579
7646.00   4.83393717   0.02393519
7648.00   4.83314848   0.02367906
7650.00   4.90618372   0.02419367
7652.00   4.99829149   0.02358939
7654.00   5.02435112   0.02416467
7656.00   4.93239117   0.02541103
7658.00   4.85085487   0.02643096
7660.00   4.98297262   0.02793929
7662.00   5.00756550   0.02501424
7664.00   4.98938990   0.02143907
7666.00   4.93206787   0.02229841
7668.00   4.83666611   0.02273657
7670.00   4.75562191   0.02096758
7672.00   4.72953701   0.01972305
7674.00   4.73627949   0.02065589
7676.00   4.82841682   0.02012164
7678.00   5.03679514   0.02611920
7680.00   5.09776974   0.02764231
7682.00   5.00741482   0.02397456
7684.00   4.92901564   0.01997987
7686.00   4.93509102   0.02051972
7688.00   4.91167688   0.02084040
7690.00   5.10120392   0.02372911
7692.00   5.10473680   0.02282625
7694.00   5.00365353   0.02058777
7696.00   4.96143007   0.01974536
7698.00   4.98908424   0.01984585
7700.00   4.98152685   0.01992935
7702.00   4.93638229   0.02276803
7704.00   5.06222010   0.02527872
7706.00   5.07220173   0.02335403
7708.00   5.02457857   0.02137301
7710.00   4.99411774   0.02084580
7712.00   5.01100349   0.02227420
7714.00   5.06600475   0.02529364
7716.00   5.14215183   0.02726060
7718.00   5.13015985   0.02321411
7720.00   5.09821749   0.02274884
7722.00   5.11259556   0.02515220
7724.00   5.12244892   0.02455989
7726.00   5.13517380   0.02180643
7728.00   5.19434357   0.02236983
7730.00   5.18137455   0.02185475
7732.00   5.07959843   0.01900055
7734.00   5.15275908   0.02553244
7736.00   5.16438150   0.02647581
7738.00   5.08018494   0.02225696
7740.00   5.04879761   0.01907252
7742.00   5.12379694   0.02016780
7744.00   5.05467701   0.01998183
7746.00   5.04786777   0.02004135
7748.00   4.99648762   0.02209846
7750.00   5.08119631   0.02548696
7752.00   5.17929125   0.02554187
7754.00   5.12185192   0.02185905
7756.00   4.98796463   0.01994563
7758.00   5.02006769   0.02051537
7760.00   5.03362083   0.02052187
7762.00   5.09854937   0.02038833
7764.00   5.09345818   0.02161015
7766.00   4.98873234   0.02179942
7768.00   4.91859150   0.02091103
7770.00   5.01000929   0.02229047
7772.00   5.06376934   0.02179293
7774.00   5.07160187   0.02048951
7776.00   5.03531837   0.02019466
7778.00   5.01584911   0.02027446
7780.00   4.99447727   0.02024487
7782.00   4.96639490   0.02018919
7784.00   4.99176073   0.02013644
7786.00   4.99871206   0.01979081
7788.00   4.95198870   0.02168220
7790.00   5.01560783   0.02499443
7792.00   5.05915117   0.02469041
7794.00   5.01435947   0.02179884
7796.00   4.93779182   0.02022917
7798.00   4.89988661   0.02013194
7800.00   4.92150640   0.02041095
7802.00   4.92399168   0.01965374
7804.00   4.86019611   0.02406493
7806.00   4.86739826   0.02483089
7808.00   4.97145987   0.02201018
7810.00   5.01718473   0.02092097
7812.00   4.86741495   0.02099898
7814.00   4.80674934   0.02029364
7816.00   4.85926390   0.02031421
7818.00   4.84645033   0.02075170
7820.00   4.81507635   0.02106161
7822.00   4.79790878   0.02092109
7824.00   4.74635839   0.02037726
7826.00   4.63921690   0.01976029
7828.00   4.58786583   0.01943027
7830.00   4.68652296   0.02187663
7832.00   4.68032551   0.02139784
7834.00   4.64345551   0.01980926
7836.00   4.63223696   0.02066502
7838.00   4.55861998   0.02253613
7840.00   4.38195324   0.01997173
7842.00   4.41331244   0.01918204
7844.00   4.50230408   0.01933837
7846.00   4.42206621   0.02072104
7848.00   4.43290472   0.02232988
7850.00   4.51997280   0.02245816
7852.00   4.45559359   0.02087110
7854.00   4.50915527   0.02072263
7856.00   4.52091599   0.02035203
7858.00   4.46588755   0.02189314
7860.00   4.38812113   0.02114265
7862.00   4.30514193   0.01951974
7864.00   4.25421286   0.01934620
7866.00   4.27739143   0.01990610
7868.00   4.33590269   0.01979413
7870.00   4.29098511   0.01969282
7872.00   4.25563049   0.01955803
7874.00   4.32045603   0.01989702
7876.00   4.35711193   0.01999770
7878.00   4.28595924   0.01972766
7880.00   4.20411682   0.02031482
7882.00   4.18104935   0.02247910
7884.00   4.19396973   0.02066744
7886.00   4.20470905   0.01946196
7888.00   4.17921686   0.01987051
7890.00   4.08592606   0.02213817
7892.00   4.01623869   0.02311782
7894.00   4.09208965   0.02041504
7896.00   4.12913513   0.02329712
7898.00   4.14914370   0.02091771
7900.00   4.05092335   0.02237787
7902.00   3.99900055   0.02162247
7904.00   4.01370287   0.02152258
7906.00   4.04861975   0.02309393
7908.00   4.08405638   0.02028235
7910.00   3.93134761   0.02273611
7912.00   3.95512366   0.02121003
7914.00   3.94915581   0.02086820
7916.00   3.91102266   0.02006145
7918.00   3.90997386   0.02005668
7920.00   3.88237858   0.02242572
7922.00   3.71779299   0.02413747
7924.00   3.89076424   0.01982781
7926.00   4.00633335   0.01952811
7928.00   3.94161320   0.01960479
7930.00   3.91105461   0.01961553
7932.00   3.86487889   0.01943476
7934.00   3.73133802   0.01905820
7936.00   3.73871541   0.01914273
7938.00   3.81203103   0.01930179
7940.00   3.90058446   0.01963985
7942.00   3.83292866   0.02171581
7944.00   3.68599486   0.02361284
7946.00   3.68705678   0.02327577
7948.00   3.80481601   0.02073082
7950.00   3.65959787   0.01886777
7952.00   3.60374880   0.01901401
7954.00   3.63601756   0.01904783
7956.00   3.56516790   0.01885518
7958.00   3.49330544   0.01845304
7960.00   3.54034638   0.01957538
7962.00   3.61578012   0.02226322
7964.00   3.49515271   0.02287597
7966.00   3.48265576   0.02006581
7968.00   3.50188470   0.02035635
7970.00   3.46943474   0.02199076
7972.00   3.41839600   0.02186552
7974.00   3.38237572   0.01993112
7976.00   3.35308862   0.01873477
7978.00   3.33208251   0.01951614
7980.00   3.34606886   0.01931857
7982.00   3.24145246   0.01856313
7984.00   3.17693710   0.01828519
7986.00   3.19858551   0.01849349
7988.00   3.23575616   0.01887121
7990.00   3.21096754   0.01922181
7992.00   3.14078617   0.01928611
7994.00   3.07080007   0.02095594
7996.00   3.10423136   0.02031677
7998.00   3.17317772   0.01895328
8000.00   3.17846489   0.01833080
8002.00   3.14458156   0.01844676
8004.00   3.16532993   0.01845806
8006.00   3.18348718   0.01852271
8008.00   3.14450717   0.01853871
8010.00   3.17550945   0.01840255
8012.00   3.20525098   0.02174482
8014.00   3.18545389   0.02293137
8016.00   3.13801289   0.02021069
8018.00   3.11331773   0.01857725
8020.00   3.11441779   0.01875942
8022.00   3.06798434   0.01919439
8024.00   2.98234487   0.02112971
8026.00   2.93795133   0.02206573
8028.00   2.94465160   0.02075889
8030.00   2.98696351   0.01862036
8032.00   3.04805231   0.01897583
8034.00   3.01892829   0.02159236
8036.00   3.01227832   0.02163440
