# File created by shivutils (I.Shivvers)
# wl(A)   flm    er(optional)
3422.00   7.21865463   0.23353340
3424.00   7.09896994   0.23561159
3426.00   7.51169300   0.23989812
3428.00   7.60616493   0.24421613
3430.00   7.76026773   0.24629530
3432.00   7.66083336   0.24708131
3434.00   7.31667519   0.24367368
3436.00   7.57559443   0.24845238
3438.00   7.78096151   0.25128058
3440.00   7.94669056   0.25276509
3442.00   7.59352827   0.24924253
3444.00   7.95812178   0.25788492
3446.00   7.69330931   0.25391185
3448.00   7.46404696   0.25134557
3450.00   7.59099388   0.25396836
3452.00   7.81295109   0.25724053
3454.00   7.78417587   0.25890028
3456.00   7.12150478   0.25101125
3458.00   7.85323000   0.25991073
3460.00   7.85022640   0.26096022
3462.00   7.92892075   0.26154718
3464.00   7.66982985   0.25908566
3466.00   7.28552914   0.25537524
3468.00   7.81083107   0.26186782
3470.00   7.97872543   0.26910508
3472.00   8.02564526   0.26531196
3474.00   8.61169052   0.26922852
3476.00   8.17101669   0.26404652
3478.00   7.71221590   0.26315910
3480.00   8.10216808   0.26830524
3482.00   8.37942600   0.27363759
3484.00   8.34861565   0.27216735
3486.00   8.81419086   0.27500007
3488.00   8.77176476   0.27206913
3490.00   9.13388729   0.27764550
3492.00   8.56437778   0.27239749
3494.00   8.89798450   0.27378088
3496.00   9.01962090   0.27396980
3498.00   9.00593281   0.27286765
3500.00   8.85378742   0.27280036
3502.00   8.61694431   0.26854086
3504.00   9.09568596   0.27171031
3506.00   8.59257984   0.26589784
3508.00   9.22374344   0.27153698
3510.00   8.17990494   0.26340315
3512.00   8.46404839   0.26301083
3514.00   8.50464153   0.26019332
3516.00   8.21038532   0.25821474
3518.00   8.52004147   0.25977758
3520.00   8.03381348   0.25549954
3522.00   8.31873703   0.25911698
3524.00   8.12354279   0.25443789
3526.00   8.55576897   0.25665903
3528.00   8.78223610   0.25971711
3530.00   8.57308865   0.25592151
3532.00   8.57450771   0.25337440
3534.00   8.73127747   0.25484806
3536.00   8.80774498   0.25587040
3538.00   8.85922623   0.25649583
3540.00   8.30713272   0.24923322
3542.00   8.39658737   0.25150093
3544.00   8.19716358   0.25031063
3546.00   8.03624821   0.24573326
3548.00   8.47095776   0.24691287
3550.00   8.65496159   0.24996716
3552.00   7.75000620   0.23968652
3554.00   8.21526146   0.24512401
3556.00   7.86334944   0.23932388
3558.00   8.46926689   0.24533559
3560.00   8.46353817   0.24350327
3562.00   8.20804977   0.23733747
3564.00   8.56798840   0.23838276
3566.00   7.88085556   0.23276518
3568.00   7.35578442   0.22398406
3570.00   7.98680592   0.22977690
3572.00   8.14038849   0.23020937
3574.00   7.76431227   0.22535157
3576.00   8.06954861   0.22650215
3578.00   7.22525930   0.21810535
3580.00   7.60361004   0.22025721
3582.00   6.90696621   0.20862763
3584.00   6.97122335   0.20745093
3586.00   6.86394787   0.20572056
3588.00   6.70595598   0.20485756
3590.00   7.05316305   0.20772974
3592.00   6.82461691   0.20443268
3594.00   6.56407213   0.20051925
3596.00   6.62039518   0.19916157
3598.00   6.15803671   0.19290750
3600.00   6.11717129   0.18899243
3602.00   5.73440838   0.18502760
3604.00   5.83503914   0.18461330
3606.00   5.67073774   0.18404399
3608.00   5.90133667   0.18646981
3610.00   5.45942450   0.17924120
3612.00   5.21724129   0.17754933
3614.00   5.35262299   0.17776325
3616.00   5.37506390   0.17719071
3618.00   5.72130537   0.17954385
3620.00   5.27187967   0.17294855
3622.00   5.06825542   0.17015162
3624.00   4.83338976   0.16477703
3626.00   4.55637217   0.15983558
3628.00   4.69612312   0.16294712
3630.00   4.61007214   0.16162094
3632.00   4.34959412   0.15841256
3634.00   3.94791460   0.15211296
3636.00   4.29713106   0.15503854
3638.00   4.17909956   0.15357645
3640.00   4.07853937   0.15266767
3642.00   4.00053406   0.15063417
3644.00   3.78832269   0.14798398
3646.00   4.36764622   0.15394002
3648.00   3.93681717   0.15811038
3650.00   4.07628298   0.16109754
3652.00   3.81974411   0.15426560
3654.00   3.71547055   0.14837067
3656.00   3.36247611   0.14082873
3658.00   3.21628428   0.13485453
3660.00   3.23490024   0.13511285
3662.00   3.13458157   0.13765492
3664.00   3.31687617   0.13590130
3666.00   3.25588441   0.13134548
3668.00   3.25370717   0.13006277
3670.00   3.42205334   0.13248122
3672.00   3.09986448   0.12848373
3674.00   3.07921338   0.12623864
3676.00   3.15517259   0.12708247
3678.00   3.19385219   0.12581994
3680.00   2.94023919   0.12385288
3682.00   2.98889828   0.12169332
3684.00   3.08305740   0.12396680
3686.00   3.08499384   0.12399577
3688.00   3.37010288   0.12623882
3690.00   2.98912406   0.12253544
3692.00   3.37604761   0.12499955
3694.00   3.27538538   0.12467971
3696.00   3.29587793   0.12337852
3698.00   3.26941919   0.12366940
3700.00   3.48116255   0.12483779
3702.00   3.18910766   0.12164422
3704.00   3.27477717   0.12251859
3706.00   3.08181453   0.12012086
3708.00   3.05674195   0.11908955
3710.00   3.23213100   0.12081818
3712.00   3.47789121   0.12293451
3714.00   3.42193890   0.12292971
3716.00   3.41794753   0.12065773
3718.00   3.39870691   0.11968766
3720.00   3.62654996   0.12105104
3722.00   3.67433476   0.12161381
3724.00   3.83001637   0.12336822
3726.00   3.57588005   0.12115022
3728.00   3.80662513   0.12339778
3730.00   3.95464325   0.12368681
3732.00   4.10842323   0.12647326
3734.00   4.06884432   0.12557720
3736.00   4.05263424   0.12527955
3738.00   4.34191608   0.12841359
3740.00   4.35513353   0.12993379
3742.00   4.33260632   0.12916784
3744.00   4.50467396   0.12998590
3746.00   4.14284277   0.12503055
3748.00   4.45284128   0.12633553
3750.00   4.65123034   0.12884387
3752.00   4.62052917   0.12669130
3754.00   4.68352842   0.12742776
3756.00   4.78802538   0.12843452
3758.00   5.03857946   0.13050087
3760.00   5.07772017   0.13115808
3762.00   5.18712282   0.13205282
3764.00   5.41749001   0.13364822
3766.00   5.25269842   0.13207678
3768.00   5.30913687   0.13226143
3770.00   5.61902714   0.13576165
3772.00   5.77578592   0.13681132
3774.00   5.91587448   0.13741529
3776.00   6.00472736   0.13762753
3778.00   6.08867741   0.13901669
3780.00   6.22992277   0.13908982
3782.00   6.45612669   0.14016964
3784.00   6.47908783   0.14057004
3786.00   6.17790031   0.13863136
3788.00   6.58405876   0.14174725
3790.00   6.80573368   0.14445594
3792.00   6.85600090   0.14426678
3794.00   6.91290665   0.14489548
3796.00   7.02188683   0.14472559
3798.00   7.22874975   0.14580961
3800.00   7.63826799   0.14822499
3802.00   7.52570963   0.14885257
3804.00   7.82294464   0.15009494
3806.00   8.27844143   0.15255401
3808.00   8.20390701   0.15129124
3810.00   8.22025394   0.15154712
3812.00   8.46067142   0.15255204
3814.00   8.79218388   0.15443037
3816.00   8.61061859   0.15355247
3818.00   8.97457600   0.15636216
3820.00   9.18730354   0.15765725
3822.00   9.38671398   0.15877323
3824.00   9.56984901   0.15911435
3826.00   9.47734451   0.15794548
3828.00   9.89593983   0.16130313
3830.00   9.69114494   0.15920240
3832.00   9.95148277   0.16049980
3834.00   10.16279697   0.16098472
3836.00   10.35998821   0.16208377
3838.00   10.59057426   0.16315171
3840.00   10.86135387   0.16359031
3842.00   11.12797165   0.16546927
3844.00   10.92595577   0.16356963
3846.00   11.29134846   0.16512570
3848.00   11.56976414   0.16644776
3850.00   11.69873047   0.16728938
3852.00   11.58377266   0.16635567
3854.00   11.99842453   0.16886842
3856.00   11.88827705   0.16804262
3858.00   12.18606853   0.16937596
3860.00   12.48039055   0.17045078
3862.00   12.80275440   0.17228304
3864.00   12.42419624   0.16981366
3866.00   12.53433418   0.16996180
3868.00   12.51618004   0.16948494
3870.00   12.51874924   0.16866882
3872.00   12.78606987   0.17056429
3874.00   12.78039551   0.16952431
3876.00   12.35184574   0.16767971
3878.00   12.75653934   0.16903472
3880.00   12.26800060   0.16635233
3882.00   12.57661247   0.16734336
3884.00   12.44670296   0.16660228
3886.00   12.47123909   0.16587245
3888.00   12.41324329   0.16558246
3890.00   12.40251732   0.16534002
3892.00   12.97032738   0.16762958
3894.00   12.25667477   0.16400814
3896.00   12.61997986   0.16598004
3898.00   12.71794510   0.16589633
3900.00   13.00392818   0.16751093
3902.00   12.99493122   0.16700543
3904.00   12.77127266   0.16599205
3906.00   13.07510281   0.16868764
3908.00   13.17714596   0.16875139
3910.00   13.10839272   0.16797195
3912.00   12.91924095   0.16717364
3914.00   13.37897778   0.16886641
3916.00   13.30706024   0.16723925
3918.00   13.01012039   0.16551897
3920.00   12.85552406   0.16448759
3922.00   12.55309772   0.16212995
3924.00   12.75614262   0.16279438
3926.00   12.45911598   0.16030768
3928.00   12.02988148   0.15859455
3930.00   11.65072250   0.15610799
3932.00   11.17905521   0.15362120
3934.00   11.21673393   0.15338251
3936.00   11.86081505   0.15608966
3938.00   11.52944374   0.15407728
3940.00   11.42803955   0.15276799
3942.00   11.70692730   0.15459062
3944.00   11.46670055   0.15224603
3946.00   11.22964191   0.15032887
3948.00   10.95892143   0.14797975
3950.00   11.26882267   0.14918949
3952.00   11.10817623   0.14789046
3954.00   11.03210640   0.14751579
3956.00   11.07532692   0.14706838
3958.00   11.19830513   0.14771560
3960.00   10.89824772   0.14721495
3962.00   11.15434265   0.14804578
3964.00   11.22277355   0.14799304
3966.00   10.44887829   0.14334811
3968.00   10.35418129   0.14252041
3970.00   10.72489643   0.14442348
3972.00   10.93333244   0.14608245
3974.00   10.64673901   0.14368266
3976.00   10.76895809   0.14388877
3978.00   10.77693081   0.14353547
3980.00   10.67554283   0.14200711
3982.00   10.96245956   0.14317730
3984.00   10.83396435   0.14135551
3986.00   10.62499523   0.14000291
3988.00   10.29974174   0.13844119
3990.00   10.74458408   0.14134581
3992.00   10.98740959   0.14305098
3994.00   10.95068264   0.14248213
3996.00   10.92153263   0.14243135
3998.00   10.98693562   0.14283547
4000.00   11.13040733   0.14294095
4002.00   11.30320454   0.14326945
4004.00   11.20889091   0.14316685
4006.00   11.42322159   0.14441735
4008.00   11.30206203   0.14360720
4010.00   11.40176487   0.14430985
4012.00   11.57075500   0.14497693
4014.00   11.89203167   0.14587124
4016.00   12.00853348   0.14616175
4018.00   12.07383633   0.14706945
4020.00   12.35298634   0.14905150
4022.00   12.12917519   0.14887054
4024.00   12.26860142   0.14816257
4026.00   12.53043175   0.14852567
4028.00   12.82545948   0.14908320
4030.00   13.10138988   0.15054584
4032.00   12.96298504   0.14958933
4034.00   13.12006950   0.15007991
4036.00   13.43561935   0.15125982
4038.00   13.48422813   0.15075108
4040.00   13.00014877   0.14886950
4042.00   13.04453754   0.14969417
4044.00   13.00634480   0.15535896
4046.00   13.27387238   0.16073529
4048.00   13.40881348   0.15753271
4050.00   13.59184265   0.15147384
4052.00   13.31592178   0.14938729
4054.00   13.36866188   0.14969674
4056.00   13.52680588   0.14953588
4058.00   13.54721355   0.14886342
4060.00   13.83259678   0.14961097
4062.00   13.61722565   0.14879553
4064.00   13.66491127   0.14842206
4066.00   13.74354172   0.14845723
4068.00   14.00266266   0.14980064
4070.00   13.91560650   0.14870831
4072.00   13.90295696   0.14815353
4074.00   13.90144348   0.14858562
4076.00   13.76210499   0.14898562
4078.00   13.81746006   0.14926672
4080.00   13.79150200   0.14792360
4082.00   13.83850384   0.14725360
4084.00   13.86122894   0.14729144
4086.00   13.85878849   0.14681433
4088.00   13.55398655   0.14522766
4090.00   13.28627968   0.14342353
4092.00   13.42766380   0.14333329
4094.00   13.42881966   0.14282770
4096.00   13.06263924   0.14101030
4098.00   13.30922890   0.14189796
4100.00   13.08545017   0.14079361
4102.00   13.03637791   0.14022325
4104.00   13.31283951   0.14119385
4106.00   12.97018051   0.13947348
4108.00   12.97797966   0.13941638
4110.00   13.14698887   0.13939416
4112.00   12.99882317   0.13816643
4114.00   13.02615452   0.13818812
4116.00   13.12381554   0.13820112
4118.00   12.86692429   0.13910943
4120.00   12.85002899   0.13673784
4122.00   12.82447433   0.13600124
4124.00   12.75559044   0.13597566
4126.00   12.74378395   0.13569987
4128.00   12.92276001   0.13598096
4130.00   12.99396801   0.13651703
4132.00   13.10113144   0.13685882
4134.00   12.38657475   0.13396259
4136.00   12.94066143   0.13533092
4138.00   12.90877819   0.13487777
4140.00   12.55553818   0.13347308
4142.00   12.66240501   0.13326390
4144.00   12.62661552   0.13274099
4146.00   12.74512863   0.13290219
4148.00   12.65499115   0.13219185
4150.00   12.70518208   0.13215600
4152.00   12.50675964   0.13169724
4154.00   12.76539803   0.13251391
4156.00   12.41276264   0.13060957
4158.00   12.73374653   0.13172165
4160.00   12.64685345   0.13085890
4162.00   12.37255859   0.12987944
4164.00   12.32901669   0.12996478
4166.00   12.29678059   0.12921859
4168.00   12.17192078   0.12813814
4170.00   11.94742298   0.12685862
4172.00   11.89673805   0.12603036
4174.00   11.72672176   0.12533450
4176.00   11.73874760   0.12520431
4178.00   11.63225269   0.12476213
4180.00   11.54719353   0.12401923
4182.00   11.52467918   0.12390633
4184.00   11.47575569   0.12301478
4186.00   11.36507511   0.12229346
4188.00   11.45790863   0.12242284
4190.00   11.30079556   0.12152947
4192.00   11.10193157   0.12022739
4194.00   11.05646420   0.12022026
4196.00   11.18647957   0.12012576
4198.00   11.03349781   0.11934941
4200.00   10.62818718   0.11776815
4202.00   10.89075470   0.11847568
4204.00   10.69728279   0.11760705
4206.00   10.54840374   0.11631606
4208.00   10.45554733   0.11606421
4210.00   10.59761429   0.11667337
4212.00   10.27358246   0.11488295
4214.00   10.40330410   0.11517950
4216.00   9.94842911   0.11268034
4218.00   9.98628044   0.11253186
4220.00   9.99199295   0.11280815
4222.00   9.60350513   0.11053142
4224.00   9.78833866   0.11169565
4226.00   9.59263706   0.11050109
4228.00   9.31139660   0.10915788
4230.00   9.26378345   0.10790502
4232.00   9.21530819   0.10804018
4234.00   8.94160366   0.10661219
4236.00   8.74933910   0.10571560
4238.00   8.68279266   0.10521366
4240.00   8.50918198   0.10332309
4242.00   8.41663456   0.10253966
4244.00   8.44411850   0.10290840
4246.00   8.23454666   0.10263055
4248.00   8.22877979   0.10239445
4250.00   8.16841221   0.10090435
4252.00   7.98044157   0.09940482
4254.00   7.70670700   0.09805638
4256.00   7.84139061   0.09871877
4258.00   7.60670137   0.09776413
4260.00   7.71235895   0.09805942
4262.00   7.54437971   0.09735943
4264.00   7.40338469   0.09628836
4266.00   7.46436596   0.09592965
4268.00   7.29990005   0.09487419
4270.00   7.59509563   0.09621324
4272.00   7.31047678   0.09464616
4274.00   7.28663826   0.09450873
4276.00   7.27965689   0.09428856
4278.00   7.18462229   0.09415094
4280.00   7.36876202   0.09531039
4282.00   7.17291880   0.09413816
4284.00   7.27209473   0.09443936
4286.00   7.27161932   0.09385603
4288.00   7.37490034   0.09443603
4290.00   7.47227764   0.09465891
4292.00   7.47221136   0.09447690
4294.00   7.53513527   0.09510668
4296.00   7.86905146   0.09671193
4298.00   7.73238754   0.09619230
4300.00   7.91285753   0.09685726
4302.00   8.06150341   0.09777220
4304.00   8.04133797   0.09745780
4306.00   8.11585140   0.09779692
4308.00   8.10039139   0.09745567
4310.00   8.29532623   0.09829883
4312.00   8.26391411   0.09860934
4314.00   8.27185822   0.09879531
4316.00   8.31254578   0.09866582
4318.00   8.42775631   0.09862776
4320.00   8.69926643   0.10028363
4322.00   8.49484730   0.09864869
4324.00   8.62671185   0.09929696
4326.00   8.63852501   0.09941365
4328.00   8.79677105   0.09986039
4330.00   8.96071815   0.10074314
4332.00   8.65571213   0.09960265
4334.00   8.68771935   0.09984554
4336.00   8.97379303   0.10174524
4338.00   8.99693584   0.10197552
4340.00   8.91528511   0.10126875
4342.00   9.01039314   0.10129286
4344.00   8.88739586   0.10091496
4346.00   8.88090992   0.10132574
4348.00   8.95006752   0.10188809
4350.00   8.87272167   0.10112910
4352.00   8.83413506   0.10076140
4354.00   8.85810852   0.10307377
4356.00   8.90560722   0.11297060
4358.00   8.75212193   0.11771306
4360.00   8.54408264   0.11070567
4362.00   8.85141373   0.10384979
4364.00   8.84571934   0.10058875
4366.00   8.77166176   0.10008332
4368.00   8.65278530   0.09934761
4370.00   8.70958805   0.09903036
4372.00   8.51731777   0.09874325
4374.00   8.50433445   0.09879215
4376.00   8.53214836   0.09861609
4378.00   8.63291168   0.09855519
4380.00   8.58910084   0.09863434
4382.00   8.33557415   0.09727830
4384.00   8.51466751   0.09723354
4386.00   8.60397339   0.09752025
4388.00   8.72489071   0.09769167
4390.00   8.56984425   0.09730618
4392.00   8.60480690   0.09722422
4394.00   8.40294266   0.09614166
4396.00   8.67368507   0.09710128
4398.00   8.59251595   0.09698072
4400.00   8.60906887   0.09704824
4402.00   8.65286922   0.09698472
4404.00   8.67166138   0.09663843
4406.00   8.60720634   0.09643709
4408.00   8.71697426   0.09717219
4410.00   8.93488026   0.09789766
4412.00   8.86460876   0.09806158
4414.00   9.00192642   0.09871322
4416.00   9.05756187   0.09866365
4418.00   9.19420242   0.09917267
4420.00   9.25488949   0.09930266
4422.00   9.38310623   0.09966077
4424.00   9.52876663   0.10029653
4426.00   9.46088791   0.10010120
4428.00   9.65325069   0.10090423
4430.00   9.58034897   0.10071719
4432.00   9.72195148   0.10131608
4434.00   9.82059193   0.10153814
4436.00   9.90255356   0.10227732
4438.00   10.04296780   0.10275736
4440.00   9.97521877   0.10274415
4442.00   9.97742367   0.10239103
4444.00   10.42795658   0.10412523
4446.00   10.33826637   0.10393116
4448.00   10.32224274   0.10391828
4450.00   10.31486797   0.10391230
4452.00   10.47832680   0.10441652
4454.00   10.53988361   0.10470109
4456.00   10.34570026   0.10435903
4458.00   10.68296337   0.10526929
4460.00   10.50430393   0.10508326
4462.00   10.57468891   0.10500972
4464.00   10.53628159   0.10489909
4466.00   10.82216740   0.10583296
4468.00   10.92644501   0.10618544
4470.00   10.81748009   0.10543904
4472.00   10.96146870   0.10610957
4474.00   10.84211826   0.10579789
4476.00   10.95910645   0.10597186
4478.00   11.30294418   0.10710113
4480.00   10.99782753   0.10614069
4482.00   11.05537796   0.10641884
4484.00   11.19360924   0.10711673
4486.00   11.11010456   0.10646324
4488.00   11.45060444   0.10783353
4490.00   11.43490314   0.10800190
4492.00   11.30810642   0.10754438
4494.00   11.52482128   0.10801283
4496.00   11.44598961   0.10788793
4498.00   11.73204231   0.10914500
4500.00   11.74705982   0.10911355
4502.00   11.53719711   0.10795549
4504.00   11.47603130   0.10822917
4506.00   11.47894382   0.10772245
4508.00   11.68811131   0.10829978
4510.00   11.31481266   0.10684044
4512.00   11.12034035   0.10581298
4514.00   11.18699741   0.10571795
4516.00   11.02341747   0.10506448
4518.00   10.90135002   0.10518184
4520.00   11.01996326   0.10534873
4522.00   10.96075821   0.10514753
4524.00   10.78248024   0.10440125
4526.00   10.87231827   0.10467737
4528.00   10.70259571   0.10417050
4530.00   10.51758003   0.10390358
4532.00   10.79350376   0.10396028
4534.00   10.72845173   0.10394026
4536.00   10.62711143   0.10345113
4538.00   10.69197655   0.10392176
4540.00   10.71732712   0.10384306
4542.00   11.01842308   0.10476986
4544.00   10.80768871   0.10386156
4546.00   11.06091690   0.10438649
4548.00   10.78839684   0.10337655
4550.00   10.84355927   0.10330718
4552.00   10.64175510   0.10263359
4554.00   10.70073700   0.10300826
4556.00   10.77304363   0.10330795
4558.00   10.83670521   0.10341771
4560.00   10.86083126   0.10374714
4562.00   10.87869740   0.10360583
4564.00   10.78369236   0.10324337
4566.00   10.83313370   0.10340434
4568.00   10.86293983   0.10327177
4570.00   10.82801533   0.10299806
4572.00   11.04824162   0.10400486
4574.00   11.01449680   0.10397130
4576.00   10.78128338   0.10307197
4578.00   10.83093166   0.10293096
4580.00   10.75058079   0.10264588
4582.00   10.90267658   0.10321841
4584.00   10.79056740   0.10264844
4586.00   10.73903275   0.10239321
4588.00   10.97980309   0.10342235
4590.00   10.81328487   0.10248853
4592.00   10.73863792   0.10217712
4594.00   10.62629223   0.10202473
4596.00   10.63354397   0.10181966
4598.00   10.53206062   0.10110300
4600.00   10.33985138   0.10023889
4602.00   10.12190628   0.09921443
4604.00   10.00214577   0.09859031
4606.00   9.75570583   0.09779788
4608.00   9.60386848   0.09721301
4610.00   9.64886761   0.09691947
4612.00   9.36000633   0.09564171
4614.00   9.12288952   0.09449446
4616.00   9.12952805   0.09454422
4618.00   8.98985481   0.09388954
4620.00   8.77975273   0.09287402
4622.00   8.80591202   0.09298981
4624.00   8.73613262   0.09278110
4626.00   8.65159130   0.09226345
4628.00   8.55530548   0.09198038
4630.00   8.65041351   0.09244109
4632.00   8.65075397   0.09230285
4634.00   8.67429638   0.09224285
4636.00   8.80075836   0.09249620
4638.00   8.66280746   0.09206665
4640.00   8.41602898   0.09093181
4642.00   8.74174118   0.09251291
4644.00   8.61567688   0.09138996
4646.00   8.57540894   0.09162927
4648.00   8.75055981   0.09228800
4650.00   8.62082672   0.09185875
4652.00   8.71936321   0.09212237
4654.00   8.63867378   0.09178241
4656.00   8.72006512   0.09205130
4658.00   8.71830463   0.09185214
4660.00   8.85716248   0.09243985
4662.00   8.82704735   0.09194233
4664.00   8.84058762   0.09230566
4666.00   8.82358837   0.09218424
4668.00   8.82726479   0.09244788
4670.00   8.88254642   0.09276363
4672.00   8.80749035   0.09231097
4674.00   8.72869110   0.09149897
4676.00   8.67395687   0.09173658
4678.00   8.84669781   0.09197921
4680.00   8.86777973   0.09184650
4682.00   8.81761742   0.09164482
4684.00   8.85662937   0.09172782
4686.00   8.62311268   0.09048516
4688.00   8.76390171   0.09124576
4690.00   8.65721226   0.09056020
4692.00   8.89981174   0.09127498
4694.00   8.68554020   0.09036690
4696.00   8.70372295   0.09057675
4698.00   8.55275917   0.08997356
4700.00   8.37512684   0.08900937
4702.00   8.47264862   0.08929273
4704.00   8.16380501   0.08793592
4706.00   8.24902534   0.08859251
4708.00   8.15256596   0.08802262
4710.00   8.03395939   0.08751585
4712.00   7.77239132   0.08610367
4714.00   7.67691946   0.08605499
4716.00   7.63910961   0.08537564
4718.00   7.60673428   0.08503576
4720.00   7.69747210   0.08529611
4722.00   7.56538439   0.08480927
4724.00   7.58437538   0.08476364
4726.00   7.57882118   0.08496252
4728.00   7.46227741   0.08472008
4730.00   7.76893044   0.08637282
4732.00   7.52852678   0.08521470
4734.00   7.57470989   0.08538413
4736.00   7.63656569   0.08606381
4738.00   7.44299078   0.08525509
4740.00   7.62324047   0.08615451
4742.00   7.72142029   0.08692095
4744.00   7.63547659   0.08634721
4746.00   7.74479151   0.08605748
4748.00   7.77000189   0.08581349
4750.00   7.67082787   0.08536533
4752.00   7.90153551   0.08633012
4754.00   7.83174372   0.08578134
4756.00   7.83823252   0.08562844
4758.00   7.94985580   0.08604304
4760.00   7.78645420   0.08560143
4762.00   7.88816643   0.08562084
4764.00   7.86911964   0.08591373
4766.00   7.92486906   0.08582503
4768.00   7.85242319   0.08563733
4770.00   7.66802168   0.08472832
4772.00   7.66259956   0.08449529
4774.00   7.41264725   0.08284321
4776.00   7.30017138   0.08264460
4778.00   7.25458479   0.08236248
4780.00   7.30354309   0.08230487
4782.00   6.97125244   0.08063839
4784.00   6.92797661   0.08023652
4786.00   6.81267977   0.07958998
4788.00   6.63733053   0.07867157
4790.00   6.58457851   0.07865868
4792.00   6.30956078   0.07735463
4794.00   6.32446718   0.07743015
4796.00   6.18902349   0.07646322
4798.00   6.05919409   0.07580278
4800.00   5.87492132   0.07485912
4802.00   5.86581850   0.07444320
4804.00   5.65294647   0.07381740
4806.00   5.67985296   0.07345676
4808.00   5.80196381   0.07419593
4810.00   5.56024075   0.07266584
4812.00   5.53313875   0.07253710
4814.00   5.53042746   0.07260548
4816.00   5.42302418   0.07250062
4818.00   5.34940052   0.07214076
4820.00   5.33061981   0.07194806
4822.00   5.34858036   0.07178468
4824.00   5.30544758   0.07143829
4826.00   5.19961262   0.07107486
4828.00   5.23399019   0.07130670
4830.00   5.41947603   0.07202988
4832.00   5.16643190   0.07079700
4834.00   5.18073416   0.07128816
4836.00   5.19912195   0.07095835
4838.00   5.21594906   0.07118344
4840.00   5.29863739   0.07154005
4842.00   5.24542665   0.07106362
4844.00   5.15846252   0.07056458
4846.00   5.25303888   0.07104497
4848.00   5.29158640   0.07114607
4850.00   5.37188005   0.07134409
4852.00   5.39948416   0.07164355
4854.00   5.28979254   0.07102396
4856.00   5.48210907   0.07175931
4858.00   5.49967813   0.07205614
4860.00   5.60647440   0.07245357
4862.00   5.75234127   0.07304749
4864.00   5.71227837   0.07278670
4866.00   5.69621897   0.07298807
4868.00   5.65133619   0.07244863
4870.00   5.85103035   0.07322636
4872.00   5.90324450   0.07372173
4874.00   5.72020102   0.07271487
4876.00   5.84452009   0.07317311
4878.00   5.85464811   0.07288029
4880.00   5.88994312   0.07309870
4882.00   5.82866478   0.07245311
4884.00   5.83066273   0.07261503
4886.00   6.02744818   0.07337717
4888.00   5.98634386   0.07310204
4890.00   5.95859671   0.07275181
4892.00   6.15107584   0.07360654
4894.00   5.88116646   0.07269998
4896.00   5.94166040   0.07307301
4898.00   5.99964237   0.07331605
4900.00   6.22142363   0.07418378
4902.00   6.09491491   0.07354575
4904.00   6.14594650   0.07390674
4906.00   6.17366171   0.07381061
4908.00   6.47893667   0.07524830
4910.00   6.30155420   0.07448497
4912.00   6.29380035   0.07423244
4914.00   6.32761478   0.07461805
4916.00   6.30042505   0.07440314
4918.00   6.24997377   0.07456013
4920.00   6.18328333   0.07436506
4922.00   6.33071709   0.07423203
4924.00   6.26423597   0.07418501
4926.00   6.30875874   0.07426192
4928.00   6.49446106   0.07525669
4930.00   6.48164320   0.07506102
4932.00   6.35757017   0.07444124
4934.00   6.44192171   0.07469914
4936.00   6.37273932   0.07433704
4938.00   6.56637955   0.07495327
4940.00   6.30710888   0.07399520
4942.00   6.48499823   0.07471776
4944.00   6.39628935   0.07426438
4946.00   6.63157320   0.07530289
4948.00   6.50829363   0.07488056
4950.00   6.63557196   0.07546812
4952.00   6.50066042   0.07502753
4954.00   6.56664658   0.07546441
4956.00   6.61505175   0.07551964
4958.00   6.62769318   0.07553261
4960.00   6.71434307   0.07569519
4962.00   6.78513241   0.07610252
4964.00   6.73706484   0.07605076
4966.00   6.81714916   0.07644233
4968.00   6.82093716   0.07680182
4970.00   6.72744703   0.07657191
4972.00   6.74465370   0.07660294
4974.00   6.82596827   0.07703109
4976.00   6.81347179   0.07771702
4978.00   6.74281931   0.07739747
4980.00   6.70440865   0.07740473
4982.00   6.86909389   0.07841039
4984.00   6.80358267   0.07792573
4986.00   6.61402321   0.07705121
4988.00   6.64491320   0.07702046
4990.00   6.62450743   0.07646453
4992.00   6.52107334   0.07579607
4994.00   6.67387629   0.07610194
4996.00   6.59079838   0.07579728
4998.00   6.71304321   0.07587823
5000.00   6.51561117   0.07486970
5002.00   6.57902622   0.07535512
5004.00   6.67812252   0.07555464
5006.00   6.66799927   0.07524414
5008.00   6.59642887   0.07508945
5010.00   6.82621908   0.07600088
5012.00   6.76816845   0.07577108
5014.00   6.75178862   0.07595478
5016.00   6.67221069   0.07552303
5018.00   6.94460487   0.07679524
5020.00   6.99991512   0.07717941
5022.00   6.88176155   0.07667112
5024.00   6.94348907   0.07665361
5026.00   7.20360374   0.07761590
5028.00   7.16694355   0.07744197
5030.00   7.10871172   0.07730735
5032.00   7.30051756   0.07788902
5034.00   7.21098471   0.07783973
5036.00   7.12145710   0.07756065
5038.00   7.44268417   0.07863258
5040.00   7.52475119   0.07887444
5042.00   7.32192945   0.07812867
5044.00   7.43198776   0.07889164
5046.00   7.43735790   0.07886767
5048.00   7.49101114   0.07929119
5050.00   7.39134932   0.07878193
5052.00   7.38954210   0.07914296
5054.00   7.59983397   0.07988464
5056.00   7.58552313   0.07972293
5058.00   7.77931643   0.08051304
5060.00   7.72242785   0.08026116
5062.00   7.57884169   0.07982410
5064.00   7.75653648   0.08066013
5066.00   7.77073479   0.08089980
5068.00   7.86979818   0.08142559
5070.00   7.85403776   0.08183312
5072.00   7.75181770   0.08125010
5074.00   7.91693258   0.08186697
5076.00   8.02414131   0.08250823
5078.00   7.96753120   0.08213404
5080.00   7.88268089   0.08233771
5082.00   7.89428520   0.08309290
5084.00   7.75413465   0.08288094
5086.00   7.82244778   0.08340451
5088.00   7.82968616   0.08289418
5090.00   7.77362585   0.08190037
5092.00   7.47627258   0.08026984
5094.00   7.68455458   0.08114042
5096.00   7.63394356   0.08091443
5098.00   7.62506342   0.08089226
5100.00   7.41867876   0.08016545
5102.00   7.37355757   0.07987068
5104.00   7.43660450   0.07992963
5106.00   7.41563129   0.07970258
5108.00   7.42059946   0.07947355
5110.00   7.23159790   0.07920695
5112.00   7.24720716   0.07912314
5114.00   7.29417467   0.07930454
5116.00   7.19491196   0.07912762
5118.00   7.07055521   0.07876772
5120.00   7.10653782   0.07878669
5122.00   7.20328236   0.07911144
5124.00   7.17429352   0.07891719
5126.00   7.14799595   0.07851533
5128.00   6.96196413   0.07806708
5130.00   7.12268877   0.07873758
5132.00   7.00541782   0.07825600
5134.00   7.17584133   0.07911216
5136.00   7.29189682   0.07985261
5138.00   7.15234137   0.07928551
5140.00   7.31638002   0.08015966
5142.00   7.33698320   0.08022259
5144.00   7.23010445   0.08008011
5146.00   7.33566952   0.08026245
5148.00   7.38213539   0.08067862
5150.00   7.34143639   0.08083353
5152.00   7.32852936   0.08093309
5154.00   7.39887810   0.08153009
5156.00   7.55649233   0.08217016
5158.00   7.57335711   0.08241268
5160.00   7.49650478   0.08171573
5162.00   7.56219912   0.08227668
5164.00   7.69668961   0.08268709
5166.00   7.58266020   0.08212221
5168.00   7.82546473   0.08323695
5170.00   7.73171473   0.08284982
5172.00   7.46242142   0.08198003
5174.00   7.71638393   0.08300752
5176.00   7.66490221   0.08297642
5178.00   7.64364290   0.08297458
5180.00   7.81119490   0.08402497
5182.00   7.69564438   0.08334231
5184.00   7.54215670   0.08250278
5186.00   7.63124132   0.08300087
5188.00   7.53106070   0.08227285
5190.00   7.22577190   0.08109753
5192.00   7.08304882   0.08039095
5194.00   7.03333426   0.07999455
5196.00   7.04721546   0.08035461
5198.00   7.06295443   0.08092345
5200.00   6.77323532   0.07972704
5202.00   6.65095901   0.07911098
5204.00   6.63460445   0.07876767
5206.00   6.55815983   0.07876663
5208.00   6.47641325   0.07847784
5210.00   6.27548981   0.07780275
5212.00   6.23579025   0.07793720
5214.00   6.19577742   0.07783277
5216.00   6.08044386   0.07732777
5218.00   5.97206545   0.07686806
5220.00   5.92821074   0.07697535
5222.00   6.02830124   0.07744572
5224.00   6.02421856   0.07763117
5226.00   5.88053417   0.07704961
5228.00   5.69404840   0.07614375
5230.00   5.70572996   0.07595032
5232.00   5.64084673   0.07581510
5234.00   5.85729074   0.07692090
5236.00   5.62781334   0.07611563
5238.00   5.51468897   0.07602752
5240.00   5.53967571   0.07633445
5242.00   5.55387449   0.07665520
5244.00   5.49190235   0.07625086
5246.00   5.57608891   0.07666661
5248.00   5.59287500   0.07674463
5250.00   5.75072384   0.07771850
5252.00   5.51697302   0.07660866
5254.00   5.52160978   0.07664359
5256.00   5.65762615   0.07722487
5258.00   5.56735134   0.07762340
5260.00   5.57054234   0.07749486
5262.00   5.69633532   0.07871611
5264.00   5.69432402   0.07838765
5266.00   5.82044458   0.07944819
5268.00   5.52365589   0.07757086
5270.00   5.49800444   0.07772139
5272.00   5.72383595   0.07888956
5274.00   5.74060440   0.07910518
5276.00   5.68729496   0.07902687
5278.00   5.63627100   0.07892299
5280.00   5.73562241   0.07918568
5282.00   5.52374458   0.07862352
5284.00   5.58677006   0.07874525
5286.00   5.54154301   0.07857767
5288.00   5.46377707   0.07811239
5290.00   5.50370073   0.07852789
5292.00   5.49730206   0.07822526
5294.00   5.59110355   0.07913285
5296.00   5.59244967   0.07943129
5298.00   5.55767584   0.07972663
5300.00   5.69062948   0.08139893
5302.00   5.58435822   0.08207939
5304.00   5.55373907   0.08076579
5306.00   5.55111408   0.08097651
5308.00   5.67721987   0.08191372
5310.00   5.95639086   0.08373792
5312.00   5.77992105   0.08317279
5314.00   5.87443209   0.08383997
5316.00   6.02197695   0.08487453
5318.00   5.98549557   0.08477272
5320.00   5.93719196   0.08470486
5322.00   5.58105850   0.08319410
5324.00   5.75851583   0.08416510
5326.00   5.86450148   0.08496080
5328.00   6.04720259   0.08637698
5330.00   5.92877340   0.08607469
5332.00   5.90422487   0.08587380
5334.00   5.82934093   0.08563238
5336.00   5.70969009   0.08567615
5338.00   5.75121260   0.08609852
5340.00   5.64645386   0.08615166
5342.00   5.73817825   0.08661423
5344.00   5.83100510   0.08725616
5346.00   5.76319122   0.08675003
5348.00   5.60665798   0.08691496
5350.00   5.75948524   0.08757683
5352.00   5.63480234   0.08708496
5354.00   5.35688400   0.08573106
5356.00   5.45187855   0.08648736
5358.00   5.43733501   0.08689217
5360.00   5.42328835   0.08657536
5362.00   5.35991144   0.08672965
5364.00   5.30664206   0.08653851
5366.00   5.24145699   0.08628854
5368.00   5.42198038   0.08729079
5370.00   5.47598362   0.08713307
5372.00   5.53545475   0.08833604
5374.00   5.41571093   0.08844477
5376.00   5.35739613   0.08803253
5378.00   5.27120018   0.08782360
5380.00   5.22746372   0.08791108
5382.00   5.26380348   0.08815368
5384.00   5.04745102   0.08682805
5386.00   5.03734636   0.08727893
5388.00   5.00769472   0.08699737
5390.00   4.96057701   0.08719578
5392.00   4.89706755   0.08703771
5394.00   4.91449785   0.08694483
5396.00   5.03170013   0.08779074
5398.00   4.76550770   0.08688230
5400.00   4.68104362   0.08625855
5402.00   4.81857252   0.08763680
5404.00   4.85301447   0.08819565
5406.00   4.73701000   0.08748520
5408.00   4.57142973   0.08726894
5410.00   4.71110010   0.08794197
5412.00   4.60607052   0.08766112
5414.00   4.48115015   0.08706100
5416.00   4.70503616   0.08828823
5418.00   4.69493628   0.08843938
5420.00   4.41041803   0.08775306
5422.00   4.47763348   0.08857068
5424.00   4.37527800   0.08797129
5426.00   4.40607643   0.08750819
5428.00   4.53459311   0.03835278
5430.00   4.61901474   0.03861558
5432.00   4.69299841   0.03840218
5434.00   4.71951580   0.03750673
5436.00   4.71672726   0.03596682
5438.00   4.72857332   0.03498637
5440.00   4.72904968   0.03396614
5442.00   4.75391722   0.03358456
5444.00   4.80298710   0.03334682
5446.00   4.85357809   0.03417836
5448.00   4.90207052   0.03696051
5450.00   4.94865179   0.04032331
5452.00   4.97463226   0.04128883
5454.00   4.95913363   0.04047151
5456.00   5.00862265   0.04045027
5458.00   5.10405207   0.03997532
5460.00   5.20823383   0.04040696
5462.00   5.33810949   0.04265651
5464.00   5.46064615   0.04484423
5466.00   5.50440836   0.04450355
5468.00   5.47115564   0.04231469
5470.00   5.52650499   0.04034040
5472.00   5.65010786   0.03640387
5474.00   5.74311399   0.03478936
5476.00   5.81726170   0.03624159
5478.00   5.87209034   0.03843733
5480.00   5.88785839   0.04019955
5482.00   5.86802816   0.04221024
5484.00   5.93210125   0.04183996
5486.00   6.06581163   0.03795753
5488.00   6.18439245   0.03692316
5490.00   6.33572769   0.03826793
5492.00   6.44484186   0.03990597
5494.00   6.46965933   0.04123832
5496.00   6.44132948   0.04258118
5498.00   6.41608572   0.04338731
5500.00   6.35354376   0.04426801
5502.00   6.32378721   0.04388446
5504.00   6.30459833   0.04210601
5506.00   6.29999876   0.04028101
5508.00   6.32379866   0.03839313
5510.00   6.35200739   0.03660707
5512.00   6.33396292   0.03590219
5514.00   6.27073145   0.03625084
5516.00   6.26055050   0.03618651
5518.00   6.29908562   0.03626310
5520.00   6.30689192   0.03619673
5522.00   6.28894424   0.03546296
5524.00   6.24890184   0.03525338
5526.00   6.17526245   0.03704264
5528.00   6.06607723   0.04022295
5530.00   6.00591755   0.04166326
5532.00   5.94118929   0.04265172
5534.00   5.95337105   0.04276957
5536.00   6.07476377   0.04187984
5538.00   6.18520927   0.04052413
5540.00   6.21524811   0.03872032
5542.00   6.20747709   0.03644609
5544.00   6.22724581   0.03533754
5546.00   6.25252438   0.03513880
5548.00   6.27912760   0.03507126
5550.00   6.31988096   0.03569577
5552.00   6.34283781   0.03608603
5554.00   6.33908606   0.03567284
5556.00   6.31815290   0.03524689
5558.00   6.28565311   0.03650751
5560.00   6.21415186   0.03958159
5562.00   6.21749973   0.04035975
5564.00   6.30709934   0.03971202
5566.00   6.34557104   0.03908721
5568.00   6.31179619   0.03809870
5570.00   6.26368332   0.03739248
5572.00   6.25481033   0.03824645
5574.00   6.26456499   0.04041501
5576.00   6.26881266   0.04072885
5578.00   6.28265476   0.03941416
5580.00   6.28337908   0.03911615
5582.00   6.26507282   0.03948772
5584.00   6.25116634   0.04033033
5586.00   6.25871134   0.04228352
5588.00   6.27846432   0.04482343
5590.00   6.28600502   0.04324551
5592.00   6.26897430   0.03519699
5594.00   6.29672480   0.03226348
5596.00   6.36420059   0.03360644
5598.00   6.43652248   0.03538308
5600.00   6.51588488   0.03703758
5602.00   6.59245300   0.03867209
5604.00   6.61273384   0.03856694
5606.00   6.58154869   0.03676768
5608.00   6.56144047   0.03576690
5610.00   6.51756430   0.03449774
5612.00   6.49590254   0.03387289
5614.00   6.50421095   0.03397143
5616.00   6.52616405   0.03468307
5618.00   6.55006695   0.03619354
5620.00   6.58916473   0.03877695
5622.00   6.58768368   0.03934263
5624.00   6.54530001   0.03868365
5626.00   6.51841164   0.03764592
5628.00   6.50895357   0.03554436
5630.00   6.49444580   0.03350674
5632.00   6.45558071   0.03257824
5634.00   6.40067959   0.03234053
5636.00   6.37548065   0.03315328
5638.00   6.37314510   0.03618716
5640.00   6.36483955   0.03690431
5642.00   6.35516739   0.03587664
5644.00   6.34991932   0.03463447
5646.00   6.35962868   0.03360636
5648.00   6.37208128   0.03258059
5650.00   6.34220123   0.03218853
5652.00   6.27747774   0.03254359
5654.00   6.21181822   0.03246035
5656.00   6.10937262   0.03218567
5658.00   6.04320621   0.03202341
5660.00   6.03689241   0.03184712
5662.00   6.05060959   0.03191033
5664.00   6.03463411   0.03289484
5666.00   6.01444006   0.03502553
5668.00   5.96087503   0.03509734
5670.00   5.85926533   0.03321130
5672.00   5.78227043   0.03216571
5674.00   5.73454046   0.03164504
5676.00   5.68856049   0.03185212
5678.00   5.62260771   0.03359810
5680.00   5.54534960   0.03656883
5682.00   5.48114681   0.03665731
5684.00   5.42635870   0.03387510
5686.00   5.36634350   0.03273655
5688.00   5.29493952   0.03283429
5690.00   5.23567390   0.03302048
5692.00   5.20355940   0.03261265
5694.00   5.18751049   0.03212075
5696.00   5.15970945   0.03300041
5698.00   5.13901234   0.03649386
5700.00   5.09526205   0.03624973
5702.00   5.02719736   0.03245516
5704.00   4.96308994   0.02944389
5706.00   4.89960480   0.02881213
5708.00   4.84576797   0.02917718
5710.00   4.83378601   0.02912725
5712.00   4.86527252   0.02932609
5714.00   4.87035370   0.02926164
5716.00   4.87495518   0.02900092
5718.00   4.86655807   0.02881617
5720.00   4.83822727   0.02875358
5722.00   4.80676842   0.02867571
5724.00   4.78916025   0.02834927
5726.00   4.77806187   0.02774200
5728.00   4.77051783   0.02818719
5730.00   4.77666283   0.02970414
5732.00   4.76740980   0.03070098
5734.00   4.73578024   0.03191582
5736.00   4.71220732   0.03231719
5738.00   4.71150970   0.03080249
5740.00   4.72580433   0.02790582
5742.00   4.76213789   0.02741295
5744.00   4.84316158   0.02915806
5746.00   4.88460445   0.02956253
5748.00   4.91238260   0.02923832
5750.00   4.91901112   0.02925443
5752.00   4.88990879   0.02987138
5754.00   4.84639502   0.03083151
5756.00   4.84209156   0.03211179
5758.00   4.86290407   0.03443809
5760.00   4.88055992   0.03449114
5762.00   4.90360594   0.03237154
5764.00   4.93238783   0.03076619
5766.00   4.97222137   0.02984632
5768.00   5.01222181   0.02926900
5770.00   5.03870964   0.02895650
5772.00   5.05813074   0.02888571
5774.00   5.06631565   0.02962135
5776.00   5.04331589   0.03155659
5778.00   5.05570745   0.03267838
5780.00   5.11355686   0.03351760
5782.00   5.16812992   0.03371015
5784.00   5.18294716   0.03248267
5786.00   5.17657757   0.03009055
5788.00   5.20138979   0.03021162
5790.00   5.25143528   0.03312592
5792.00   5.28645706   0.03367861
5794.00   5.31112814   0.03275121
5796.00   5.33995247   0.03161104
5798.00   5.38388729   0.03046621
5800.00   5.43060589   0.02926830
5802.00   5.44753551   0.02889752
5804.00   5.43726587   0.02920450
5806.00   5.43745947   0.02962261
5808.00   5.42077160   0.03080029
5810.00   5.43318176   0.03130770
5812.00   5.50051069   0.03084059
5814.00   5.57326317   0.03002245
5816.00   5.57509089   0.02953772
5818.00   5.51327944   0.02899939
5820.00   5.54093933   0.02907884
5822.00   5.65581083   0.02941326
5824.00   5.71461678   0.03044225
5826.00   5.72211599   0.03279471
5828.00   5.70851517   0.03463681
5830.00   5.68551350   0.03458117
5832.00   5.64599800   0.03329275
5834.00   5.62506580   0.03283864
5836.00   5.60699892   0.03287898
5838.00   5.60415459   0.03226359
5840.00   5.60838127   0.03067691
5842.00   5.63350677   0.02949338
5844.00   5.70411110   0.02934422
5846.00   5.79409075   0.02988709
5848.00   5.79959154   0.03109428
5850.00   5.70535421   0.03427123
5852.00   5.70268774   0.03439640
5854.00   5.75911856   0.03164120
5856.00   5.80562639   0.02973722
5858.00   5.84239626   0.02939741
5860.00   5.86377382   0.03005959
5862.00   5.83174467   0.03191055
5864.00   5.73147869   0.03539075
5866.00   5.72295713   0.03657731
5868.00   5.77328920   0.03694002
5870.00   5.82999849   0.03626224
5872.00   5.91717720   0.03343462
5874.00   5.99227762   0.03056540
5876.00   6.01035833   0.03059158
5878.00   5.99242878   0.03253416
5880.00   5.93522739   0.03322564
5882.00   5.78964424   0.03356967
5884.00   5.71663857   0.03411904
5886.00   5.69146204   0.03449436
5888.00   5.69491959   0.03535686
5890.00   5.74134207   0.03717419
5892.00   5.81471157   0.03947815
5894.00   5.78975725   0.04114128
5896.00   5.62313366   0.04431344
5898.00   5.61312819   0.04324756
5900.00   5.72895050   0.03669725
5902.00   5.81780815   0.03121486
5904.00   5.83735275   0.03039215
5906.00   5.83658075   0.03151657
5908.00   5.86976242   0.03074483
5910.00   5.92970228   0.02888934
5912.00   5.95113659   0.02895318
5914.00   5.94613981   0.03078920
5916.00   5.93880510   0.03203006
5918.00   5.92574739   0.03303329
5920.00   5.91117430   0.03347164
5922.00   5.90237141   0.03243801
5924.00   5.89551020   0.02983071
5926.00   5.89609766   0.02918421
5928.00   5.92424250   0.03033848
5930.00   5.91076279   0.03040854
5932.00   5.85584879   0.02946205
5934.00   5.78831339   0.02853628
5936.00   5.71694231   0.02828880
5938.00   5.63793898   0.02838235
5940.00   5.59362030   0.02827667
5942.00   5.60264206   0.02819432
5944.00   5.55333662   0.02802402
5946.00   5.44733572   0.02769486
5948.00   5.36047840   0.02747294
5950.00   5.32111263   0.02748543
5952.00   5.30076027   0.02759727
5954.00   5.25948191   0.02757248
5956.00   5.21102142   0.02753017
5958.00   5.16150331   0.02734804
5960.00   5.11535597   0.02699921
5962.00   5.05423641   0.02666033
5964.00   4.97380209   0.02620941
5966.00   4.88351583   0.02588227
5968.00   4.78870916   0.02610021
5970.00   4.67726421   0.02678649
5972.00   4.61886835   0.02716404
5974.00   4.62133932   0.02764472
5976.00   4.59059572   0.02773923
5978.00   4.53871441   0.02743067
5980.00   4.46919489   0.02692709
5982.00   4.37523699   0.02630039
5984.00   4.25956011   0.02549060
5986.00   4.16187906   0.02494548
5988.00   4.06050444   0.02457206
5990.00   3.98184252   0.02421104
5992.00   3.93066311   0.02392676
5994.00   3.87755322   0.02366226
5996.00   3.80859542   0.02338809
5998.00   3.73591352   0.02313005
6000.00   3.68126154   0.02292425
6002.00   3.64907837   0.02260047
6004.00   3.59197903   0.02275869
6006.00   3.50792861   0.02324641
6008.00   3.44340611   0.02395388
6010.00   3.40746522   0.02531740
6012.00   3.38461876   0.02643574
6014.00   3.36247492   0.02582259
6016.00   3.35426497   0.02352908
6018.00   3.31238413   0.02240478
6020.00   3.24595809   0.02166407
6022.00   3.17324495   0.02115130
6024.00   3.08115101   0.02100409
6026.00   2.99470758   0.02100862
6028.00   2.93710828   0.02098334
6030.00   2.89758778   0.02102615
6032.00   2.87105775   0.02093094
6034.00   2.87296772   0.02070510
6036.00   2.85886002   0.02054496
6038.00   2.84167910   0.02042377
6040.00   2.81305552   0.02030259
6042.00   2.76279974   0.02015652
6044.00   2.70010924   0.02000576
6046.00   2.65913916   0.01991315
6048.00   2.63407874   0.01990231
6050.00   2.60195112   0.01981417
6052.00   2.56937790   0.01965928
6054.00   2.53686619   0.01953794
6056.00   2.50417423   0.01949186
6058.00   2.47177649   0.01946017
6060.00   2.44047832   0.01933544
6062.00   2.40838480   0.01908475
6064.00   2.38341975   0.01908267
6066.00   2.35344267   0.01896996
6068.00   2.34747744   0.01947392
6070.00   2.38477516   0.02117965
6072.00   2.41845965   0.02249167
6074.00   2.39606071   0.02186767
6076.00   2.33429265   0.01966673
6078.00   2.31302905   0.01910394
6080.00   2.32442713   0.01978721
6082.00   2.30910373   0.01983010
6084.00   2.25516033   0.01927697
6086.00   2.22041535   0.01891087
6088.00   2.24306607   0.01931335
6090.00   2.29886580   0.02008482
6092.00   2.32633495   0.02003985
6094.00   2.35015321   0.01919057
6096.00   2.36076260   0.01890907
6098.00   2.34307885   0.01887124
6100.00   2.34572935   0.01894280
6102.00   2.38985062   0.01913797
6104.00   2.44936562   0.01940890
6106.00   2.48116469   0.01958797
6108.00   2.50329018   0.01975987
6110.00   2.50977731   0.01984270
6112.00   2.47586036   0.01983788
6114.00   2.47998071   0.01981926
6116.00   2.54003692   0.01970601
6118.00   2.61177039   0.01965836
6120.00   2.64904118   0.01982083
6122.00   2.66811013   0.02002598
6124.00   2.70057821   0.02107641
6126.00   2.73751330   0.02355955
6128.00   2.77464032   0.02443499
6130.00   2.81846905   0.02389037
6132.00   2.85499430   0.02298800
6134.00   2.86819887   0.02212156
6136.00   2.86678743   0.02106923
6138.00   2.90262699   0.02140887
6140.00   2.98187327   0.02393054
6142.00   3.02425671   0.02403599
6144.00   3.03294396   0.02191429
6146.00   3.05476928   0.02015765
6148.00   3.11054564   0.01999192
6150.00   3.17960048   0.02055130
6152.00   3.22566700   0.02085880
6154.00   3.25477123   0.02124794
6156.00   3.29761577   0.02182713
6158.00   3.33620405   0.02293646
6160.00   3.39568114   0.02343987
6162.00   3.48972082   0.02300897
6164.00   3.59121561   0.02236290
6166.00   3.66459227   0.02236255
6168.00   3.72426462   0.02253621
6170.00   3.77370858   0.02362278
6172.00   3.79909921   0.02638676
6174.00   3.83968449   0.02733562
6176.00   3.89466643   0.02657875
6178.00   3.95378947   0.02526811
6180.00   4.01455641   0.02392106
6182.00   4.07906246   0.02214702
6184.00   4.11983204   0.02207983
6186.00   4.13267946   0.02395348
6188.00   4.16192961   0.02469704
6190.00   4.19475365   0.02510529
6192.00   4.23760414   0.02510652
6194.00   4.29707956   0.02437419
6196.00   4.36665010   0.02323102
6198.00   4.42708111   0.02315354
6200.00   4.50238943   0.02426971
6202.00   4.53050613   0.02417463
6204.00   4.49994755   0.02294385
6206.00   4.49585629   0.02235829
6208.00   4.53380060   0.02298032
6210.00   4.59032345   0.02394675
6212.00   4.64880705   0.02432888
6214.00   4.72665071   0.02458844
6216.00   4.76517677   0.02436431
6218.00   4.75242519   0.02305811
6220.00   4.78088284   0.02277729
6222.00   4.86462879   0.02390325
6224.00   4.95138502   0.02510540
6226.00   4.99976826   0.02548533
6228.00   5.02863884   0.02550932
6230.00   5.04517078   0.02512854
6232.00   5.03686714   0.02346222
6234.00   5.03621721   0.02330426
6236.00   5.03462219   0.02454234
6238.00   5.03675270   0.02597186
6240.00   5.03958416   0.02744631
6242.00   5.04734898   0.02890733
6244.00   5.09390402   0.02877807
6246.00   5.18465519   0.02680059
6248.00   5.25988150   0.02574829
6250.00   5.36178255   0.02464480
6252.00   5.42200422   0.02399152
6254.00   5.40897655   0.02414204
6256.00   5.36768389   0.02462482
6258.00   5.37257433   0.02455715
6260.00   5.39916515   0.02403850
6262.00   5.42409754   0.02425743
6264.00   5.46669579   0.02529917
6266.00   5.49095726   0.02576022
6268.00   5.48862076   0.02531770
6270.00   5.48246813   0.02491342
6272.00   5.49344683   0.02561883
6274.00   5.51209211   0.02708676
6276.00   5.53939342   0.02750891
6278.00   5.59457064   0.02754854
6280.00   5.61567163   0.02710037
6282.00   5.60517979   0.02567238
6284.00   5.58451748   0.02439079
6286.00   5.56180000   0.02412486
6288.00   5.53307056   0.02444134
6290.00   5.51298237   0.02457297
6292.00   5.50740194   0.02455963
6294.00   5.47941685   0.02516376
6296.00   5.42179012   0.02658335
6298.00   5.38142395   0.02758804
6300.00   5.38031101   0.02734763
6302.00   5.39282560   0.02703480
6304.00   5.37153578   0.02938310
6306.00   5.31960917   0.03439993
6308.00   5.30120277   0.03574205
6310.00   5.27401209   0.03549710
6312.00   5.30444765   0.03415683
6314.00   5.42700863   0.03061976
6316.00   5.56754446   0.02630537
6318.00   5.64125919   0.02453179
6320.00   5.68961716   0.02471305
6322.00   5.67497492   0.02423748
6324.00   5.55277729   0.02406834
6326.00   5.50003195   0.02390026
6328.00   5.50508547   0.02376384
6330.00   5.53175020   0.02370108
6332.00   5.57368851   0.02377305
6334.00   5.63478994   0.02395073
6336.00   5.63114262   0.02387967
6338.00   5.54870844   0.02295906
6340.00   5.52939320   0.02356708
6342.00   5.56054401   0.02609892
6344.00   5.58213949   0.02760671
6346.00   5.57209063   0.02714199
6348.00   5.54850435   0.02568047
6350.00   5.53019619   0.02478148
6352.00   5.49707508   0.02356332
6354.00   5.49968147   0.02318240
6356.00   5.54099846   0.02367350
6358.00   5.56870270   0.02403647
6360.00   5.57689476   0.02421306
6362.00   5.57609558   0.02431571
6364.00   5.57023144   0.02429550
6366.00   5.55330896   0.02412800
6368.00   5.55202007   0.02408713
6370.00   5.56935644   0.02417204
6372.00   5.57005167   0.02411856
6374.00   5.55034018   0.02388634
6376.00   5.52863646   0.02363688
6378.00   5.51976252   0.02349491
6380.00   5.51737499   0.02340411
6382.00   5.50366497   0.02331788
6384.00   5.47913408   0.02323613
6386.00   5.46176815   0.02321169
6388.00   5.45265532   0.02328945
6390.00   5.43859005   0.02332343
6392.00   5.39418125   0.02315866
6394.00   5.34619474   0.02294245
6396.00   5.40831709   0.02321609
6398.00   5.66667891   0.02391904
6400.00   5.66729164   0.02451255
6402.00   5.43289232   0.02556384
6404.00   5.27907467   0.02590886
6406.00   5.27381849   0.02483365
6408.00   5.32273483   0.02348585
6410.00   5.33815098   0.02422695
6412.00   5.35469770   0.02679884
6414.00   5.37543631   0.02714218
6416.00   5.40964937   0.02599010
6418.00   5.42644310   0.02514606
6420.00   5.42160034   0.02455804
6422.00   5.41039181   0.02403897
6424.00   5.40454578   0.02355751
6426.00   5.39825726   0.02312098
6428.00   5.39669275   0.02288117
6430.00   5.40297270   0.02236584
6432.00   5.40160370   0.02294797
6434.00   5.40179396   0.02529918
6436.00   5.38814878   0.02676057
6438.00   5.34051991   0.02595766
6440.00   5.27475739   0.02380708
6442.00   5.26704979   0.02292319
6444.00   5.32928133   0.02257188
6446.00   5.32945824   0.02231515
6448.00   5.28334999   0.02242530
6450.00   5.25154448   0.02253209
6452.00   5.25024605   0.02255820
6454.00   5.26166058   0.02257718
6456.00   5.26879501   0.02260848
6458.00   5.27798605   0.02265338
6460.00   5.29057550   0.02267109
6462.00   5.32206726   0.02268354
6464.00   5.32530022   0.02266323
6466.00   5.28548956   0.02258932
6468.00   5.23894405   0.02250816
6470.00   5.22732258   0.02246544
6472.00   5.23935223   0.02243274
6474.00   5.21287107   0.02248485
6476.00   5.14267921   0.02267930
6478.00   5.10924196   0.02275564
6480.00   5.12250757   0.02238370
6482.00   5.12504768   0.02247547
6484.00   5.07270622   0.02401149
6486.00   4.99036837   0.02623005
6488.00   4.96517134   0.02612581
6490.00   4.96802235   0.02353261
6492.00   4.99430609   0.02248861
6494.00   5.07235718   0.02226480
6496.00   5.12924051   0.02222326
6498.00   5.14151955   0.02226770
6500.00   5.12979984   0.02242460
6502.00   5.11054134   0.02240200
6504.00   5.06574583   0.02226138
6506.00   5.04368258   0.02220524
6508.00   5.03388071   0.02219793
6510.00   5.02408886   0.02216481
6512.00   5.01375914   0.02205062
6514.00   5.00438309   0.02196701
6516.00   4.99548244   0.02209039
6518.00   4.98627615   0.02241060
6520.00   4.98355293   0.02246610
6522.00   4.98828888   0.02198801
6524.00   4.99068546   0.02227463
6526.00   4.99611902   0.02377715
6528.00   4.99520254   0.02488101
6530.00   4.97986317   0.02433932
6532.00   4.95398998   0.02269282
6534.00   4.92388725   0.02265364
6536.00   4.85741758   0.02422133
6538.00   4.85290003   0.02438209
6540.00   4.92201233   0.02342296
6542.00   4.97227144   0.02250079
6544.00   4.96114540   0.02205162
6546.00   4.92413044   0.02181453
6548.00   4.91950750   0.02176861
6550.00   4.93934011   0.02202386
6552.00   4.93247080   0.02220777
6554.00   4.90848541   0.02256260
6556.00   4.88378191   0.02271126
6558.00   4.85790730   0.02238197
6560.00   4.83239269   0.02206812
6562.00   4.81317902   0.02267445
6564.00   4.79556847   0.02419896
6566.00   4.79255295   0.02425390
6568.00   4.80336380   0.02274611
6570.00   4.81780243   0.02228536
6572.00   4.84833145   0.02336081
6574.00   4.86931992   0.02428318
6576.00   4.85278177   0.02367987
6578.00   4.80922842   0.02201820
6580.00   4.78528595   0.02161419
6582.00   4.77205706   0.02191709
6584.00   4.74757147   0.02233037
6586.00   4.70686579   0.02338509
6588.00   4.67464638   0.02399402
6590.00   4.66318655   0.02355356
6592.00   4.66418266   0.02250569
6594.00   4.66672277   0.02192943
6596.00   4.68572426   0.02137320
6598.00   4.68328476   0.02108938
6600.00   4.65729380   0.02113504
6602.00   4.64491367   0.02117767
6604.00   4.66288519   0.02113735
6606.00   4.68627691   0.02111626
6608.00   4.67412949   0.02119007
6610.00   4.63465452   0.02120881
6612.00   4.60777473   0.02175788
6614.00   4.57673883   0.02335955
6616.00   4.55444813   0.02378236
6618.00   4.54121923   0.02262828
6620.00   4.53425980   0.02114813
6622.00   4.53509474   0.02067611
6624.00   4.54635048   0.02070476
6626.00   4.53242636   0.02089761
6628.00   4.48928642   0.02145853
6630.00   4.46723843   0.02205619
6632.00   4.45648336   0.02316846
6634.00   4.45789337   0.02372787
6636.00   4.48150826   0.02293080
6638.00   4.51947594   0.02122919
6640.00   4.51720762   0.02060617
6642.00   4.47824144   0.02064859
6644.00   4.45565605   0.02058579
6646.00   4.43270683   0.02068478
6648.00   4.41482830   0.02080742
6650.00   4.39959717   0.02092697
6652.00   4.39180183   0.02106174
6654.00   4.40892315   0.02115251
6656.00   4.46200466   0.02091659
6658.00   4.47294140   0.02168916
6660.00   4.46067286   0.02410391
6662.00   4.44003916   0.02481223
6664.00   4.40336609   0.02316960
6666.00   4.36522675   0.02084288
6668.00   4.34619808   0.02004793
6670.00   4.33760405   0.02006550
6672.00   4.33743954   0.02014164
6674.00   4.36368942   0.02044824
6676.00   4.36206102   0.02119829
6678.00   4.33132410   0.02305263
6680.00   4.29518366   0.02416323
6682.00   4.26453209   0.02316603
6684.00   4.23376226   0.02064903
6686.00   4.22070694   0.01977990
6688.00   4.23077393   0.02000136
6690.00   4.22556448   0.01993018
6692.00   4.22191381   0.01992857
6694.00   4.20104551   0.01997951
6696.00   4.14499474   0.01996098
6698.00   4.07513428   0.02003651
6700.00   4.04901218   0.02075343
6702.00   4.05442762   0.02250144
6704.00   4.05392218   0.02269281
6706.00   4.06671381   0.02158499
6708.00   4.07004499   0.02077030
6710.00   4.05394840   0.02042506
6712.00   4.03789616   0.02029212
6714.00   4.05173206   0.02026148
6716.00   4.09556389   0.02028105
6718.00   4.08869648   0.02098240
6720.00   4.02378654   0.02313673
6722.00   4.00298929   0.02353194
6724.00   4.02991915   0.02161628
6726.00   4.06569958   0.01959678
6728.00   4.08310080   0.01946245
6730.00   4.09459257   0.02035949
6732.00   4.12356281   0.02246753
6734.00   4.20112276   0.02775525
6736.00   4.19980431   0.02832492
6738.00   4.10718203   0.02421573
6740.00   4.03187132   0.02011252
6742.00   4.02145767   0.01944900
6744.00   4.04085398   0.02045457
6746.00   4.04775143   0.02049349
6748.00   4.06614685   0.02055254
6750.00   4.06533957   0.02055833
6752.00   4.03453779   0.02051695
6754.00   4.03016710   0.02047313
6756.00   4.07566357   0.02026401
6758.00   4.13226318   0.02018798
6760.00   4.14222431   0.02093054
6762.00   4.12085342   0.02261298
6764.00   4.11184311   0.02272115
6766.00   4.10739470   0.02150676
6768.00   4.08946705   0.02065527
6770.00   4.04694605   0.02010227
6772.00   4.00842333   0.01970692
6774.00   4.00164318   0.01948515
6776.00   4.01550913   0.01944338
6778.00   4.02491045   0.01953516
6780.00   4.03347969   0.01973370
6782.00   4.05652475   0.02016429
6784.00   4.11430216   0.02120682
6786.00   4.14773369   0.02177835
6788.00   4.11391735   0.02119407
6790.00   4.04417610   0.01991878
6792.00   4.03199816   0.01947903
6794.00   4.06103230   0.01944032
6796.00   4.07292509   0.01953526
6798.00   4.09923601   0.01978729
6800.00   4.09972048   0.02033352
6802.00   4.05019093   0.02159602
6804.00   3.98591161   0.02278625
6806.00   3.97214627   0.02233598
6808.00   3.99078488   0.02012063
6810.00   4.00623178   0.01937568
6812.00   4.04478836   0.01948938
6814.00   4.06101131   0.01954683
6816.00   4.05287695   0.01957935
6818.00   4.03072309   0.01964377
6820.00   3.99496913   0.01967401
6822.00   3.93784475   0.01966870
6824.00   3.93125224   0.01991873
6826.00   3.98888302   0.02055528
6828.00   3.99267483   0.02083196
6830.00   3.94188023   0.02082414
6832.00   3.88962841   0.02069886
6834.00   3.86153722   0.02051329
6836.00   3.84402728   0.02023630
6838.00   3.84660101   0.01997526
6840.00   3.87856746   0.01959476
6842.00   3.89766693   0.01941671
6844.00   3.92740059   0.01941713
6846.00   3.93499565   0.01943890
6848.00   3.90105057   0.01941024
6850.00   3.84900427   0.01941218
6852.00   3.82698560   0.01960350
6854.00   3.81928039   0.02006793
6856.00   3.81455398   0.02017548
6858.00   3.81985712   0.01986909
6860.00   3.82470250   0.01988908
6862.00   3.83804798   0.02033006
6864.00   3.84238338   0.02094291
6866.00   3.80728912   0.02159774
6868.00   3.73548436   0.02246697
6870.00   3.70202255   0.02261928
6872.00   3.68581462   0.02215993
6874.00   3.67701817   0.02174254
6876.00   3.67769885   0.02117735
6878.00   3.68642044   0.02066972
6880.00   3.70307708   0.02041343
6882.00   3.72785234   0.02032268
6884.00   3.75021982   0.02036517
6886.00   3.78358960   0.02073204
6888.00   3.79575491   0.02082680
6890.00   3.79294991   0.02074900
6892.00   3.77963567   0.02062882
6894.00   3.74875236   0.02044975
6896.00   3.71056461   0.02025734
6898.00   3.70636582   0.02033354
6900.00   3.73729420   0.02078585
6902.00   3.74003243   0.02079266
6904.00   3.72487259   0.02044911
6906.00   3.71691990   0.02018999
6908.00   3.72405005   0.02005025
6910.00   3.73189998   0.01998271
6912.00   3.71920061   0.01995061
6914.00   3.68407536   0.01979397
6916.00   3.69039273   0.02055384
6918.00   3.74318480   0.02291400
6920.00   3.76486135   0.02348457
6922.00   3.75201607   0.02193525
6924.00   3.73317575   0.02002074
6926.00   3.72937202   0.01941345
6928.00   3.73154855   0.01946968
6930.00   3.71899366   0.01939108
6932.00   3.67643404   0.01946951
6934.00   3.67613769   0.01964280
6936.00   3.72916317   0.02008091
6938.00   3.76598787   0.02036887
6940.00   3.74828839   0.02023834
6942.00   3.70530677   0.01991371
6944.00   3.69725227   0.02001690
6946.00   3.71470594   0.02056570
6948.00   3.71359730   0.02068632
6950.00   3.71043086   0.02062488
6952.00   3.69557667   0.02043017
6954.00   3.65562916   0.01998630
6956.00   3.61338139   0.01948568
6958.00   3.61508894   0.01937786
6960.00   3.66079545   0.01956592
6962.00   3.65532470   0.01966631
6964.00   3.60643530   0.01992933
6966.00   3.58043194   0.01996052
6968.00   3.58269167   0.01966959
6970.00   3.58922839   0.01932242
6972.00   3.57994604   0.01916035
6974.00   3.56199050   0.01907645
6976.00   3.55946517   0.01907720
6978.00   3.57291651   0.01913879
6980.00   3.57501793   0.01933037
6982.00   3.56168532   0.01956140
6984.00   3.55641341   0.02001082
6986.00   3.57847953   0.02103635
6988.00   3.61433887   0.02227683
6990.00   3.61337972   0.02206413
6992.00   3.57346511   0.02008466
6994.00   3.56256986   0.01929530
6996.00   3.56279540   0.01902134
6998.00   3.57035494   0.01899258
7000.00   3.58634639   0.01910027
7002.00   3.60846376   0.01947632
7004.00   3.63124323   0.02040004
7006.00   3.66880083   0.02230680
7008.00   3.66696692   0.02240698
7010.00   3.62260723   0.02047820
7012.00   3.59434795   0.01976075
7014.00   3.59496546   0.02094062
7016.00   3.59179926   0.02238057
7018.00   3.54585743   0.02280605
7020.00   3.46294045   0.02280610
7022.00   3.43908477   0.02262131
7024.00   3.45930982   0.02204665
7026.00   3.47211170   0.02144564
7028.00   3.48781371   0.02062641
7030.00   3.50221515   0.01987181
7032.00   3.50894141   0.01940135
7034.00   3.51152515   0.01912349
7036.00   3.52466750   0.01903410
7038.00   3.55195570   0.01929354
7040.00   3.56442523   0.01938956
7042.00   3.57143021   0.01944816
7044.00   3.56815243   0.01949164
7046.00   3.54881740   0.01955340
7048.00   3.52080297   0.01958787
7050.00   3.50333834   0.01945092
7052.00   3.48610854   0.01904303
7054.00   3.48143125   0.01897650
7056.00   3.48968911   0.01915690
7058.00   3.49892044   0.01932522
7060.00   3.50897646   0.01948567
7062.00   3.52043533   0.01963676
7064.00   3.53276205   0.01964065
7066.00   3.54806828   0.01934255
7068.00   3.55365539   0.02016729
7070.00   3.54536986   0.02266275
7072.00   3.54868388   0.02336731
7074.00   3.56349277   0.02217772
7076.00   3.58189225   0.02066561
7078.00   3.60291839   0.02006744
7080.00   3.62785077   0.01984770
7082.00   3.62639308   0.01957273
7084.00   3.58889651   0.01943782
7086.00   3.58090186   0.01931064
7088.00   3.59200668   0.01919086
7090.00   3.60880828   0.01916477
7092.00   3.63150287   0.01927381
7094.00   3.65729833   0.01948185
7096.00   3.66399026   0.01973586
7098.00   3.66299677   0.02029051
7100.00   3.64240170   0.02026101
7102.00   3.58000350   0.01962043
7104.00   3.54907703   0.01918614
7106.00   3.57358408   0.01911760
7108.00   3.61285186   0.01919636
7110.00   3.61171818   0.01920117
7112.00   3.58337522   0.01905236
7114.00   3.58030510   0.01969872
7116.00   3.60193419   0.02168172
7118.00   3.59953570   0.02222632
7120.00   3.56476116   0.02103877
7122.00   3.52789044   0.01953753
7124.00   3.51363206   0.01893168
7126.00   3.51114225   0.01867216
7128.00   3.50796175   0.01955305
7130.00   3.50246453   0.02255878
7132.00   3.51339483   0.02316060
7134.00   3.54884410   0.02153252
7136.00   3.57813931   0.01992483
7138.00   3.58719850   0.01953867
7140.00   3.58476496   0.01975872
7142.00   3.57526255   0.02040275
7144.00   3.53278065   0.02242062
7146.00   3.54060626   0.02257127
7148.00   3.60360098   0.02121905
7150.00   3.63980460   0.02005559
7152.00   3.63056493   0.01948102
7154.00   3.59832263   0.01915422
7156.00   3.55859566   0.01895132
7158.00   3.48758841   0.01891615
7160.00   3.47141123   0.01912007
7162.00   3.49766135   0.01945245
7164.00   3.52330256   0.02014481
7166.00   3.56086349   0.02164121
7168.00   3.59001732   0.02281226
7170.00   3.57861090   0.02249756
7172.00   3.53453255   0.02101565
7174.00   3.52544689   0.02048960
7176.00   3.53392291   0.02032625
7178.00   3.54439688   0.02028777
7180.00   3.56394148   0.02023757
7182.00   3.58218312   0.02062541
7184.00   3.59371424   0.02198901
7186.00   3.60134864   0.02380911
7188.00   3.60076594   0.02404255
7190.00   3.59259343   0.02294389
7192.00   3.57984662   0.02227053
7194.00   3.56048846   0.02133645
7196.00   3.53780484   0.02066271
7198.00   3.51005602   0.02048190
7200.00   3.48052263   0.02058570
7202.00   3.46067476   0.02069482
7204.00   3.45495272   0.02113446
7206.00   3.42498612   0.02095092
7208.00   3.36738634   0.02013152
7210.00   3.32663083   0.01952322
7212.00   3.30416536   0.01912253
7214.00   3.29379368   0.01892320
7216.00   3.29743934   0.01904051
7218.00   3.32021809   0.01941554
7220.00   3.31613469   0.02008810
7222.00   3.28367448   0.02166378
7224.00   3.27423096   0.02207889
7226.00   3.29101110   0.02095630
7228.00   3.30721402   0.02004355
7230.00   3.30481863   0.02089302
7232.00   3.29304576   0.02263253
7234.00   3.28987598   0.02290441
7236.00   3.29457045   0.02217633
7238.00   3.28898859   0.02175340
7240.00   3.26984692   0.02121132
7242.00   3.25802517   0.02079561
7244.00   3.26563358   0.02066235
7246.00   3.28010583   0.02067042
7248.00   3.27309322   0.02052324
7250.00   3.24504495   0.02029163
7252.00   3.23588228   0.02012817
7254.00   3.24355388   0.01968872
7256.00   3.23924327   0.01983409
7258.00   3.21531510   0.02109503
7260.00   3.18637133   0.02233794
7262.00   3.16904402   0.02214174
7264.00   3.15627694   0.02080924
7266.00   3.14886117   0.02020459
7268.00   3.15355134   0.01959897
7270.00   3.14879656   0.01946441
7272.00   3.13503385   0.02006351
7274.00   3.11747956   0.02065613
7276.00   3.09651971   0.02067287
7278.00   3.07107401   0.02038172
7280.00   3.06332374   0.02027132
7282.00   3.07350445   0.02020600
7284.00   3.07630491   0.02008811
7286.00   3.08007622   0.01986474
7288.00   3.07811427   0.01972793
7290.00   3.06334686   0.01980918
7292.00   3.04258728   0.01999453
7294.00   3.03855157   0.01998730
7296.00   3.05078697   0.01985335
7298.00   3.05100632   0.01974680
7300.00   3.05080843   0.01961806
7302.00   3.04122782   0.01947612
7304.00   3.01271296   0.01893707
7306.00   2.98179150   0.01868735
7308.00   2.97891378   0.02026210
7310.00   2.99960399   0.02360670
7312.00   3.00233674   0.02416504
7314.00   3.00304437   0.02283636
7316.00   2.99300385   0.02171584
7318.00   2.96878099   0.02048067
7320.00   2.93976378   0.01941222
7322.00   2.91564345   0.01919374
7324.00   2.89308786   0.01966245
7326.00   2.85696006   0.01950366
7328.00   2.79621267   0.01894075
7330.00   2.76247883   0.01864020
7332.00   2.75118947   0.01849102
7334.00   2.74764276   0.01845564
7336.00   2.74607682   0.01856706
7338.00   2.74970555   0.01878965
7340.00   2.75673151   0.01888872
7342.00   2.77536154   0.01898965
7344.00   2.78001070   0.01895634
7346.00   2.78733850   0.01879952
7348.00   2.77177191   0.01859544
7350.00   2.71061325   0.01830150
7352.00   2.63798308   0.01799403
7354.00   2.62556434   0.01787773
7356.00   2.66398859   0.01777104
7358.00   2.66617346   0.01816257
7360.00   2.66529608   0.01936208
7362.00   2.64284730   0.01989824
7364.00   2.58470559   0.01966748
7366.00   2.52297783   0.01916769
7368.00   2.49427986   0.01877894
7370.00   2.48515725   0.01828073
7372.00   2.47040534   0.01811297
7374.00   2.46525335   0.01837059
7376.00   2.44770980   0.01832503
7378.00   2.41858268   0.01782538
7380.00   2.38523865   0.01753734
7382.00   2.34780931   0.01793943
7384.00   2.30676651   0.01873961
7386.00   2.28671551   0.01932506
7388.00   2.28352761   0.02033601
7390.00   2.28219032   0.02035717
7392.00   2.29461980   0.01938454
7394.00   2.29947066   0.01842328
7396.00   2.28868341   0.01773006
7398.00   2.27032733   0.01716963
7400.00   2.25572443   0.01698447
7402.00   2.24371028   0.01732020
7404.00   2.22115755   0.01725926
7406.00   2.18161464   0.01698221
7408.00   2.15555477   0.01677160
7410.00   2.14403152   0.01660183
7412.00   2.14360857   0.01651805
7414.00   2.15849137   0.01666987
7416.00   2.19495606   0.01706943
7418.00   2.19570160   0.01714432
7420.00   2.16554117   0.01696788
7422.00   2.14693856   0.01689516
7424.00   2.13062644   0.01687164
7426.00   2.12397146   0.01690675
7428.00   2.13951397   0.01701686
7430.00   2.17167640   0.01719136
7432.00   2.17725301   0.01747761
7434.00   2.16959596   0.01784532
7436.00   2.15365267   0.01831633
7438.00   2.11628342   0.01920005
7440.00   2.08890772   0.01963413
7442.00   2.08230591   0.01922192
7444.00   2.08901215   0.01831690
7446.00   2.10856843   0.01765740
7448.00   2.15797091   0.01676142
7450.00   2.17345190   0.01640295
7452.00   2.16526270   0.01658961
7454.00   2.15885925   0.01672191
7456.00   2.15415168   0.01672882
7458.00   2.15212297   0.01672850
7460.00   2.16199970   0.01678247
7462.00   2.18519974   0.01687765
7464.00   2.19111586   0.01693998
7466.00   2.18596339   0.01699489
7468.00   2.18042850   0.01703700
7470.00   2.17139959   0.01706269
7472.00   2.16318798   0.01708186
7474.00   2.16238785   0.01710501
7476.00   2.16696692   0.01712840
7478.00   2.15629172   0.01712867
7480.00   2.12830210   0.01716762
7482.00   2.11221743   0.01707061
7484.00   2.10015559   0.01647296
7486.00   2.09598327   0.01639683
7488.00   2.10784674   0.01754816
7490.00   2.12772775   0.01921172
7492.00   2.12093043   0.01994171
7494.00   2.07932639   0.02066584
7496.00   2.07529974   0.02024827
7498.00   2.10306692   0.01805805
7500.00   2.11880803   0.01647741
7502.00   2.11427164   0.01649489
7504.00   2.09950042   0.01709453
7506.00   2.07917047   0.01703335
7508.00   2.04471707   0.01668108
7510.00   2.02994442   0.01667117
7512.00   2.02686524   0.01689432
7514.00   2.02775168   0.01708508
7516.00   2.03379822   0.01726904
7518.00   2.04375482   0.01743783
7520.00   2.05602026   0.01757343
7522.00   2.07173610   0.01769895
7524.00   2.08623457   0.01765679
7526.00   2.10329556   0.01736345
7528.00   2.11579990   0.01724782
7530.00   2.12702894   0.01728855
7532.00   2.13220859   0.01734012
7534.00   2.12588167   0.01735193
7536.00   2.11196542   0.01734803
7538.00   2.10859370   0.01723529
7540.00   2.10483122   0.01691315
7542.00   2.11579132   0.01682358
7544.00   2.14669919   0.01690932
7546.00   2.17161918   0.01699360
7548.00   2.18015718   0.01703293
7550.00   2.18487573   0.01707017
7552.00   2.20613265   0.01713057
7554.00   2.24113202   0.01718639
7556.00   2.26716924   0.01731647
7558.00   2.29208922   0.01752586
7560.00   2.31335902   0.01772271
7562.00   2.33145070   0.01794307
7564.00   2.34562230   0.01812126
7566.00   2.35444927   0.01814789
7568.00   2.35827756   0.01804063
7570.00   2.35938025   0.01806000
7572.00   2.34836149   0.01818087
7574.00   2.35239100   0.01821501
7576.00   2.37483144   0.01818227
7578.00   2.39688396   0.01810960
7580.00   2.40628099   0.01795949
7582.00   2.40950847   0.01775219
7584.00   2.41690516   0.01784279
7586.00   2.41594362   0.01798774
7588.00   2.43623829   0.01857082
7590.00   2.48371196   0.01873617
7592.00   2.52208424   0.02039397
7594.00   2.54082870   0.02291684
7596.00   2.54789662   0.02672348
7598.00   2.54342222   0.03421915
7600.00   2.50960231   0.04648721
7602.00   2.51770926   0.04830651
7604.00   2.56756496   0.04249934
7606.00   2.59714794   0.03772695
7608.00   2.59622049   0.03570310
7610.00   2.58576083   0.03423317
7612.00   2.58332086   0.03135113
7614.00   2.57742333   0.02701130
7616.00   2.59503150   0.02515383
7618.00   2.65547562   0.02621801
7620.00   2.67236137   0.02626943
7622.00   2.63242841   0.02532539
7624.00   2.59331036   0.02455711
7626.00   2.60255480   0.02490223
7628.00   2.63895226   0.02593789
7630.00   2.63112140   0.02616800
7632.00   2.57059693   0.02587720
7634.00   2.56471300   0.02584984
7636.00   2.60606456   0.02614297
7638.00   2.64848685   0.02613015
7640.00   2.68491936   0.02545450
7642.00   2.71475363   0.02438836
7644.00   2.69141316   0.02363458
7646.00   2.59756684   0.02293079
7648.00   2.55983829   0.02232571
7650.00   2.53513932   0.02175301
7652.00   2.53836823   0.02139260
7654.00   2.58231401   0.02137034
7656.00   2.64437556   0.02148904
7658.00   2.68979836   0.02144943
7660.00   2.73915291   0.02141506
7662.00   2.75685334   0.02115206
7664.00   2.73979521   0.02043270
7666.00   2.73149586   0.02014240
7668.00   2.72861624   0.02032733
7670.00   2.72876406   0.02071416
7672.00   2.73684812   0.02127299
7674.00   2.75306177   0.02209420
7676.00   2.74024057   0.02175874
7678.00   2.68736911   0.01983741
7680.00   2.67002702   0.01907220
7682.00   2.67968488   0.01940307
7684.00   2.69803500   0.01975192
7686.00   2.72387385   0.01964419
7688.00   2.75538588   0.01938211
7690.00   2.75803876   0.01925008
7692.00   2.72678709   0.01908274
7694.00   2.72100329   0.01909729
7696.00   2.72334647   0.01936254
7698.00   2.73340201   0.01950764
7700.00   2.75217867   0.01938601
7702.00   2.77791333   0.01920473
7704.00   2.80775833   0.01928754
7706.00   2.84936166   0.01949546
7708.00   2.87137508   0.01987250
7710.00   2.88193917   0.02065276
7712.00   2.88581872   0.02105562
7714.00   2.88317490   0.02103907
7716.00   2.87297678   0.02085014
7718.00   2.85082173   0.02059442
7720.00   2.81415892   0.02012331
7722.00   2.80774546   0.02038405
7724.00   2.82984138   0.02177360
7726.00   2.83922815   0.02197110
7728.00   2.83917236   0.02090293
7730.00   2.84001255   0.01978457
7732.00   2.84966207   0.01938092
7734.00   2.86309171   0.01931668
7736.00   2.85812593   0.01932365
7738.00   2.82012963   0.01961971
7740.00   2.82425737   0.01979210
7742.00   2.87417865   0.01967709
7744.00   2.90431356   0.02002660
7746.00   2.88959622   0.02138628
7748.00   2.85726690   0.02289736
7750.00   2.84827328   0.02298802
7752.00   2.85183597   0.02194574
7754.00   2.84685159   0.02130490
7756.00   2.83012605   0.02038700
7758.00   2.82992983   0.01977062
7760.00   2.86176777   0.01958285
7762.00   2.89234424   0.01959897
7764.00   2.87646365   0.01960773
7766.00   2.82260323   0.01971255
7768.00   2.81316042   0.01981853
7770.00   2.83046532   0.02005165
7772.00   2.84639311   0.02011221
7774.00   2.87682009   0.01999572
7776.00   2.89415956   0.01982339
7778.00   2.87151217   0.01964087
7780.00   2.82221723   0.01942219
7782.00   2.80129433   0.01936312
7784.00   2.78699732   0.01934825
7786.00   2.78834033   0.01953981
7788.00   2.81695938   0.02008869
7790.00   2.83607268   0.02046492
7792.00   2.83140516   0.02048311
7794.00   2.81479692   0.02030810
7796.00   2.79944468   0.02009574
7798.00   2.77631474   0.01938641
7800.00   2.76129317   0.01971765
7802.00   2.75580311   0.02133373
7804.00   2.74199438   0.02206434
7806.00   2.71325016   0.02156924
7808.00   2.68200326   0.02061329
7810.00   2.66357446   0.02000230
7812.00   2.65003276   0.01928004
7814.00   2.65102649   0.01922495
7816.00   2.67572570   0.01999457
7818.00   2.68655014   0.02036023
7820.00   2.68484378   0.02042013
7822.00   2.67800307   0.02032929
7824.00   2.67170358   0.02011888
7826.00   2.66399789   0.01976117
7828.00   2.63712120   0.01942270
7830.00   2.57482338   0.01862963
7832.00   2.54950428   0.01872878
7834.00   2.55747700   0.01996806
7836.00   2.56628823   0.02085008
7838.00   2.56597900   0.02080494
7840.00   2.56166506   0.02028716
7842.00   2.54175091   0.01983498
7844.00   2.49026561   0.01859090
7846.00   2.47917676   0.01885871
7848.00   2.50721383   0.02051175
7850.00   2.51774669   0.02180592
7852.00   2.49699283   0.02267652
7854.00   2.46481371   0.02327339
7856.00   2.44162512   0.02338841
7858.00   2.41531920   0.02309270
7860.00   2.40629911   0.02253031
7862.00   2.42488599   0.02135719
7864.00   2.42063212   0.02034668
7866.00   2.38635802   0.01911431
7868.00   2.34773088   0.01839010
7870.00   2.32524681   0.01935720
7872.00   2.30938268   0.02157449
7874.00   2.30137467   0.02203385
7876.00   2.30231023   0.02151616
7878.00   2.30738997   0.02099847
7880.00   2.32474470   0.01995982
7882.00   2.33637118   0.01914950
7884.00   2.33193398   0.01920358
7886.00   2.31783962   0.01972677
7888.00   2.30269933   0.01966638
7890.00   2.28093410   0.01921405
7892.00   2.26099491   0.01898536
7894.00   2.23656416   0.01863744
7896.00   2.21837139   0.01863566
7898.00   2.21264267   0.01928119
7900.00   2.21071601   0.02010979
7902.00   2.19630861   0.02033372
7904.00   2.17426395   0.02025360
7906.00   2.15152240   0.01999437
7908.00   2.11631846   0.01916286
7910.00   2.09716797   0.01876508
7912.00   2.10183668   0.01891889
7914.00   2.11077881   0.01931174
7916.00   2.10387874   0.01972187
7918.00   2.08888578   0.02025538
7920.00   2.07563996   0.02075387
7922.00   2.06028628   0.02166923
7924.00   2.04482484   0.02173529
7926.00   2.02896023   0.02084658
7928.00   2.01258063   0.01975114
7930.00   1.99601817   0.01882525
7932.00   1.97905481   0.01787909
7934.00   1.95930851   0.01759195
7936.00   1.93164122   0.01818305
7938.00   1.91593313   0.01825003
7940.00   1.91084218   0.01807301
7942.00   1.90585351   0.01790030
7944.00   1.89664209   0.01775983
7946.00   1.88764632   0.01765660
7948.00   1.88684988   0.01776331
7950.00   1.90101659   0.01817658
7952.00   1.88981557   0.01821611
7954.00   1.86123276   0.01794915
7956.00   1.82773638   0.01778615
7958.00   1.78469849   0.01777005
7960.00   1.74089837   0.01780767
7962.00   1.70977163   0.01785161
7964.00   1.68321574   0.01794778
7966.00   1.67787731   0.01791584
7968.00   1.71224856   0.01780320
7970.00   1.71235931   0.01764086
7972.00   1.67181385   0.01725463
7974.00   1.63013840   0.01703569
7976.00   1.61339033   0.01736956
7978.00   1.60872674   0.01806132
7980.00   1.60805297   0.01840566
7982.00   1.62841642   0.01885875
7984.00   1.62299752   0.01875007
7986.00   1.58367932   0.01777689
7988.00   1.56128192   0.01710217
7990.00   1.58379745   0.01739379
7992.00   1.62568986   0.01809666
7994.00   1.63184774   0.01824439
7996.00   1.61753964   0.01820718
7998.00   1.60212207   0.01797588
8000.00   1.56810331   0.01734288
8002.00   1.54880846   0.01686907
8004.00   1.55687582   0.01667606
8006.00   1.57004333   0.01659709
8008.00   1.55647957   0.01644241
8010.00   1.52255118   0.01616804
8012.00   1.50671422   0.01647263
8014.00   1.49946570   0.01713825
8016.00   1.49264133   0.01806292
8018.00   1.48311365   0.01978918
8020.00   1.47997248   0.02095714
8022.00   1.49495947   0.02029710
8024.00   1.52495456   0.01816067
8026.00   1.52786934   0.01777297
8028.00   1.50665700   0.01902870
8030.00   1.49758399   0.01898751
8032.00   1.49891996   0.01775080
8034.00   1.49516571   0.01658538
8036.00   1.47455621   0.01620882
8038.00   1.44687951   0.01622875
8040.00   1.44448197   0.01618907
8042.00   1.47741926   0.01636389
8044.00   1.47034788   0.01638063
8046.00   1.43119895   0.01632405
8048.00   1.40002644   0.01626560
8050.00   1.38020504   0.01617813
8052.00   1.37020648   0.01611635
8054.00   1.38414335   0.01624255
8056.00   1.43478251   0.01660153
8058.00   1.43087327   0.01663396
8060.00   1.37382293   0.01641167
8062.00   1.34470224   0.01624585
8064.00   1.34787369   0.01609694
8066.00   1.36053407   0.01600213
8068.00   1.36794376   0.01600184
8070.00   1.37775111   0.01604572
8072.00   1.37934589   0.01648069
8074.00   1.36086583   0.01770913
8076.00   1.37124288   0.01798450
8078.00   1.42412162   0.01728141
8080.00   1.46282148   0.01653280
8082.00   1.45245838   0.01620173
8084.00   1.41408288   0.01607036
8086.00   1.38705897   0.01646864
8088.00   1.34879613   0.01787194
8090.00   1.32830977   0.01815574
8092.00   1.31827652   0.01767812
8094.00   1.31664085   0.01716623
8096.00   1.33085299   0.01675382
8098.00   1.34881413   0.01635841
8100.00   1.33658075   0.01614031
8102.00   1.29311121   0.01608841
8104.00   1.28066075   0.01601538
8106.00   1.29057884   0.01601488
8108.00   1.29204714   0.01598312
8110.00   1.28074265   0.01588531
8112.00   1.26814771   0.01580099
8114.00   1.26269364   0.01576680
8116.00   1.25799775   0.01568272
8118.00   1.27582824   0.01621750
8120.00   1.33093953   0.01746059
8122.00   1.35492194   0.01827257
8124.00   1.35587621   0.01903758
8126.00   1.34060466   0.01937093
8128.00   1.30309272   0.01883954
8130.00   1.24661684   0.01762517
8132.00   1.22984862   0.01697777
8134.00   1.23704302   0.01642128
8136.00   1.25286102   0.01618536
8138.00   1.30401337   0.01638749
8140.00   1.32972562   0.01660035
8142.00   1.30012345   0.01672416
8144.00   1.24502778   0.01681821
8146.00   1.21962595   0.01678048
8148.00   1.19939351   0.01655213
8150.00   1.19922042   0.01651674
8152.00   1.22723949   0.01655422
8154.00   1.24695492   0.01667809
8156.00   1.25216603   0.01679887
8158.00   1.25514722   0.01708538
8160.00   1.26789415   0.01784708
8162.00   1.28706896   0.01907102
8164.00   1.30184591   0.01965822
8166.00   1.32687318   0.02015586
8168.00   1.32767355   0.02008577
8170.00   1.29668093   0.01915465
8172.00   1.26176608   0.01811711
8174.00   1.24672592   0.01715225
8176.00   1.24116588   0.01601214
8178.00   1.20968723   0.01896256
8180.00   1.12502503   0.02622805
8182.00   1.11548936   0.02838851
8184.00   1.17857921   0.02777131
8186.00   1.24376428   0.02637214
8188.00   1.28969657   0.02448136
8190.00   1.32789516   0.02188870
8192.00   1.33844006   0.02056901
8194.00   1.32405603   0.02053311
8196.00   1.30144525   0.01979454
8198.00   1.24429536   0.01873119
8200.00   1.21296501   0.01789386
8202.00   1.22328305   0.01744717
8204.00   1.25046885   0.01722186
8206.00   1.26628482   0.01703805
8208.00   1.28435361   0.01700674
8210.00   1.29282212   0.01695368
8212.00   1.28819478   0.01694862
8214.00   1.29237556   0.01694809
8216.00   1.30650091   0.01687576
8218.00   1.32329607   0.01691095
8220.00   1.33881271   0.01719442
8222.00   1.35566044   0.01763640
8224.00   1.36298025   0.01841684
8226.00   1.35560286   0.02006986
8228.00   1.36181617   0.02052497
8230.00   1.37903476   0.01996034
8232.00   1.39912009   0.01914187
8234.00   1.42138219   0.01829478
8236.00   1.44516039   0.01730485
8238.00   1.45487046   0.01689482
8240.00   1.45263410   0.01712444
8242.00   1.45023572   0.01704904
8244.00   1.44220507   0.01689551
8246.00   1.43415856   0.01679905
8248.00   1.42528629   0.01679851
8250.00   1.41768289   0.01684828
8252.00   1.41854978   0.01689320
8254.00   1.42690217   0.01692898
8256.00   1.43399894   0.01707727
8258.00   1.45409489   0.01744109
8260.00   1.45281708   0.01759203
8262.00   1.42256510   0.01747512
8264.00   1.38411427   0.01727365
8266.00   1.35264218   0.01709981
8268.00   1.31618798   0.01684160
8270.00   1.32436144   0.01708169
8272.00   1.38758445   0.01786547
8274.00   1.42127430   0.01838279
8276.00   1.43910730   0.01881821
8278.00   1.44443822   0.01910525
8280.00   1.43129766   0.01906110
8282.00   1.40394032   0.01881264
8284.00   1.39975917   0.01924352
8286.00   1.41198528   0.02034136
8288.00   1.41928947   0.02099270
8290.00   1.42755532   0.02172353
8292.00   1.43644047   0.02197476
8294.00   1.44509757   0.02132692
8296.00   1.45471358   0.02029373
8298.00   1.46934533   0.02026143
8300.00   1.49718034   0.02130613
8302.00   1.49707127   0.02092159
8304.00   1.46491814   0.01909078
8306.00   1.44943750   0.01787871
8308.00   1.45627642   0.01772171
8310.00   1.47139990   0.01792527
8312.00   1.48452973   0.01788449
8314.00   1.50160658   0.01786842
8316.00   1.51135588   0.01780096
8318.00   1.51222003   0.01762757
8320.00   1.52039814   0.01759316
8322.00   1.53528917   0.01773568
8324.00   1.55260587   0.01787907
8326.00   1.57206619   0.01786108
8328.00   1.59399593   0.01775943
8330.00   1.60277843   0.01800280
8332.00   1.59718156   0.01822983
8334.00   1.59899449   0.01910126
8336.00   1.59869552   0.02102710
8338.00   1.60725129   0.02222691
8340.00   1.63260448   0.02206156
8342.00   1.66649878   0.02123452
8344.00   1.68864119   0.02103475
8346.00   1.71393955   0.02121891
8348.00   1.71424174   0.02090633
8350.00   1.66823816   0.02006226
8352.00   1.66129494   0.01949113
8354.00   1.71874750   0.01941730
8356.00   1.79433370   0.01949177
8358.00   1.83140397   0.01927447
8360.00   1.85127509   0.01878946
8362.00   1.86656547   0.01895458
8364.00   1.86084223   0.01928295
8366.00   1.87215185   0.02032608
8368.00   1.90750146   0.02288899
8370.00   1.94066131   0.02460091
8372.00   1.94849110   0.02356317
8374.00   1.94039893   0.02033146
8376.00   1.95103610   0.01930882
8378.00   1.97065616   0.01983807
8380.00   1.99284399   0.01983512
8382.00   2.03203630   0.01969283
8384.00   2.05475497   0.01959696
8386.00   2.03776121   0.01957113
8388.00   2.00036716   0.01961540
8390.00   1.99536288   0.01987572
8392.00   2.01333356   0.02030401
8394.00   2.01964021   0.02084807
8396.00   2.01891255   0.02176927
8398.00   2.02700973   0.02233084
8400.00   2.05203414   0.02215620
8402.00   2.08110404   0.02190065
8404.00   2.09311128   0.02280054
8406.00   2.09374547   0.02495479
8408.00   2.09721446   0.02485305
8410.00   2.08978033   0.02259703
8412.00   2.09941459   0.02108171
8414.00   2.13516474   0.02039456
8416.00   2.17202926   0.02013786
8418.00   2.18569899   0.02020548
8420.00   2.18553257   0.02068113
8422.00   2.19248700   0.02117063
8424.00   2.20826197   0.02209050
8426.00   2.20517349   0.02248022
8428.00   2.18221521   0.02249187
8430.00   2.15540934   0.02227069
8432.00   2.12762856   0.02165854
8434.00   2.09878111   0.02078222
8436.00   2.09789038   0.02098968
8438.00   2.12348008   0.02270488
8440.00   2.14565611   0.02281256
8442.00   2.17544723   0.02167792
8444.00   2.20587873   0.02073959
8446.00   2.23722553   0.02040050
8448.00   2.26796722   0.02033090
8450.00   2.29193568   0.02036468
8452.00   2.31616521   0.02061330
8454.00   2.31967616   0.02086219
8456.00   2.29472232   0.02121044
8458.00   2.28333879   0.02154931
8460.00   2.29024744   0.02198460
8462.00   2.30121851   0.02230594
8464.00   2.30263209   0.02223160
8466.00   2.29738760   0.02184282
8468.00   2.31175923   0.02150441
8470.00   2.34504461   0.02057689
8472.00   2.37245774   0.02068036
8474.00   2.40900159   0.02229500
8476.00   2.42838669   0.02348074
8478.00   2.40682316   0.02311512
8480.00   2.35747671   0.02182739
8482.00   2.32967615   0.02108866
8484.00   2.30156946   0.02007470
8486.00   2.28855252   0.01984456
8488.00   2.28303051   0.02052736
8490.00   2.29458594   0.02108458
8492.00   2.33938813   0.02123890
8494.00   2.39576864   0.02123587
8496.00   2.40233016   0.02117226
8498.00   2.37224078   0.02069836
8500.00   2.34655714   0.02108148
8502.00   2.30379391   0.02254878
8504.00   2.27010679   0.02320491
8506.00   2.24654341   0.02280465
8508.00   2.23037601   0.02199517
8510.00   2.22195578   0.02138131
8512.00   2.22007656   0.02060699
8514.00   2.23188758   0.02031491
8516.00   2.27024198   0.02060955
8518.00   2.28824425   0.02058754
8520.00   2.28995800   0.02002081
8522.00   2.28095412   0.01972237
8524.00   2.25632501   0.02047739
8526.00   2.21706820   0.02186929
8528.00   2.21886110   0.02228225
8530.00   2.26202798   0.02230778
8532.00   2.28308225   0.02195534
8534.00   2.30023456   0.02054114
8536.00   2.30526590   0.01974188
8538.00   2.28889203   0.02065063
8540.00   2.26079607   0.02226204
8542.00   2.25113106   0.02277405
8544.00   2.25938964   0.02300723
8546.00   2.24606919   0.02258879
8548.00   2.21366167   0.02078715
8550.00   2.18872094   0.01982598
8552.00   2.17085147   0.02046572
8554.00   2.16208482   0.02160123
8556.00   2.17528605   0.02208814
8558.00   2.21430731   0.02251889
8560.00   2.22773933   0.02231769
8562.00   2.22715569   0.02112982
8564.00   2.22679710   0.02052196
8566.00   2.22283840   0.02065019
8568.00   2.22049475   0.02088634
8570.00   2.22718096   0.02077216
8572.00   2.24045110   0.02050786
8574.00   2.24349427   0.02031852
8576.00   2.23650432   0.02005184
8578.00   2.23708177   0.01995523
8580.00   2.24806666   0.02004340
8582.00   2.25273371   0.02015059
8584.00   2.24044418   0.02021539
8586.00   2.21916032   0.02027139
8588.00   2.20939708   0.02027642
8590.00   2.21100426   0.02001706
8592.00   2.19907546   0.02027735
8594.00   2.17638397   0.02098335
8596.00   2.15568018   0.02164480
8598.00   2.13015676   0.02239678
8600.00   2.11296964   0.02296407
8602.00   2.14077902   0.02254614
8604.00   2.22055459   0.02091265
8606.00   2.24723434   0.02054311
8608.00   2.24238205   0.02113539
8610.00   2.23931170   0.02140184
8612.00   2.23412156   0.02106621
8614.00   2.23004103   0.02094167
8616.00   2.23439884   0.02183873
8618.00   2.24433875   0.02338668
8620.00   2.25528646   0.02472696
8622.00   2.28526998   0.02715524
8624.00   2.28180766   0.02740286
8626.00   2.23140740   0.02498038
8628.00   2.19139075   0.02247760
8630.00   2.19985819   0.02193137
8632.00   2.23374486   0.02238547
8634.00   2.23772883   0.02230681
8636.00   2.22812247   0.02222482
8638.00   2.21582079   0.02218085
8640.00   2.17753983   0.02217472
8642.00   2.16850853   0.02217654
8644.00   2.22863817   0.02215758
8646.00   2.30489087   0.02215776
8648.00   2.28019047   0.02227524
8650.00   2.16543841   0.02253085
8652.00   2.10903955   0.02266273
8654.00   2.05721092   0.02250620
8656.00   2.03427362   0.02278426
8658.00   2.04922557   0.02394688
8660.00   2.08184481   0.02493821
8662.00   2.11686945   0.02452217
8664.00   2.17347002   0.02294744
8666.00   2.15398598   0.02223207
8668.00   2.03542018   0.02180580
8670.00   1.98881602   0.02150679
8672.00   2.01345754   0.02144806
8674.00   2.04711628   0.02144292
8676.00   2.05680084   0.02136265
8678.00   2.05951405   0.02127331
8680.00   2.04575968   0.02114908
8682.00   1.99693441   0.02089728
8684.00   1.98540843   0.02085144
8686.00   2.01031065   0.02102042
8688.00   2.02536893   0.02115872
8690.00   2.01307344   0.02107207
8692.00   1.98851752   0.02098338
8694.00   1.96971536   0.02152007
8696.00   1.94456649   0.02306472
8698.00   1.93403339   0.02304520
8700.00   1.94618022   0.02158689
8702.00   1.93953156   0.02052920
8704.00   1.90077221   0.02017296
8706.00   1.85548782   0.02010984
8708.00   1.83343756   0.02010767
8710.00   1.81885600   0.02033524
8712.00   1.83285594   0.02034567
8714.00   1.90230262   0.02020259
8716.00   1.92381001   0.02014978
8718.00   1.89499521   0.02005107
8720.00   1.85135722   0.02015109
8722.00   1.81104290   0.02082437
8724.00   1.76382959   0.02190342
8726.00   1.74503660   0.02192480
8728.00   1.75876129   0.02097754
8730.00   1.75255346   0.02041212
8732.00   1.73757756   0.01968572
8734.00   1.71589899   0.01942698
8736.00   1.68238580   0.02023302
8738.00   1.64328420   0.02148432
8740.00   1.62719977   0.02155195
8742.00   1.62361705   0.02065790
8744.00   1.63265717   0.02022300
8746.00   1.67155743   0.01968388
8748.00   1.69155955   0.01944582
8750.00   1.68103528   0.01963314
8752.00   1.65731680   0.02006499
8754.00   1.63645780   0.02053162
8756.00   1.60183644   0.02112626
8758.00   1.60753560   0.02174176
8760.00   1.67290306   0.02265759
8762.00   1.68801725   0.02310872
8764.00   1.63668156   0.02302583
8766.00   1.57748818   0.02277830
8768.00   1.55861640   0.02264145
8770.00   1.55902374   0.02247665
8772.00   1.56210101   0.02243040
8774.00   1.59760439   0.02260195
8776.00   1.58785510   0.02251831
8778.00   1.52228177   0.02221029
8780.00   1.46703422   0.02183094
8782.00   1.46012497   0.02131311
8784.00   1.47653353   0.02073722
8786.00   1.46817982   0.02094240
8788.00   1.45075977   0.02224733
8790.00   1.42945826   0.02249931
8792.00   1.38595963   0.02229280
8794.00   1.36671281   0.02176355
8796.00   1.39006066   0.02063499
8798.00   1.43189359   0.01927882
8800.00   1.45630133   0.01890388
8802.00   1.48382103   0.01933271
8804.00   1.48428464   0.01946944
8806.00   1.45458817   0.01979079
8808.00   1.43169415   0.01988390
8810.00   1.41598749   0.01959433
8812.00   1.40204704   0.01930070
8814.00   1.38471043   0.01934707
8816.00   1.36176860   0.01950855
8818.00   1.37456107   0.02044107
8820.00   1.42658329   0.02226085
8822.00   1.46396244   0.02358653
8824.00   1.50832725   0.02493020
8826.00   1.52982545   0.02575777
8828.00   1.49808383   0.02566048
8830.00   1.43118405   0.02490265
8832.00   1.40803039   0.02427037
8834.00   1.41820407   0.02310258
8836.00   1.40410721   0.02261982
8838.00   1.36714613   0.02276786
8840.00   1.34507120   0.02290100
8842.00   1.35182452   0.02297919
8844.00   1.37334871   0.02294733
8846.00   1.39021277   0.02222118
8848.00   1.40952814   0.02039158
8850.00   1.43253994   0.01980494
8852.00   1.46696186   0.02017056
8854.00   1.48919284   0.02045366
8856.00   1.49925554   0.02062458
8858.00   1.49816346   0.02079673
8860.00   1.47834659   0.02091078
8862.00   1.43252671   0.02089765
8864.00   1.43559682   0.02143135
8866.00   1.48451066   0.02256725
8868.00   1.51364458   0.02334361
8870.00   1.53397989   0.02415045
8872.00   1.54208982   0.02446210
8874.00   1.52778208   0.02348330
8876.00   1.49556649   0.02143827
8878.00   1.48372972   0.02176290
8880.00   1.46255100   0.02366572
8882.00   1.48643935   0.02565928
8884.00   1.58644331   0.02934901
8886.00   1.64589882   0.03104126
8888.00   1.60725009   0.02911192
8890.00   1.52187574   0.02498496
8892.00   1.48361754   0.02310212
8894.00   1.43886447   0.02159118
8896.00   1.45864069   0.02234724
8898.00   1.57414591   0.02657359
8900.00   1.63514268   0.02848729
8902.00   1.60998571   0.02753993
8904.00   1.55373061   0.02541792
8906.00   1.52126849   0.02385929
8908.00   1.48511279   0.02169919
8910.00   1.47402072   0.02138853
8912.00   1.49091876   0.02263829
8914.00   1.49895644   0.02415066
8916.00   1.49575400   0.02682101
8918.00   1.49626529   0.02866622
8920.00   1.51471722   0.02803588
8922.00   1.54631209   0.02556638
8924.00   1.55366528   0.02409615
8926.00   1.53961635   0.02237428
8928.00   1.53584540   0.02139997
8930.00   1.53548098   0.02127233
8932.00   1.53838837   0.02144358
8934.00   1.54910088   0.02177971
8936.00   1.56276608   0.02230357
8938.00   1.55575156   0.02249844
8940.00   1.51312029   0.02235649
8942.00   1.51712120   0.02258416
8944.00   1.56912065   0.02308471
8946.00   1.59705961   0.02352057
8948.00   1.57553744   0.02376797
8950.00   1.54192030   0.02402355
8952.00   1.55031276   0.02459124
8954.00   1.58804405   0.02545579
8956.00   1.61000252   0.02598998
8958.00   1.64604247   0.02671533
8960.00   1.64881706   0.02669257
8962.00   1.60146618   0.02552783
8964.00   1.54903519   0.02416564
8966.00   1.53881443   0.02372175
8968.00   1.55502403   0.02383012
8970.00   1.53247333   0.02348199
8972.00   1.47409105   0.02284993
8974.00   1.43948901   0.02242156
8976.00   1.40825188   0.02193924
8978.00   1.40271461   0.02183333
8980.00   1.45106709   0.02229722
8982.00   1.53277314   0.02320847
8984.00   1.54969907   0.02475861
8986.00   1.51772547   0.02807382
8988.00   1.50081491   0.02865831
8990.00   1.47468340   0.02706057
8992.00   1.45655286   0.02557209
8994.00   1.45329869   0.02432181
8996.00   1.45665383   0.02360797
8998.00   1.45306528   0.02559978
9000.00   1.44114137   0.03069459
9002.00   1.45056605   0.03138396
9004.00   1.48250747   0.02913169
9006.00   1.50656140   0.02710633
9008.00   1.52917409   0.02508275
9010.00   1.53984749   0.02328165
9012.00   1.51486874   0.02276766
9014.00   1.45380974   0.02338709
9016.00   1.44593894   0.02362105
9018.00   1.47891486   0.02418684
9020.00   1.50012529   0.02437119
9022.00   1.52135944   0.02406738
9024.00   1.53496957   0.02382813
9026.00   1.53111553   0.02411420
9028.00   1.51513100   0.02466884
9030.00   1.51028645   0.02455776
9032.00   1.50453758   0.02351545
9034.00   1.51095748   0.02348231
9036.00   1.54468620   0.02442843
9038.00   1.55617797   0.02507895
9040.00   1.52016151   0.02510861
9042.00   1.46314263   0.02479615
9044.00   1.43644726   0.02419209
9046.00   1.41859782   0.02283726
9048.00   1.41800511   0.02235968
9050.00   1.44783151   0.02258118
9052.00   1.46258485   0.02269629
9054.00   1.44973493   0.02258843
9056.00   1.43459499   0.02250206
9058.00   1.44876003   0.02267138
9060.00   1.48603058   0.02305099
9062.00   1.49961412   0.02326429
9064.00   1.50536144   0.02339108
9066.00   1.50065100   0.02356394
9068.00   1.47650385   0.02383001
9070.00   1.45463872   0.02403576
9072.00   1.45087600   0.02405265
9074.00   1.45729017   0.02393979
9076.00   1.47809827   0.02389326
9078.00   1.53155196   0.02380550
9080.00   1.55326939   0.02380919
9082.00   1.55373955   0.02392571
9084.00   1.54496825   0.02401776
9086.00   1.51920140   0.02397382
9088.00   1.48834217   0.02390468
9090.00   1.51337731   0.02414853
9092.00   1.61141264   0.02478893
9094.00   1.63691628   0.02503139
9096.00   1.62166309   0.02502846
9098.00   1.59891725   0.02504130
9100.00   1.55849612   0.02509663
9102.00   1.52101600   0.02515998
9104.00   1.53542161   0.02524968
9106.00   1.59434247   0.02539953
9108.00   1.62827921   0.02537945
9110.00   1.68126345   0.02527471
9112.00   1.68615639   0.02504556
9114.00   1.61315370   0.02453967
9116.00   1.54425550   0.02409146
9118.00   1.55693877   0.02403659
9120.00   1.62022865   0.02423429
9122.00   1.65421748   0.02453795
9124.00   1.69896126   0.02504399
9126.00   1.71174550   0.02557137
9128.00   1.68833804   0.02632908
9130.00   1.66210592   0.02686630
9132.00   1.64685345   0.02695764
9134.00   1.63468826   0.02676833
9136.00   1.62913609   0.02653485
9138.00   1.62263000   0.02608619
9140.00   1.63658047   0.02569524
9142.00   1.68273246   0.02507136
9144.00   1.71093225   0.02479268
9146.00   1.70233297   0.02503302
9148.00   1.68282652   0.02557960
9150.00   1.69266927   0.02625170
9152.00   1.72774124   0.02740430
9154.00   1.73137283   0.02757759
9156.00   1.71321964   0.02696096
9158.00   1.69701481   0.02638813
9160.00   1.68170381   0.02571355
9162.00   1.66609275   0.02512207
9164.00   1.64938378   0.02495024
9166.00   1.62947726   0.02507981
9168.00   1.63083458   0.02531847
9170.00   1.65676665   0.02582522
9172.00   1.67121553   0.02627274
9174.00   1.68552017   0.02691134
9176.00   1.68789661   0.02726887
9178.00   1.66219127   0.02699955
9180.00   1.61913860   0.02630690
9182.00   1.61692142   0.02580698
9184.00   1.65382791   0.02514021
9186.00   1.66688311   0.02477626
9188.00   1.67241836   0.02464051
9190.00   1.67277348   0.02461943
9192.00   1.66168571   0.02473126
9194.00   1.64913678   0.02492722
9196.00   1.66625202   0.02496689
9198.00   1.72745442   0.02446926
9200.00   1.71971571   0.02545476
9202.00   1.64278972   0.02824450
9204.00   1.59876573   0.02965791
9206.00   1.58972728   0.02957925
9208.00   1.60481787   0.02885119
9210.00   1.65274274   0.02800860
9212.00   1.74347174   0.02659174
9214.00   1.77344346   0.02601000
9216.00   1.75513732   0.02603900
9218.00   1.75430822   0.02608296
9220.00   1.76778913   0.02626948
9222.00   1.77919078   0.02651020
9224.00   1.77486515   0.02671768
9226.00   1.76151860   0.02693614
9228.00   1.78058481   0.02720049
9230.00   1.84158325   0.02766646
9232.00   1.86583686   0.02777549
9234.00   1.87719548   0.02757293
9236.00   1.86452031   0.02731607
9238.00   1.80817914   0.02705574
9240.00   1.73241019   0.02677317
9242.00   1.71323156   0.02660370
9244.00   1.73946238   0.02656649
9246.00   1.74405599   0.02639830
9248.00   1.74699736   0.02609632
9250.00   1.74896634   0.02589196
9252.00   1.74905813   0.02582195
9254.00   1.74901545   0.02582440
9256.00   1.75206470   0.02585786
9258.00   1.75779867   0.02596147
9260.00   1.76047885   0.02599906
9262.00   1.75843883   0.02587173
9264.00   1.76240933   0.02601680
9266.00   1.77941775   0.02656200
9268.00   1.79032767   0.02707221
9270.00   1.77426648   0.02716915
9272.00   1.73894274   0.02701459
9274.00   1.73841584   0.02727060
9276.00   1.76059711   0.02781202
9278.00   1.78517580   0.02828953
9280.00   1.83942783   0.02897442
9282.00   1.86473274   0.02936421
9284.00   1.82186389   0.02910259
9286.00   1.74395096   0.02850425
9288.00   1.71691275   0.02850562
9290.00   1.70944917   0.02870244
9292.00   1.72121382   0.02931879
9294.00   1.78058004   0.03056728
9296.00   1.80794573   0.03156172
9298.00   1.77029955   0.03167695
9300.00   1.72008026   0.03203344
9302.00   1.73974419   0.03450227
9304.00   1.81911957   0.03842406
9306.00   1.83773124   0.04149915
9308.00   1.82109261   0.04518417
9310.00   1.80626822   0.04737426
9312.00   1.77339578   0.04794656
9314.00   1.75891280   0.04808344
9316.00   1.81902897   0.04868094
9318.00   1.94253647   0.04931284
9320.00   1.94463980   0.05009778
9322.00   1.83479416   0.05169272
9324.00   1.77983367   0.05184177
9326.00   1.74900663   0.05078144
9328.00   1.73620570   0.04903288
9330.00   1.75092053   0.04615124
9332.00   1.78442109   0.04238411
9334.00   1.78033185   0.04199123
9336.00   1.74401188   0.04559073
9338.00   1.72542226   0.04632241
9340.00   1.70207131   0.04609070
9342.00   1.69642544   0.04524181
9344.00   1.71960211   0.04337940
9346.00   1.75657868   0.04105153
9348.00   1.78245366   0.04007439
9350.00   1.81468880   0.04008963
9352.00   1.81769800   0.03988535
9354.00   1.78747833   0.04011833
9356.00   1.76849091   0.03996439
9358.00   1.75806749   0.03894649
9360.00   1.75670052   0.03813019
9362.00   1.77602267   0.03863480
9364.00   1.81876719   0.03981995
9366.00   1.81511092   0.04270855
9368.00   1.75972176   0.04716207
9370.00   1.74147367   0.05138514
9372.00   1.76354671   0.05680339
9374.00   1.78121293   0.06057068
9376.00   1.76618016   0.06141632
9378.00   1.73406196   0.06033379
9380.00   1.71610117   0.05737278
9382.00   1.69953430   0.04993373
9384.00   1.69044662   0.04472167
9386.00   1.68914533   0.03993053
9388.00   1.69047105   0.03638526
9390.00   1.68571627   0.03500930
9392.00   1.68681884   0.03543038
9394.00   1.73096621   0.03636425
9396.00   1.85449088   0.03928221
9398.00   1.84927499   0.03974702
9400.00   1.73083818   0.03872766
9402.00   1.63833380   0.03750242
9404.00   1.55631256   0.03554643
9406.00   1.51058125   0.03375421
9408.00   1.57777786   0.03407938
9410.00   1.76123393   0.03614454
9412.00   1.81170571   0.03687760
9414.00   1.78428602   0.03686930
9416.00   1.75699663   0.03745546
9418.00   1.71429777   0.03890535
9420.00   1.66674173   0.04005989
9422.00   1.62156534   0.04013607
9424.00   1.57444584   0.03954013
9426.00   1.55939782   0.03904599
9428.00   1.56992877   0.03768575
9430.00   1.58903289   0.03773164
9432.00   1.62788069   0.03826392
9434.00   1.66789222   0.04022441
9436.00   1.71228683   0.04480103
9438.00   1.75280881   0.04990699
9440.00   1.73933113   0.05092372
9442.00   1.65808094   0.04929714
9444.00   1.63063109   0.04722403
9446.00   1.63553774   0.04216429
9448.00   1.62993979   0.03861944
9450.00   1.60127306   0.03785884
9452.00   1.57135630   0.03877149
9454.00   1.56600738   0.04056846
9456.00   1.57180548   0.04391012
9458.00   1.60509241   0.04576257
9460.00   1.69547784   0.04796178
9462.00   1.73682821   0.04813816
9464.00   1.74800515   0.04468044
9466.00   1.71280432   0.04160435
9468.00   1.58210278   0.04384457
9470.00   1.36406231   0.04921190
9472.00   1.32224691   0.05006912
9474.00   1.43282640   0.04807648
9476.00   1.48579693   0.04679373
9478.00   1.52532423   0.04565276
9480.00   1.55419147   0.04412494
9482.00   1.56634724   0.04148911
9484.00   1.56745160   0.03822912
9486.00   1.58143079   0.03747934
9488.00   1.61979318   0.03947053
9490.00   1.61261845   0.03999163
9492.00   1.55482578   0.03984300
9494.00   1.51836836   0.04030670
9496.00   1.53180134   0.04221432
9498.00   1.55323529   0.04412482
9500.00   1.51467478   0.04365655
9502.00   1.41610336   0.04088986
9504.00   1.39218068   0.04002566
9506.00   1.42688465   0.04055206
9508.00   1.44231963   0.04025415
9510.00   1.43524170   0.03833955
9512.00   1.42562759   0.03677674
9514.00   1.42641187   0.03791345
9516.00   1.43164325   0.04086245
9518.00   1.44237435   0.04258495
9520.00   1.47219169   0.04519477
9522.00   1.47672665   0.04529755
9524.00   1.44962072   0.04234503
9526.00   1.42742872   0.03910188
9528.00   1.43186915   0.03737441
9530.00   1.44988251   0.03631327
9532.00   1.45879936   0.03542957
9534.00   1.46883190   0.03502282
9536.00   1.47267580   0.03481770
9538.00   1.45699084   0.03469539
9540.00   1.46378255   0.03521184
9542.00   1.51713145   0.03673975
9544.00   1.58569479   0.03864621
9546.00   1.60873842   0.03980122
9548.00   1.60845613   0.04045935
9550.00   1.59049785   0.04162284
9552.00   1.52445138   0.04352944
9554.00   1.49474740   0.04449796
9556.00   1.51988423   0.04410822
9558.00   1.55454385   0.04349111
9560.00   1.55373263   0.04393741
9562.00   1.53662992   0.04501431
9564.00   1.50619769   0.04557959
9566.00   1.43207324   0.04686091
9568.00   1.40639758   0.04620084
9570.00   1.43494368   0.04232216
9572.00   1.46835446   0.03880988
9574.00   1.48238456   0.03919552
9576.00   1.48952162   0.04179676
9578.00   1.45979202   0.04223600
9580.00   1.38521731   0.04212292
9582.00   1.32671380   0.04128490
9584.00   1.25546360   0.03880443
9586.00   1.20677590   0.03701773
9588.00   1.19367599   0.03724588
9590.00   1.20507574   0.03832864
9592.00   1.23125827   0.03821530
9594.00   1.29534221   0.03736842
9596.00   1.31995296   0.03701198
9598.00   1.33143473   0.03705093
9600.00   1.32134902   0.03670530
9602.00   1.27698696   0.03560212
9604.00   1.22316182   0.03441392
9606.00   1.19236922   0.03414299
9608.00   1.16286099   0.03450445
9610.00   1.18711615   0.03481177
9612.00   1.28566229   0.03493923
9614.00   1.34342659   0.03592968
9616.00   1.36887240   0.03816497
9618.00   1.37708950   0.04020314
9620.00   1.37148845   0.04133970
9622.00   1.34983492   0.04205373
9624.00   1.32842028   0.04099235
9626.00   1.30444598   0.03692361
9628.00   1.26892602   0.03478279
9630.00   1.20490992   0.03390176
9632.00   1.16187096   0.03360065
9634.00   1.16499507   0.03382010
9636.00   1.19415092   0.03450790
9638.00   1.21341920   0.03483501
9640.00   1.23369110   0.03486050
9642.00   1.26338387   0.03548730
9644.00   1.32037008   0.03677568
9646.00   1.34694743   0.03771232
9648.00   1.32469916   0.03839759
9650.00   1.28340375   0.03864916
9652.00   1.25967920   0.03753836
9654.00   1.23112690   0.03403526
9656.00   1.23886883   0.03516470
9658.00   1.29986441   0.04070960
9660.00   1.32343876   0.04366343
9662.00   1.30456650   0.04489785
9664.00   1.27421749   0.04502268
9666.00   1.25514913   0.04379178
9668.00   1.23764861   0.04103571
9670.00   1.20918393   0.03910858
9672.00   1.15460634   0.03669807
9674.00   1.13609803   0.03553173
9676.00   1.15742183   0.03578538
9678.00   1.17672503   0.03640555
9680.00   1.17382419   0.03678322
9682.00   1.16128421   0.03733157
9684.00   1.15018654   0.03889413
9686.00   1.10821915   0.04282621
9688.00   1.13142419   0.04310822
9690.00   1.22897530   0.04016297
9692.00   1.29761779   0.03776899
9694.00   1.31716621   0.03707411
9696.00   1.30822432   0.03703816
9698.00   1.27407372   0.03681917
9700.00   1.19416857   0.03694138
9702.00   1.15985382   0.03650441
9704.00   1.14003837   0.03528336
9706.00   1.14294636   0.03472727
9708.00   1.18302190   0.03500510
9710.00   1.22841263   0.03561594
9712.00   1.24653447   0.03621721
9714.00   1.25437415   0.03700245
9716.00   1.22825432   0.03749186
9718.00   1.12420046   0.03774054
9720.00   1.10605574   0.03810095
9722.00   1.18372893   0.03856089
9724.00   1.26125610   0.03899110
9726.00   1.29266381   0.03935985
9728.00   1.30208015   0.03968093
9730.00   1.26256788   0.03976151
9732.00   1.11130130   0.03947327
9734.00   1.08993578   0.03947843
9736.00   1.18759441   0.03968290
9738.00   1.25682414   0.03985595
9740.00   1.24717379   0.04002306
9742.00   1.20946777   0.04010655
9744.00   1.20817184   0.03974884
9746.00   1.22998285   0.03890388
9748.00   1.22678542   0.03829682
9750.00   1.20056558   0.03762507
9752.00   1.18849552   0.03712857
9754.00   1.19712567   0.03684180
9756.00   1.21115816   0.03670057
9758.00   1.21449220   0.03667592
9760.00   1.21099687   0.03682621
9762.00   1.22292292   0.03682021
9764.00   1.26436841   0.03686175
9766.00   1.26900423   0.03664927
9768.00   1.23234022   0.03605745
9770.00   1.18850648   0.03547191
9772.00   1.15102208   0.03507411
9774.00   1.11240602   0.03477056
9776.00   1.12884617   0.03524698
9778.00   1.21489048   0.03651542
9780.00   1.25878036   0.03765154
9782.00   1.29335260   0.03888001
9784.00   1.30474305   0.04017227
9786.00   1.27944064   0.04152443
9788.00   1.23222983   0.04292089
9790.00   1.20290327   0.04433168
9792.00   1.16672087   0.04636471
9794.00   1.16168773   0.04672299
9796.00   1.21425951   0.04581678
9798.00   1.21577394   0.04454683
9800.00   1.11582410   0.04254541
9802.00   1.00804842   0.04040492
9804.00   1.02936435   0.03942066
9806.00   1.15207958   0.03884332
9808.00   1.20182395   0.04046614
9810.00   1.23652864   0.04592499
9812.00   1.24863696   0.04763193
9814.00   1.22057486   0.04543743
9816.00   1.19453275   0.04233590
9818.00   1.21041989   0.04058250
9820.00   1.25146592   0.03912745
9822.00   1.26805496   0.03904656
9824.00   1.29358268   0.04130746
9826.00   1.27415991   0.04163621
9828.00   1.18987298   0.04047313
9830.00   1.12276363   0.03916696
9832.00   1.10697198   0.03794223
9834.00   1.12057531   0.03682495
9836.00   1.15556276   0.03762916
9838.00   1.23848224   0.04008287
9840.00   1.28584373   0.04245035
9842.00   1.34714377   0.04666261
9844.00   1.35295904   0.04843140
9846.00   1.25749624   0.04646958
9848.00   1.13560367   0.04294924
9850.00   1.11745226   0.04156600
9852.00   1.17052329   0.04108158
9854.00   1.19360673   0.04091454
9856.00   1.22816586   0.04142200
9858.00   1.24477232   0.04210619
9860.00   1.23505151   0.04307027
9862.00   1.22286057   0.04414305
9864.00   1.23691022   0.04515825
9866.00   1.27095199   0.04621772
9868.00   1.24230921   0.04700228
9870.00   1.15774846   0.04794890
9872.00   1.08348215   0.04804384
9874.00   0.97236693   0.04709863
9876.00   0.90987879   0.04607300
9878.00   0.96525860   0.04553142
9880.00   1.09082186   0.04514312
9882.00   1.12964010   0.04443372
9884.00   1.11894500   0.04257704
9886.00   1.12184691   0.04289027
9888.00   1.12475049   0.04527249
9890.00   1.11569905   0.04725543
9892.00   1.07647634   0.04871637
9894.00   1.03494489   0.04965973
9896.00   1.05886924   0.04900095
9898.00   1.15729737   0.04645257
9900.00   1.16954875   0.04498916
9902.00   1.12059104   0.04317856
9904.00   1.08315301   0.04262134
9906.00   1.05506206   0.04339871
9908.00   1.03318560   0.04521639
9910.00   1.02428639   0.04828827
9912.00   1.02709377   0.05280991
9914.00   1.02703047   0.05403464
9916.00   1.02339470   0.05323582
9918.00   1.03338158   0.05192890
9920.00   1.07478964   0.04902109
9922.00   1.09751081   0.04625211
9924.00   1.05582213   0.04515531
9926.00   0.97536319   0.04505850
9928.00   0.96918505   0.04480809
9930.00   1.00524104   0.04464076
9932.00   1.05882835   0.04513053
9934.00   1.19253290   0.04472165
9936.00   1.25572193   0.04713048
9938.00   1.17137468   0.05407767
9940.00   1.02267730   0.06203422
9942.00   0.97075510   0.06647264
9944.00   0.96325284   0.07077634
9946.00   0.96466035   0.07059681
9948.00   1.00722826   0.06434978
9950.00   1.02865899   0.06022202
9952.00   1.00887692   0.05981392
9954.00   0.98923725   0.06077657
9956.00   1.02532172   0.06145605
9958.00   1.11084259   0.06301331
9960.00   1.12912798   0.06219163
9962.00   1.07374454   0.05780927
9964.00   1.08069134   0.05647565
9966.00   1.17175293   0.05875053
9968.00   1.25205314   0.06144156
9970.00   1.25066853   0.06311356
9972.00   1.20120966   0.06460152
9974.00   1.16781187   0.06305154
9976.00   1.11460149   0.05694785
9978.00   1.08715296   0.05358453
9980.00   1.08269680   0.05115789
9982.00   1.08011866   0.05059283
9984.00   1.05964506   0.05305687
9986.00   1.04215360   0.05707064
9988.00   1.09449410   0.05898261
9990.00   1.24090433   0.06101403
9992.00   1.29932308   0.06039657
9994.00   1.30295098   0.05598542
9996.00   1.31245923   0.05304159
9998.00   1.33980370   0.05266220
10000.00   1.36569631   0.05366632
10002.00   1.37085056   0.05533516
10004.00   1.35961497   0.05794158
10006.00   1.35198498   0.06095466
10008.00   1.34287751   0.06554203
10010.00   1.32851779   0.06828102
10012.00   1.30135417   0.06958656
10014.00   1.27928400   0.06984853
10016.00   1.28660238   0.06890986
10018.00   1.31706321   0.06666899
10020.00   1.28616750   0.06523781
10022.00   1.18666756   0.06381913
10024.00   1.13362038   0.06273182
10026.00   1.10458326   0.06225727
10028.00   1.09447122   0.06156205
10030.00   1.10324097   0.05993012
10032.00   1.13073683   0.05788393
10034.00   1.17481184   0.05742192
10036.00   1.26346457   0.05795260
10038.00   1.30319822   0.05915868
10040.00   1.33325005   0.06199794
10042.00   1.32120323   0.06385054
10044.00   1.23990774   0.06447861
10046.00   1.13233972   0.06419830
10048.00   1.07819927   0.06253339
10050.00   1.04481268   0.05849464
10052.00   1.03753126   0.05720371
10054.00   1.06384683   0.05688259
10056.00   1.09635925   0.05843861
10058.00   1.13626909   0.06255284
10060.00   1.18527961   0.06702645
10062.00   1.25296199   0.07059847
10064.00   1.34668577   0.07444587
10066.00   1.34469914   0.07316915
10068.00   1.24274278   0.06419233
10070.00   1.18213058   0.06036188
10072.00   1.13033473   0.06127729
10074.00   1.10297072   0.06358645
10076.00   1.12019265   0.06615316
10078.00   1.16883099   0.06939454
10080.00   1.19531584   0.07119229
10082.00   1.23209870   0.07281242
10084.00   1.23388445   0.07281704
10086.00   1.18171191   0.07089356
10088.00   1.16130650   0.06894831
10090.00   1.22116184   0.06732952
10092.00   1.29970872   0.06586082
10094.00   1.27090502   0.06509011
10096.00   1.13467371   0.06483772
10098.00   1.10256433   0.06509981
10100.00   1.15397215   0.06623643
10102.00   1.15883243   0.06716260
10104.00   1.07725894   0.06780411
10106.00   1.00080037   0.06841563
10108.00   1.04423070   0.06929284
10110.00   1.18768752   0.07053033
10112.00   1.19890857   0.07033703
10114.00   1.06284237   0.06727265
10116.00   1.06245136   0.06762670
10118.00   1.20848560   0.07187979
10120.00   1.36903656   0.07615302
10122.00   1.48679221   0.07887414
10124.00   1.59146237   0.08100333
10126.00   1.54438269   0.08031190
10128.00   1.31179523   0.07568683
10130.00   1.16423154   0.07310345
10132.00   1.00492859   0.07106229
10134.00   0.90922719   0.06975281
10136.00   0.92933410   0.06961580
10138.00   1.00894141   0.07016289
10140.00   1.01296401   0.06984311
10142.00   0.94297880   0.06833117
10144.00   0.99222612   0.06917276
10146.00   1.17634344   0.07175542
10148.00   1.28198171   0.07453538
10150.00   1.28922200   0.07797947
10152.00   1.23618197   0.08110221
10154.00   1.11792243   0.08228329
10156.00   0.88254434   0.08219214
10158.00   0.87040639   0.08156279
10160.00   1.07953715   0.07826561
10162.00   1.18148720   0.07804028
10164.00   1.19889903   0.08172227
10166.00   1.17533541   0.08555293
10168.00   1.11230338   0.08702726
10170.00   1.00429189   0.08741613
10172.00   0.97382253   0.08875602
10174.00   1.03169656   0.08994789
10176.00   1.00699210   0.09225317
10178.00   0.87229788   0.09776089
10180.00   0.79985708   0.10003471
10182.00   0.89099026   0.09481622
10184.00   1.06049275   0.08535584
10186.00   1.10960662   0.08402469
10188.00   1.09718800   0.08957531
10190.00   1.07372653   0.09142299
10192.00   0.99504244   0.09381434
10194.00   0.94342196   0.09380231
10196.00   0.91159981   0.08900102
10198.00   0.91875207   0.08309268
10200.00   1.04448700   0.08359474
10202.00   1.33834732   0.08805995
10204.00   1.36361635   0.09359904
10206.00   1.20375299   0.10298965
10208.00   1.02161598   0.10908103
10210.00   0.69502938   0.11430627
10212.00   0.46072075   0.11596149
10214.00   0.61062920   0.10911810
10216.00   1.05083370   0.09311070
10218.00   1.22848487   0.08814758
10220.00   1.27753568   0.09106851
10222.00   1.36047995   0.09408460
10224.00   1.42994034   0.09860148
10226.00   1.52235472   0.10447570
10228.00   1.71062386   0.11336011
10230.00   1.93208349   0.12293572
10232.00   1.86739123   0.12254883
10234.00   1.47030652   0.11167744
10236.00   1.28475928   0.10511327
10238.00   1.15442622   0.09735018
10240.00   1.07549667   0.09169341
10242.00   1.05452704   0.08991203
10244.00   1.08023262   0.09050348
10246.00   1.12799478   0.09099137
10248.00   1.22228944   0.09280673
10250.00   1.29380679   0.09371667
10252.00   1.43311381   0.09475525
10254.00   1.43482006   0.09493229
10256.00   1.20813167   0.09357101
10258.00   0.97103375   0.09221353
10260.00   0.96585989   0.09263486
10262.00   1.10960782   0.09413499
10264.00   1.17645431   0.09586680
10266.00   1.21852386   0.09714595
10268.00   1.30523396   0.10087182
10270.00   1.45234120   0.10679434
10272.00   1.59167325   0.11348592
10274.00   1.69953108   0.12093753
10276.00   1.78636742   0.12885907
10278.00   1.75525057   0.13315077
10280.00   1.59967768   0.13345216
10282.00   1.45486629   0.13693498
10284.00   1.21560717   0.14329904
10286.00   1.06830406   0.14776912
10288.00   1.09001040   0.14992246
10290.00   1.19953799   0.14994754
10292.00   1.27442408   0.14526254
10294.00   1.40446496   0.13308047
10296.00   1.40956771   0.12688459
10298.00   1.30708027   0.12317792
10300.00   1.20662272   0.12148115
10302.00   1.08917344   0.12267318
10304.00   0.98784322   0.12515476
10306.00   0.96719229   0.12708178
10308.00   1.00206065   0.13001408
10310.00   1.07544005   0.12832932
10312.00   1.27480614   0.12019892
10314.00   1.34523451   0.11634230
10316.00   1.24125910   0.11717272
10318.00   1.15796614   0.11877613
10320.00   1.25831425   0.11899342
10322.00   1.46482551   0.11892819
10324.00   1.47901404   0.11805719
10326.00   1.33698356   0.11460600
10328.00   1.25776625   0.11493017
10330.00   1.13411021   0.11869059
10332.00   1.10777259   0.12253806
10334.00   1.27578306   0.12521464
10336.00   1.54089105   0.12782587
10338.00   1.66400588   0.13169384
10340.00   1.73589170   0.13428327
10342.00   1.74966776   0.14289512
10344.00   1.73582923   0.16257794
10346.00   1.61306393   0.16978218
10348.00   1.25447941   0.15957768
10350.00   0.89720535   0.14202048
10352.00   0.94372791   0.13249366
10354.00   1.31962693   0.12499616
10356.00   1.48526943   0.12220760
10358.00   1.68468010   0.12721810
10360.00   1.69554853   0.12922388
10362.00   1.41607296   0.12771870
10364.00   1.13563943   0.12687714
10366.00   1.08904219   0.12971802
10368.00   1.16637516   0.13472341
10370.00   1.32636917   0.14035782
10372.00   1.78158748   0.15050671
10374.00   1.88852119   0.15362333
10376.00   1.65615880   0.15045121
10378.00   1.42294419   0.14641340
10380.00   1.32704806   0.14202189
10382.00   1.28094900   0.13776599
10384.00   1.25146329   0.14358933
10386.00   1.25416696   0.16125354
10388.00   1.27675378   0.16857913
10390.00   1.36400115   0.17186058
10392.00   1.40067601   0.17392783
10394.00   1.31509185   0.17663747
10396.00   1.22176170   0.17707360
10398.00   1.33453524   0.16910763
10400.00   1.66244698   0.14912835
10402.00   1.72683954   0.14161527
10404.00   1.61622727   0.14280073
10406.00   1.51423776   0.14461419
10408.00   1.35966361   0.14921401
10410.00   1.25329578   0.15314431
10412.00   1.35165083   0.15184642
10414.00   1.61864161   0.14677468
10416.00   1.65175164   0.14486669
10418.00   1.44011283   0.14493077
10420.00   1.44439828   0.14360653
10422.00   1.68958533   0.14013220
10424.00   1.89252055   0.13791782
10426.00   1.93057466   0.14017187
10428.00   1.86876905   0.14458315
10430.00   1.62732756   0.14236780
10432.00   0.87847096   0.13186121
10434.00   0.82122034   0.12833427
10436.00   1.43210459   0.12953311
10438.00   1.84966981   0.13070484
10440.00   1.81987178   0.13117416
10442.00   1.61738169   0.13131824
10444.00   1.53956413   0.12954715
10446.00   1.48163366   0.12332039
10448.00   1.39623725   0.12642094
10450.00   1.24790776   0.13957958
10452.00   1.18436217   0.14645985
10454.00   1.23176086   0.14732903
10456.00   1.32161522   0.14502347
10458.00   1.41356337   0.13965814
10460.00   1.56198537   0.12885948
10462.00   1.46109068   0.12795982
10464.00   0.98124796   0.13712025
10466.00   0.84277517   0.14064337
10468.00   1.05288529   0.14029583
10470.00   1.30856252   0.13869806
10472.00   1.44309986   0.13668463
10474.00   1.54397130   0.13378578
10476.00   1.63019884   0.13192366
10478.00   1.70131683   0.13029492
10480.00   1.73687875   0.12943271
10482.00   1.76328754   0.12996760
10484.00   1.72405064   0.12989283
10486.00   1.55360079   0.12675640
10488.00   1.33511627   0.12360201
10490.00   1.29936206   0.12962535
10492.00   1.42600405   0.14546211
10494.00   1.44568527   0.15088661
10496.00   1.44883251   0.15137778
10498.00   1.41017771   0.15090056
10500.00   1.29785299   0.14842466
10502.00   1.17488241   0.14583854
10504.00   1.12536287   0.14746600
10506.00   1.10520113   0.15297276
10508.00   1.17201042   0.15208784
10510.00   1.41087198   0.14489374
10512.00   1.50176048   0.14101838
10514.00   1.35481250   0.13854070
10516.00   1.27950776   0.13942195
10518.00   1.55735850   0.14759727
10520.00   2.06572342   0.16066627
10522.00   2.25528336   0.16213340
10524.00   2.30160475   0.15380162
10526.00   2.24431753   0.14933053
10528.00   1.99993145   0.14570788
10530.00   1.76199734   0.14264299
10532.00   1.55941808   0.13931555
10534.00   1.39816594   0.13681419
10536.00   1.50104201   0.13991186
10538.00   2.02468586   0.15045619
10540.00   2.08990717   0.15401399
10542.00   1.82851553   0.15068758
10544.00   1.61247396   0.15323912
10546.00   1.45686913   0.16792271
10548.00   1.35478365   0.18197192
10550.00   1.40832031   0.17929503
10552.00   1.63838637   0.16169338
10554.00   1.69786966   0.15541723
10556.00   1.65162134   0.15433066
10558.00   1.63548613   0.15370111
10560.00   1.63927853   0.15448824
10562.00   1.65463698   0.15567394
10564.00   1.69203818   0.15585512
10566.00   1.75158608   0.15561236
10568.00   1.75705433   0.15618010
10570.00   1.72613847   0.15761784
10572.00   1.68419838   0.15837836
10574.00   1.59624279   0.15892164
10576.00   1.53761184   0.15891971
10578.00   1.55303979   0.15774155
10580.00   1.61154604   0.15594238
10582.00   1.65263081   0.15623744
10584.00   1.77588308   0.15915211
10586.00   1.71648753   0.15954420
10588.00   1.44396842   0.15789910
10590.00   1.25992751   0.15710498
10592.00   1.24137080   0.15814696
10594.00   1.29383326   0.15971024
10596.00   1.31821930   0.15973674
10598.00   1.33282030   0.15731265
10600.00   1.43821073   0.16076741
10602.00   1.67134273   0.16910639
10604.00   1.82856822   0.17660528
10606.00   1.88083375   0.18547347
10608.00   1.92026603   0.19191599
10610.00   2.05300593   0.19077300
10612.00   2.26431060   0.18326889
10614.00   2.22557902   0.18106449
10616.00   1.92052579   0.18173558
10618.00   1.74433255   0.18105897
10620.00   1.60937274   0.17839962
10622.00   1.55414581   0.17718515
10624.00   1.63347602   0.18011892
10626.00   1.81222928   0.18541200
10628.00   1.93675840   0.18731679
10630.00   2.12855864   0.18714066
10632.00   2.16232109   0.18754013
10634.00   2.03944230   0.18784836
10636.00   1.92348778   0.18791044
10638.00   1.83615708   0.18773349
10640.00   1.77202153   0.18728314
10642.00   1.81234813   0.18644845
10644.00   2.03055000   0.18572184
10646.00   1.97737563   0.18313430
10648.00   1.66072154   0.17808363
10650.00   1.46058297   0.17382628
10652.00   1.40038049   0.17031282
10654.00   1.40727854   0.16757914
10656.00   1.45630360   0.16648664
10658.00   1.58119833   0.16725130
10660.00   1.60766232   0.16580233
10662.00   1.53923023   0.16306722
10664.00   1.54119551   0.16014498
10666.00   1.62120306   0.15650710
10668.00   1.70064211   0.15292552
10670.00   1.73137259   0.14998999
10672.00   1.73792756   0.14743373
10674.00   1.73699248   0.14550854
10676.00   1.67572474   0.14475165
10678.00   1.70949328   0.14322133
10680.00   1.88601851   0.14157505
10682.00   1.97570717   0.13932012
10684.00   1.84707093   0.13559233
10686.00   1.63333917   0.13133834
10688.00   1.63336337   0.12991887
10690.00   1.85290551   0.13087828
10692.00   1.83440638   0.13146999
10694.00   1.63651788   0.13459083
10696.00   1.48746777   0.13426532
10698.00   1.38041091   0.12818362
10700.00   1.33092594   0.12017891
10702.00   1.43490326   0.11620843
10704.00   1.71720314   0.11435336
10706.00   1.77844429   0.11308289
10708.00   1.65158188   0.11430173
10710.00   1.62640834   0.11384200
10712.00   1.73756206   0.11165956
10714.00   1.82383573   0.10893872
10716.00   1.74401498   0.10637665
10718.00   1.55532575   0.10359844
10720.00   1.51316786   0.10110357
10722.00   1.60574663   0.09860899
10724.00   1.58960700   0.09653240
10726.00   1.45392025   0.09472714
10728.00   1.36847079   0.09341488
10730.00   1.42203093   0.09278245
10732.00   1.54543400   0.09269673
10734.00   1.60302985   0.09270281
10736.00   1.58577633   0.09168001
10738.00   1.70307732   0.09421282
10740.00   2.05460572   0.10268106
10742.00   2.18420529   0.10575037
10744.00   1.90329099   0.09980171
10746.00   1.51229119   0.09049021
10748.00   1.45989859   0.08749275
10750.00   1.60181618   0.08575071
10752.00   1.74767244   0.09377474
10754.00   2.10980511   0.11705470
10756.00   2.22751021   0.12424880
10758.00   1.99339557   0.11327497
10760.00   1.73558795   0.09889115
10762.00   1.77362573   0.09990077
10764.00   1.99459577   0.11018436
10766.00   1.96344137   0.10511865
10768.00   1.71095335   0.08006538
10770.00   1.60282350   0.06882732
10772.00   1.62026823   0.07468389
10774.00   1.62739229   0.08250236
10776.00   1.53653467   0.08800422
10778.00   1.40845752   0.09326531
10780.00   1.42059207   0.09090984
10782.00   1.60312891   0.07689634
10784.00   1.63970816   0.07162654
10786.00   1.57117712   0.07344466
10788.00   1.53550792   0.07336790
10790.00   1.57559288   0.06800582
10792.00   1.64037263   0.06090605
10794.00   1.66848946   0.05928309
10796.00   1.69697952   0.06250468
10798.00   1.66563773   0.06259830
10800.00   1.54074287   0.06193673
10802.00   1.47747135   0.06080366
10804.00   1.49505413   0.05871554
10806.00   1.53497148   0.05653562
10808.00   1.56615150   0.05503229
10810.00   1.62744677   0.05331244
10812.00   1.49443793   0.05668664
10814.00   1.05837691   0.06616686
10816.00   0.89397001   0.07068937
10818.00   0.97482163   0.07289273
10820.00   1.12511456   0.07276517
10822.00   1.29393530   0.06842215
10824.00   1.50368071   0.06031861
10826.00   1.50219679   0.05972233
10828.00   1.17494094   0.06655180
10830.00   1.19753063   0.06867465
10832.00   1.53354478   0.06966078
10834.00   1.79913747   0.06907512
10836.00   1.89609587   0.06598318
10838.00   1.89910018   0.06131641
10840.00   1.79699504   0.05823590
10842.00   1.49807334   0.05364792
10844.00   1.39868712   0.05585298
10846.00   1.43730903   0.06823094
10848.00   1.44179833   0.07153860
10850.00   1.38944030   0.06263637
10852.00   1.33188450   0.04818964
10854.00   1.30793738   0.04073173
10856.00   1.29282033   0.03702266
10858.00   1.34442079   0.03744450
