# File created by shivutils (I.Shivvers)
# 
# wl(A)   flm    er(optional)
3450.00   14.36716366   0.17843010
3452.00   14.36926842   0.17907239
3454.00   14.37439251   0.17952010
3456.00   14.48746967   0.18094322
3458.00   14.62364864   0.18206955
3460.00   14.38567162   0.18071301
3462.00   14.26502228   0.18063642
3464.00   14.56914616   0.18280859
3466.00   14.41503620   0.18237539
3468.00   14.49920750   0.18308295
3470.00   14.40429783   0.18300278
3472.00   14.90190792   0.18606000
3474.00   14.58679581   0.18464209
3476.00   14.54727268   0.18475701
3478.00   14.01604271   0.18270224
3480.00   13.80202198   0.18248366
3482.00   13.84484005   0.18249790
3484.00   14.04359341   0.18372516
3486.00   13.91894722   0.18300484
3488.00   13.37184811   0.17910594
3490.00   13.52225113   0.17979549
3492.00   13.32738018   0.17845868
3494.00   13.46079540   0.17928755
3496.00   13.42747688   0.17901617
3498.00   13.43745518   0.17867278
3500.00   13.30377293   0.17779201
3502.00   13.56678963   0.17926396
3504.00   13.44999790   0.17870498
3506.00   13.56209946   0.17882675
3508.00   13.55579090   0.17890400
3510.00   13.99866199   0.18168175
3512.00   13.45009327   0.17812212
3514.00   13.56473351   0.17835465
3516.00   13.62763309   0.17857058
3518.00   13.34514523   0.17667185
3520.00   13.57261753   0.17738116
3522.00   13.43933201   0.17597751
3524.00   13.55878639   0.17668918
3526.00   13.27356339   0.17436221
3528.00   13.42579079   0.17469981
3530.00   13.26739025   0.17357166
3532.00   13.32305908   0.17348005
3534.00   13.58431435   0.17461471
3536.00   13.13884449   0.17145979
3538.00   13.43952179   0.17266801
3540.00   13.46669388   0.17301327
3542.00   13.43296146   0.17321245
3544.00   13.13941097   0.17165945
3546.00   13.32957172   0.17191520
3548.00   13.09885597   0.16972321
3550.00   13.02986431   0.16878739
3552.00   13.15272236   0.16843234
3554.00   12.86613464   0.16658337
3556.00   12.88624573   0.16588081
3558.00   12.88912964   0.16524701
3560.00   12.64910984   0.16338913
3562.00   12.75255299   0.16292511
3564.00   12.67698956   0.16179511
3566.00   12.75610161   0.16159055
3568.00   12.65033531   0.16014874
3570.00   12.77798843   0.15994547
3572.00   12.53016186   0.15835108
3574.00   12.64547634   0.15840463
3576.00   12.30041981   0.15517636
3578.00   12.54364967   0.15595545
3580.00   12.65817833   0.15623346
3582.00   12.27607727   0.15329981
3584.00   12.41258049   0.15237086
3586.00   12.23276520   0.15023650
3588.00   12.41092014   0.15115120
3590.00   12.16386318   0.14986984
3592.00   12.03001022   0.14793591
3594.00   11.88416672   0.14622492
3596.00   11.87944794   0.14571822
3598.00   12.09718704   0.14620912
3600.00   11.83438778   0.14381054
3602.00   11.99064636   0.14439702
3604.00   11.88823223   0.14312001
3606.00   11.98429489   0.14278340
3608.00   11.90661716   0.14185028
3610.00   11.95278454   0.14143603
3612.00   12.23284054   0.14286432
3614.00   12.08792782   0.14189675
3616.00   12.06550694   0.14140813
3618.00   12.19352627   0.14101331
3620.00   12.32753849   0.14088623
3622.00   12.40376282   0.14071321
3624.00   12.48772717   0.14052106
3626.00   12.91529846   0.14212584
3628.00   12.77090168   0.14097054
3630.00   13.00146008   0.14228863
3632.00   13.36475849   0.14332296
3634.00   13.26957417   0.14234273
3636.00   13.35682678   0.14218904
3638.00   13.10835266   0.14027604
3640.00   13.10724258   0.13975678
3642.00   13.15236664   0.14010495
3644.00   13.32871628   0.14129537
3646.00   13.42116261   0.14095171
3648.00   13.70796299   0.14564402
3650.00   13.36525631   0.14912909
3652.00   13.82771778   0.14947660
3654.00   13.80579567   0.14588484
3656.00   13.95393181   0.14442585
3658.00   14.14339066   0.14166178
3660.00   14.32534122   0.14120078
3662.00   14.17067528   0.14232676
3664.00   14.72024345   0.14449804
3666.00   14.58926487   0.14106846
3668.00   14.51664829   0.13835973
3670.00   14.28057098   0.13652675
3672.00   14.50373745   0.13698174
3674.00   14.56667805   0.13671939
3676.00   14.28021717   0.13468878
3678.00   13.76876926   0.13174686
3680.00   13.91823387   0.13203384
3682.00   13.90553284   0.13130741
3684.00   13.84889793   0.13051759
3686.00   13.28653812   0.12746824
3688.00   13.09782887   0.12595333
3690.00   12.80128574   0.12432904
3692.00   12.64178371   0.12332036
3694.00   12.15781879   0.12046983
3696.00   11.71484280   0.11809027
3698.00   11.22869015   0.11561319
3700.00   10.87434292   0.11381309
3702.00   10.43080711   0.11096679
3704.00   9.99106503   0.10842721
3706.00   9.56177235   0.10587746
3708.00   9.32776356   0.10398206
3710.00   8.81521034   0.10110681
3712.00   8.89739799   0.10120085
3714.00   8.59220409   0.09908146
3716.00   8.47769165   0.09817083
3718.00   8.15470600   0.09625527
3720.00   7.95949650   0.09479102
3722.00   7.91367292   0.09414916
3724.00   7.88521862   0.09374581
3726.00   7.80205965   0.09313291
3728.00   7.72038174   0.09259566
3730.00   7.61046457   0.09186381
3732.00   7.55023336   0.09139742
3734.00   7.56019592   0.09099941
3736.00   7.56644058   0.09077828
3738.00   7.41294146   0.08983207
3740.00   7.62363005   0.09105168
3742.00   7.73700714   0.09140801
3744.00   7.85963726   0.09134793
3746.00   7.90308094   0.09129173
3748.00   7.93437195   0.09104951
3750.00   7.88715219   0.09067578
3752.00   7.95519304   0.09076693
3754.00   8.12246609   0.09153730
3756.00   7.98268414   0.09046662
3758.00   7.79950857   0.08918534
3760.00   8.27094460   0.09131563
3762.00   8.12339687   0.09040441
3764.00   8.14305305   0.08998524
3766.00   8.27732563   0.09054291
3768.00   8.28539371   0.09027975
3770.00   8.25315666   0.09008615
3772.00   7.82636786   0.08809815
3774.00   7.80284166   0.08764149
3776.00   7.75386000   0.08716416
3778.00   7.42176914   0.08525100
3780.00   7.34139967   0.08446096
3782.00   7.16454077   0.08349150
3784.00   7.02362013   0.08248701
3786.00   6.91031981   0.08174521
3788.00   6.98086452   0.08191305
3790.00   6.82615757   0.08105770
3792.00   6.96142769   0.08169743
3794.00   6.91024876   0.08092432
3796.00   6.90499163   0.08061540
3798.00   6.75537825   0.07973824
3800.00   6.97551680   0.08078562
3802.00   6.85159159   0.08019678
3804.00   7.13347721   0.08149523
3806.00   7.00835800   0.08046260
3808.00   6.98663664   0.08005466
3810.00   6.87959146   0.07939088
3812.00   6.79116249   0.07906175
3814.00   6.95895147   0.07968212
3816.00   6.95250988   0.07946488
3818.00   7.06092072   0.07984476
3820.00   7.26433420   0.08070521
3822.00   7.26020861   0.08053886
3824.00   7.37829590   0.08091102
3826.00   7.49938583   0.08136925
3828.00   7.53703737   0.08172689
3830.00   7.74501038   0.08289032
3832.00   8.01644135   0.08392478
3834.00   8.18010235   0.08438411
3836.00   8.39669800   0.08510273
3838.00   8.75723839   0.08654768
3840.00   9.02364445   0.08768784
3842.00   9.09880257   0.08775146
3844.00   9.42952347   0.08895217
3846.00   9.54668999   0.08925018
3848.00   10.00378704   0.09093845
3850.00   10.41250324   0.09234419
3852.00   10.49102020   0.09253351
3854.00   10.84031868   0.09378020
3856.00   11.13533878   0.09476431
3858.00   11.40842438   0.09566581
3860.00   11.74595928   0.09677734
3862.00   12.24027920   0.09862830
3864.00   12.42788410   0.09925386
3866.00   12.57678795   0.09959331
3868.00   12.84309387   0.10031251
3870.00   13.20733833   0.10145036
3872.00   13.40081120   0.10209031
3874.00   13.71638680   0.10341208
3876.00   13.88889980   0.10392778
3878.00   14.42591763   0.10526795
3880.00   14.47649479   0.10527863
3882.00   15.07068348   0.10715304
3884.00   15.37109184   0.10808822
3886.00   15.41932487   0.10802179
3888.00   15.77415276   0.10909731
3890.00   15.97997284   0.10958478
3892.00   16.09203148   0.10964811
3894.00   16.30896950   0.11033716
3896.00   16.63059998   0.11128104
3898.00   16.77347755   0.11162838
3900.00   17.01905632   0.11216924
3902.00   16.96509171   0.11184061
3904.00   17.23516464   0.11289825
3906.00   17.41767311   0.11433144
3908.00   17.37161636   0.11463534
3910.00   17.56296349   0.11522537
3912.00   17.71400833   0.11604723
3914.00   18.01606369   0.11640069
3916.00   18.05595779   0.11503573
3918.00   17.88761520   0.11348374
3920.00   18.06348419   0.11339442
3922.00   18.25671577   0.11373775
3924.00   18.14946175   0.11310183
3926.00   18.36467552   0.11344090
3928.00   18.51165199   0.11360165
3930.00   18.36824226   0.11293497
3932.00   17.72031593   0.11119483
3934.00   17.56495857   0.11053467
3936.00   18.11803627   0.11159854
3938.00   18.33077431   0.11185612
3940.00   18.57452583   0.11246620
3942.00   18.65364838   0.11285198
3944.00   19.07144737   0.11407117
3946.00   18.95745850   0.11347625
3948.00   19.08355713   0.11322900
3950.00   18.95575714   0.11259839
3952.00   18.84550858   0.11205848
3954.00   18.75770950   0.11157189
3956.00   18.68242264   0.11098895
3958.00   18.45728493   0.11019532
3960.00   18.24607658   0.10985386
3962.00   17.87347031   0.10872784
3964.00   17.52625275   0.10702635
3966.00   16.76122093   0.10428330
3968.00   15.86936760   0.10142386
3970.00   15.70660973   0.10068458
3972.00   15.24822235   0.09912518
3974.00   14.78166008   0.09764819
3976.00   14.57414818   0.09667968
3978.00   14.11149597   0.09507376
3980.00   13.66455269   0.09348848
3982.00   13.61916161   0.09316957
3984.00   13.44888878   0.09241295
3986.00   13.24572182   0.09152371
3988.00   12.79485321   0.09005785
3990.00   12.77485847   0.08986254
3992.00   12.70165920   0.08940869
3994.00   12.63478088   0.08927663
3996.00   12.79438400   0.09004843
3998.00   12.46882248   0.08875304
4000.00   12.55079365   0.08852635
4002.00   12.50758362   0.08804035
4004.00   12.40698910   0.08755620
4006.00   12.61163902   0.08805858
4008.00   12.69090748   0.08833276
4010.00   12.41099072   0.08743975
4012.00   12.23191547   0.08679506
4014.00   12.53404427   0.08750994
4016.00   12.60236168   0.08752461
4018.00   12.71788216   0.08851419
4020.00   12.74813175   0.08953495
4022.00   12.77255058   0.08991430
4024.00   12.68526268   0.08939824
4026.00   12.97849560   0.08945567
4028.00   13.07093906   0.08887099
4030.00   13.12415504   0.08880202
4032.00   13.19541740   0.08883017
4034.00   13.21205616   0.08850142
4036.00   13.20751572   0.08824735
4038.00   13.57697487   0.08923192
4040.00   13.73078823   0.08949843
4042.00   13.66829395   0.08950197
4044.00   13.84963894   0.09432741
4046.00   14.28019619   0.10142150
4048.00   14.46743870   0.10102672
4050.00   14.34312916   0.09407067
4052.00   14.49940109   0.09191208
4054.00   14.55310059   0.09187432
4056.00   14.73015785   0.09210148
4058.00   14.92360878   0.09203635
4060.00   15.18426228   0.09231833
4062.00   15.20447159   0.09212469
4064.00   15.35088825   0.09246507
4066.00   15.52727318   0.09277567
4068.00   15.77735710   0.09332231
4070.00   15.84448910   0.09324619
4072.00   15.97618866   0.09331839
4074.00   16.10934067   0.09360492
4076.00   16.14052773   0.09467267
4078.00   16.08994484   0.09500729
4080.00   16.23458290   0.09493466
4082.00   16.22316360   0.09421992
4084.00   16.29516220   0.09422820
4086.00   16.55954361   0.09461507
4088.00   16.34055901   0.09358554
4090.00   16.23682404   0.09264603
4092.00   16.28106689   0.09244359
4094.00   16.02273178   0.09155513
4096.00   15.99516201   0.09142541
4098.00   15.99743080   0.09123795
4100.00   15.95846081   0.09092369
4102.00   15.84513283   0.09035721
4104.00   15.95487595   0.09042545
4106.00   15.70533752   0.08965792
4108.00   15.81426430   0.08984452
4110.00   15.85017300   0.08975627
4112.00   15.96137905   0.08988887
4114.00   16.05509186   0.09000982
4116.00   15.92760181   0.08957981
4118.00   15.95870399   0.08940431
4120.00   15.69324493   0.08841828
4122.00   15.72600937   0.08840512
4124.00   15.57660198   0.08789913
4126.00   15.51893806   0.08761188
4128.00   15.52997589   0.08755138
4130.00   15.43976021   0.08727764
4132.00   15.38834095   0.08733238
4134.00   15.15782738   0.08658160
4136.00   15.36342907   0.08670709
4138.00   15.08270454   0.08585187
4140.00   15.02122116   0.08584078
4142.00   15.16164303   0.08584374
4144.00   15.09918785   0.08521400
4146.00   14.99320030   0.08465116
4148.00   14.90426922   0.08436894
4150.00   14.85603046   0.08434809
4152.00   14.98468208   0.08491147
4154.00   14.83825207   0.08432588
4156.00   14.92551041   0.08403262
4158.00   14.91458988   0.08369950
4160.00   14.84762955   0.08347102
4162.00   14.76090145   0.08331682
4164.00   14.87434006   0.08396932
4166.00   14.68502045   0.08349362
4168.00   14.70601177   0.08293872
4170.00   14.76325321   0.08263940
4172.00   14.67237949   0.08216027
4174.00   14.78353405   0.08209043
4176.00   14.58882523   0.08147175
4178.00   14.54540348   0.08134908
4180.00   14.64855480   0.08143088
4182.00   14.74474430   0.08141507
4184.00   14.55304337   0.08072533
4186.00   14.62900352   0.08080108
4188.00   14.46913242   0.08023641
4190.00   14.41883659   0.07997330
4192.00   14.21961403   0.07937306
4194.00   14.19191265   0.07913818
4196.00   14.05209351   0.07864044
4198.00   13.99380302   0.07829569
4200.00   13.90271282   0.07797094
4202.00   13.89983845   0.07781728
4204.00   13.95111561   0.07779818
4206.00   13.95337486   0.07788131
4208.00   13.69512177   0.07711281
4210.00   13.63168335   0.07698072
4212.00   13.53555298   0.07654189
4214.00   13.44103718   0.07611870
4216.00   13.40824699   0.07588699
4218.00   13.24519157   0.07541651
4220.00   12.97415543   0.07450522
4222.00   13.15665054   0.07485066
4224.00   13.06127930   0.07455458
4226.00   12.92538548   0.07410321
4228.00   12.97174454   0.07411991
4230.00   12.93415451   0.07403561
4232.00   12.78570080   0.07368955
4234.00   12.66994381   0.07333194
4236.00   12.71951962   0.07352866
4238.00   12.42403793   0.07263365
4240.00   12.42582798   0.07233279
4242.00   12.25606728   0.07157989
4244.00   12.29158497   0.07203359
4246.00   12.36516190   0.07306447
4248.00   12.26946449   0.07276365
4250.00   12.16829586   0.07143687
4252.00   12.16845608   0.07105660
4254.00   12.19035149   0.07096046
4256.00   12.19411469   0.07093164
4258.00   12.10074329   0.07063322
4260.00   12.15255737   0.07056075
4262.00   12.04542255   0.07007266
4264.00   12.06993675   0.07005353
4266.00   11.93102360   0.06963236
4268.00   11.84478664   0.06929538
4270.00   11.90631866   0.06947234
4272.00   11.86288738   0.06922252
4274.00   11.83833885   0.06917339
4276.00   11.76443386   0.06896977
4278.00   11.66526318   0.06870604
4280.00   11.68526077   0.06856218
4282.00   11.51090336   0.06800558
4284.00   11.45167446   0.06775763
4286.00   11.42497826   0.06751590
4288.00   11.33196259   0.06711817
4290.00   11.06989861   0.06628544
4292.00   10.87367058   0.06573616
4294.00   10.72202206   0.06530099
4296.00   10.54950047   0.06469177
4298.00   10.23986816   0.06369548
4300.00   10.20542431   0.06346479
4302.00   9.83042049   0.06233955
4304.00   9.57507324   0.06151704
4306.00   9.36542034   0.06093560
4308.00   9.05933285   0.05999432
4310.00   8.88075352   0.05941453
4312.00   8.66005039   0.05922842
4314.00   8.43330383   0.05891560
4316.00   8.18789577   0.05772825
4318.00   8.07262993   0.05713551
4320.00   7.93579245   0.05683612
4322.00   7.75556278   0.05632302
4324.00   7.78983307   0.05613055
4326.00   7.54652977   0.05518622
4328.00   7.52716446   0.05475614
4330.00   7.53651381   0.05457028
4332.00   7.64728975   0.05483278
4334.00   7.59954071   0.05469703
4336.00   7.66888666   0.05500838
4338.00   7.72539663   0.05528413
4340.00   7.66042900   0.05511146
4342.00   7.80409670   0.05551826
4344.00   7.93079567   0.05600325
4346.00   8.02719593   0.05669075
4348.00   8.14589119   0.05722975
4350.00   8.22383213   0.05712931
4352.00   8.26005363   0.05708484
4354.00   8.35533428   0.05813628
4356.00   8.56161594   0.06768017
4358.00   8.68026066   0.07437963
4360.00   8.66598797   0.07151832
4362.00   8.84467411   0.06385429
4364.00   9.06466007   0.06061195
4366.00   9.31323719   0.06033109
4368.00   9.44933414   0.06039901
4370.00   9.59901237   0.06063379
4372.00   9.75166988   0.06127194
4374.00   9.98861980   0.06206542
4376.00   9.98833084   0.06184090
4378.00   10.16507244   0.06187141
4380.00   10.26686287   0.06193762
4382.00   10.41908264   0.06225186
4384.00   10.47150230   0.06227444
4386.00   10.58712673   0.06246531
4388.00   10.71440506   0.06275406
4390.00   10.86304951   0.06315342
4392.00   10.96236706   0.06335317
4394.00   11.06335258   0.06360222
4396.00   11.38973331   0.06429502
4398.00   11.24624062   0.06410480
4400.00   11.27618313   0.06438019
4402.00   11.38328362   0.06453145
4404.00   11.29859829   0.06407184
4406.00   11.35288239   0.06410180
4408.00   11.41031742   0.06419975
4410.00   11.31270123   0.06391183
4412.00   11.27049160   0.06384771
4414.00   11.23897743   0.06386589
4416.00   11.23915577   0.06387189
4418.00   11.35829830   0.06420552
4420.00   11.26023579   0.06407329
4422.00   11.22132587   0.06340089
4424.00   11.24878311   0.06341603
4426.00   11.29954147   0.06348744
4428.00   11.22929955   0.06323309
4430.00   11.24049950   0.06324007
4432.00   11.24918079   0.06321103
4434.00   11.27074814   0.06319325
4436.00   11.32704449   0.06328295
4438.00   11.28162098   0.06321132
4440.00   11.33740520   0.06329814
4442.00   11.46247864   0.06353122
4444.00   11.42558289   0.06339570
4446.00   11.62943649   0.06384005
4448.00   11.82486534   0.06429270
4450.00   11.73908043   0.06402106
4452.00   12.06340981   0.06480753
4454.00   12.14429665   0.06496826
4456.00   12.11036587   0.06483350
4458.00   12.41916561   0.06553052
4460.00   12.48204327   0.06569460
4462.00   12.45148563   0.06555969
4464.00   12.57987499   0.06584544
4466.00   12.79203320   0.06625432
4468.00   12.78308868   0.06616921
4470.00   13.00261021   0.06669111
4472.00   13.14012909   0.06698888
4474.00   13.06226921   0.06677724
4476.00   13.23496437   0.06715541
4478.00   13.37019348   0.06741381
4480.00   13.44917011   0.06756584
4482.00   13.38292313   0.06736010
4484.00   13.50911999   0.06767732
4486.00   13.50625134   0.06763443
4488.00   13.44957447   0.06750899
4490.00   13.68156147   0.06798149
4492.00   13.69497013   0.06804262
4494.00   13.64681530   0.06799195
4496.00   13.70108128   0.06802773
4498.00   13.70926666   0.06804386
4500.00   13.68577480   0.06794438
4502.00   13.58139324   0.06760448
4504.00   13.50970936   0.06736536
4506.00   13.42592430   0.06710277
4508.00   13.45507431   0.06707285
4510.00   13.51362610   0.06718141
4512.00   13.46897888   0.06701516
4514.00   13.51232624   0.06709128
4516.00   13.47825432   0.06689362
4518.00   13.42423725   0.06674018
4520.00   13.50822067   0.06696206
4522.00   13.53278542   0.06695717
4524.00   13.64589500   0.06714240
4526.00   13.56226921   0.06691112
4528.00   13.67265987   0.06713308
4530.00   13.66127491   0.06710970
4532.00   13.55225468   0.06679136
4534.00   13.67946339   0.06703471
4536.00   13.68538666   0.06697887
4538.00   13.55902767   0.06664663
4540.00   13.66740036   0.06690417
4542.00   13.68995190   0.06698992
4544.00   13.64094925   0.06686187
4546.00   13.71406460   0.06693508
4548.00   13.58381462   0.06659229
4550.00   13.59170341   0.06650179
4552.00   13.55434799   0.06634638
4554.00   13.53392601   0.06631665
4556.00   13.53704071   0.06628591
4558.00   13.51090050   0.06623470
4560.00   13.30570793   0.06561898
4562.00   13.27698708   0.06554731
4564.00   13.15846348   0.06512951
4566.00   13.11821938   0.06498244
4568.00   13.04547310   0.06482570
4570.00   13.07794952   0.06487505
4572.00   13.12442112   0.06500110
4574.00   13.02334023   0.06476378
4576.00   12.96753216   0.06461872
4578.00   12.85450745   0.06425114
4580.00   12.90743828   0.06431149
4582.00   12.87299061   0.06415495
4584.00   12.73589993   0.06378490
4586.00   12.81897640   0.06394751
4588.00   12.78748322   0.06389175
4590.00   12.72144222   0.06372908
4592.00   12.73453712   0.06370183
4594.00   12.76135349   0.06378401
4596.00   12.63667202   0.06347288
4598.00   12.76385403   0.06367782
4600.00   12.85269451   0.06380584
4602.00   12.78138733   0.06360555
4604.00   12.67137337   0.06336191
4606.00   12.77719116   0.06357155
4608.00   12.80375004   0.06367034
4610.00   12.91194057   0.06386196
4612.00   12.91212749   0.06384366
4614.00   12.97997665   0.06386613
4616.00   12.85149956   0.06354129
4618.00   12.95228672   0.06374015
4620.00   12.89848614   0.06360916
4622.00   12.92063046   0.06362911
4624.00   12.92773533   0.06368624
4626.00   12.85111618   0.06347211
4628.00   12.82976341   0.06338614
4630.00   12.85225296   0.06340100
4632.00   12.95325661   0.06358991
4634.00   12.93820477   0.06356085
4636.00   12.89768124   0.06337418
4638.00   12.87997246   0.06336818
4640.00   12.60551357   0.06270272
4642.00   12.71994209   0.06292523
4644.00   12.73646736   0.06289342
4646.00   12.49863338   0.06234070
4648.00   12.29979324   0.06185986
4650.00   12.28834248   0.06185113
4652.00   12.03198910   0.06125753
4654.00   11.85246181   0.06078503
4656.00   11.61588669   0.06022476
4658.00   11.55655861   0.06014874
4660.00   11.47807217   0.06001388
4662.00   11.17044926   0.05936599
4664.00   11.31650066   0.05977156
4666.00   11.28338337   0.05981414
4668.00   11.08323383   0.05939296
4670.00   11.01554489   0.05928421
4672.00   10.99674606   0.05912192
4674.00   11.02815628   0.05905334
4676.00   11.04138947   0.05900478
4678.00   11.05852413   0.05891558
4680.00   10.92018700   0.05841657
4682.00   11.04887676   0.05865598
4684.00   10.89655685   0.05822486
4686.00   10.97251320   0.05833102
4688.00   10.84708309   0.05797336
4690.00   10.91644382   0.05808017
4692.00   10.86935520   0.05790138
4694.00   10.92108822   0.05800965
4696.00   10.91152859   0.05795733
4698.00   10.92107677   0.05784748
4700.00   11.01516724   0.05804307
4702.00   10.91292286   0.05784989
4704.00   11.09494209   0.05830135
4706.00   11.06268883   0.05828451
4708.00   11.09707069   0.05841943
4710.00   11.14891338   0.05849059
4712.00   11.12578869   0.05839332
4714.00   11.32548904   0.05878254
4716.00   11.30986023   0.05865961
4718.00   11.19510555   0.05830273
4720.00   11.32133579   0.05858108
4722.00   11.25903988   0.05846345
4724.00   11.21006203   0.05831691
4726.00   11.20184708   0.05846315
4728.00   11.24354649   0.05885236
4730.00   11.12930965   0.05863733
4732.00   11.06689167   0.05846835
4734.00   11.05801582   0.05848355
4736.00   10.98524761   0.05842993
4738.00   11.03783321   0.05867571
4740.00   11.00673580   0.05874265
4742.00   10.89732838   0.05871708
4744.00   10.90465069   0.05848813
4746.00   10.84961605   0.05778674
4748.00   10.77640820   0.05720032
4750.00   10.63505936   0.05676242
4752.00   10.53474522   0.05654903
4754.00   10.39986038   0.05613065
4756.00   10.34515858   0.05569059
4758.00   10.23185825   0.05603680
4760.00   10.06832886   0.05478710
4762.00   9.97619438   0.05442610
4764.00   9.84170246   0.05403144
4766.00   9.71237755   0.05362079
4768.00   9.78385735   0.05371438
4770.00   9.71140003   0.05350229
4772.00   9.52755356   0.05301791
4774.00   9.67843056   0.05337511
4776.00   9.71330547   0.05355609
4778.00   9.62743568   0.05354243
4780.00   9.68074799   0.05362405
4782.00   9.60886860   0.05327132
4784.00   9.69856453   0.05334853
4786.00   9.70330906   0.05326485
4788.00   9.81193256   0.05354508
4790.00   9.83060169   0.05359274
4792.00   9.91226864   0.05381611
4794.00   10.01060581   0.05395031
4796.00   10.00152779   0.05385783
4798.00   10.11558437   0.05406603
4800.00   10.17726040   0.05421310
4802.00   10.21185207   0.05425973
4804.00   10.14021015   0.05407388
4806.00   10.34111214   0.05456709
4808.00   10.36042404   0.05459610
4810.00   10.34630871   0.05451357
4812.00   10.23130703   0.05419686
4814.00   10.37905121   0.05452758
4816.00   10.43593979   0.05466519
4818.00   10.34086037   0.05443617
4820.00   10.44084549   0.05465151
4822.00   10.34325027   0.05437693
4824.00   10.24014664   0.05415501
4826.00   10.15325546   0.05392280
4828.00   10.11484814   0.05379331
4830.00   9.96226311   0.05339384
4832.00   9.82010746   0.05304668
4834.00   9.64540768   0.05256801
4836.00   9.47213173   0.05204809
4838.00   9.39188194   0.05197182
4840.00   9.06847095   0.05115085
4842.00   8.98122406   0.05077509
4844.00   8.78743076   0.05018672
4846.00   8.44937897   0.04919600
4848.00   8.29302883   0.04877493
4850.00   8.01845455   0.04799282
4852.00   7.82784843   0.04742850
4854.00   7.60248804   0.04666912
4856.00   7.43202877   0.04607487
4858.00   7.35868502   0.04583168
4860.00   7.07209873   0.04499705
4862.00   6.96006012   0.04476976
4864.00   6.69924402   0.04393359
4866.00   6.59350872   0.04358651
4868.00   6.48015022   0.04318273
4870.00   6.39857292   0.04286433
4872.00   6.30638838   0.04253989
4874.00   6.28652859   0.04248035
4876.00   6.22043991   0.04233406
4878.00   6.14776850   0.04210289
4880.00   6.11765242   0.04199002
4882.00   6.13794518   0.04197678
4884.00   6.06774569   0.04165380
4886.00   6.14912319   0.04182573
4888.00   6.15941143   0.04184146
4890.00   6.19006109   0.04189703
4892.00   6.15762568   0.04182054
4894.00   6.22302818   0.04203804
4896.00   6.37318039   0.04244962
4898.00   6.44721937   0.04259187
4900.00   6.56128216   0.04291152
4902.00   6.70510530   0.04331608
4904.00   6.68746567   0.04320634
4906.00   6.87665844   0.04378856
4908.00   7.00482702   0.04418928
4910.00   7.09529209   0.04447959
4912.00   7.14865112   0.04456801
4914.00   7.29598475   0.04499906
4916.00   7.33618450   0.04509420
4918.00   7.54171324   0.04562061
4920.00   7.52417278   0.04551780
4922.00   7.66724968   0.04592407
4924.00   7.61448002   0.04569250
4926.00   7.70680714   0.04588039
4928.00   7.77426434   0.04600127
4930.00   7.70306635   0.04578559
4932.00   7.75471401   0.04589316
4934.00   7.86651134   0.04618950
4936.00   7.95333815   0.04644196
4938.00   7.89757490   0.04629268
4940.00   7.99910545   0.04659256
4942.00   8.09477711   0.04678510
4944.00   8.11811543   0.04680223
4946.00   8.23342133   0.04701788
4948.00   8.17778587   0.04688586
4950.00   8.38150215   0.04742475
4952.00   8.34622478   0.04745457
4954.00   8.54678535   0.04798106
4956.00   8.53684425   0.04795263
4958.00   8.60816956   0.04802354
4960.00   8.64602184   0.04806458
4962.00   8.70669842   0.04826614
4964.00   8.67718220   0.04822633
4966.00   8.68567276   0.04826819
4968.00   8.63764191   0.04821568
4970.00   8.67223263   0.04841688
4972.00   8.61542606   0.04844287
4974.00   8.70253944   0.04886650
4976.00   8.68817997   0.04905347
4978.00   8.65915012   0.04940777
4980.00   8.71861267   0.04988342
4982.00   8.60251236   0.04979308
4984.00   8.71670818   0.05009194
4986.00   8.74103260   0.04985636
4988.00   8.77888584   0.04968010
4990.00   8.79445744   0.04946293
4992.00   8.82275391   0.04927091
4994.00   8.75146198   0.04876467
4996.00   8.78970242   0.04868907
4998.00   8.74646091   0.04838738
5000.00   8.80026150   0.04841474
5002.00   8.77560902   0.04829303
5004.00   8.76138401   0.04813914
5006.00   8.82150841   0.04824336
5008.00   8.85137367   0.04826908
5010.00   8.91929531   0.04839846
5012.00   8.86907101   0.04822569
5014.00   8.88801861   0.04827083
5016.00   8.97798252   0.04858020
5018.00   8.99633884   0.04867605
5020.00   9.02220345   0.04877902
5022.00   8.89126015   0.04840662
5024.00   9.08361149   0.04878911
5026.00   9.03362370   0.04863586
5028.00   8.94054031   0.04844253
5030.00   8.96447659   0.04860952
5032.00   8.92462730   0.04851386
5034.00   8.92473984   0.04836020
5036.00   8.77752209   0.04793467
5038.00   8.71912766   0.04775396
5040.00   8.75025654   0.04782949
5042.00   8.77016640   0.04789494
5044.00   8.75132179   0.04791662
5046.00   8.71849442   0.04778660
5048.00   8.71513844   0.04779439
5050.00   8.76564598   0.04795328
5052.00   8.82506847   0.04810927
5054.00   8.84449768   0.04816183
5056.00   8.88967323   0.04824704
5058.00   8.86144733   0.04817074
5060.00   8.84255981   0.04818531
5062.00   8.89979744   0.04849064
5064.00   9.01867199   0.04893349
5066.00   9.13584137   0.04927115
5068.00   9.03103924   0.04924355
5070.00   9.03022861   0.04931885
5072.00   9.09070206   0.04935860
5074.00   9.13257504   0.04937744
5076.00   9.13650799   0.04933704
5078.00   9.23274326   0.04972154
5080.00   9.33041096   0.05048873
5082.00   9.30104828   0.05107179
5084.00   9.28838539   0.05147608
5086.00   9.26757431   0.05143842
5088.00   9.37313366   0.05131729
5090.00   9.45655441   0.05098305
5092.00   9.47048092   0.05057467
5094.00   9.60673141   0.05074075
5096.00   9.67277718   0.05104752
5098.00   9.60255051   0.05109721
5100.00   9.72865009   0.05143231
5102.00   9.74747658   0.05130090
5104.00   9.72562695   0.05109339
5106.00   9.85573292   0.05132373
5108.00   9.79548073   0.05117073
5110.00   9.97341728   0.05161786
5112.00   9.97928715   0.05165810
5114.00   9.90224552   0.05161753
5116.00   9.99906921   0.05193700
5118.00   10.02099705   0.05192525
5120.00   10.01875114   0.05188959
5122.00   10.10652351   0.05208876
5124.00   10.00454807   0.05184374
5126.00   10.05193233   0.05196283
5128.00   10.03449535   0.05203006
5130.00   10.06901264   0.05212453
5132.00   9.97447395   0.05198870
5134.00   10.03448582   0.05216097
5136.00   9.90113258   0.05189226
5138.00   9.86411667   0.05184268
5140.00   9.79516792   0.05171830
5142.00   9.70539284   0.05156277
5144.00   9.67563152   0.05156494
5146.00   9.60042572   0.05151860
5148.00   9.55335617   0.05157552
5150.00   9.43066216   0.05153859
5152.00   9.38991165   0.05163573
5154.00   9.41444874   0.05182074
5156.00   9.35914803   0.05161513
5158.00   9.21942711   0.05113392
5160.00   9.23210430   0.05106386
5162.00   9.10767555   0.05063015
5164.00   9.07306957   0.05049584
5166.00   8.98577785   0.05030827
5168.00   8.97438049   0.05026261
5170.00   8.94699383   0.05023189
5172.00   8.96479225   0.05031808
5174.00   8.93238258   0.05033242
5176.00   8.91320801   0.05035090
5178.00   8.86057568   0.05026554
5180.00   8.91700935   0.05041385
5182.00   8.88052845   0.05039099
5184.00   8.80727386   0.05024394
5186.00   8.83704281   0.05037012
5188.00   8.91802502   0.05069843
5190.00   8.95383453   0.05083736
5192.00   8.93736267   0.05085505
5194.00   8.89870739   0.05086056
5196.00   9.06188679   0.05138101
5198.00   9.01838779   0.05146213
5200.00   9.07378006   0.05168880
5202.00   9.00369453   0.05146937
5204.00   9.02246666   0.05158016
5206.00   9.12963867   0.05191391
5208.00   9.08561134   0.05196742
5210.00   9.14139271   0.05223496
5212.00   9.17733002   0.05239645
5214.00   9.22403240   0.05254732
5216.00   9.35119343   0.05300492
5218.00   9.25342846   0.05284446
5220.00   9.25594616   0.05295340
5222.00   9.38583279   0.05331183
5224.00   9.38387299   0.05334784
5226.00   9.28699017   0.05310147
5228.00   9.38188457   0.05345264
5230.00   9.34790611   0.05348060
5232.00   9.33412457   0.05355348
5234.00   9.28909302   0.05348608
5236.00   8.98303699   0.05280965
5238.00   9.02894592   0.05304566
5240.00   8.99382114   0.05303653
5242.00   8.78940487   0.05251578
5244.00   8.68164539   0.05227317
5246.00   8.69147587   0.05237969
5248.00   8.45529842   0.05184779
5250.00   8.42395878   0.05177165
5252.00   8.22104073   0.05134000
5254.00   8.13250065   0.05123244
5256.00   8.08119678   0.05129716
5258.00   8.00986958   0.05123746
5260.00   7.81826019   0.05076104
5262.00   7.77530432   0.05056377
5264.00   7.71788073   0.05040383
5266.00   7.69248056   0.05041090
5268.00   7.52043343   0.04997274
5270.00   7.45595598   0.04985486
5272.00   7.39620399   0.04982537
5274.00   7.27449703   0.04954758
5276.00   7.21721840   0.04954955
5278.00   7.19249105   0.04953272
5280.00   7.13858843   0.04939957
5282.00   7.10385752   0.04951060
5284.00   7.07972860   0.04956454
5286.00   7.00892162   0.04945295
5288.00   6.86751223   0.04909895
5290.00   6.85551071   0.04914863
5292.00   6.84483671   0.04914762
5294.00   6.88252449   0.04937513
5296.00   6.78640366   0.04921566
5298.00   6.74164295   0.04920630
5300.00   6.88465691   0.04979867
5302.00   6.89593744   0.04992249
5304.00   6.85070610   0.04991188
5306.00   6.85929537   0.05005411
5308.00   6.83693790   0.05006058
5310.00   6.75908089   0.05002186
5312.00   6.83159781   0.05048249
5314.00   6.87913179   0.05070245
5316.00   6.95669556   0.05102608
5318.00   6.93261433   0.05108162
5320.00   6.98451424   0.05134505
5322.00   6.79893398   0.05087269
5324.00   6.94833279   0.05153368
5326.00   7.01620245   0.05190995
5328.00   6.90349960   0.05165199
5330.00   6.91310787   0.05181047
5332.00   6.85246563   0.05174413
5334.00   6.86875153   0.05195374
5336.00   6.90225267   0.05225682
5338.00   6.80823135   0.05214983
5340.00   6.82810688   0.05241456
5342.00   6.92895603   0.05294322
5344.00   7.05683327   0.05352376
5346.00   7.01588392   0.05364232
5348.00   7.01834917   0.05403314
5350.00   6.98842955   0.05409196
5352.00   7.18384647   0.05478248
5354.00   7.26087236   0.05537260
5356.00   7.26426554   0.05557967
5358.00   7.25190258   0.05550438
5360.00   7.30171013   0.05563027
5362.00   7.41564274   0.05597956
5364.00   7.36287785   0.05587456
5366.00   7.49078274   0.05639564
5368.00   7.44634914   0.05637670
5370.00   7.38666439   0.05630983
5372.00   7.33496475   0.05643253
5374.00   7.21158838   0.05632250
5376.00   7.29935122   0.05670667
5378.00   7.21856546   0.05663574
5380.00   7.24965382   0.05679936
5382.00   7.26772404   0.05696579
5384.00   7.15991402   0.05672701
5386.00   7.11290026   0.05666787
5388.00   7.21863413   0.05728394
5390.00   7.17837811   0.05746555
5392.00   7.13483524   0.05757581
5394.00   7.11678982   0.05755334
5396.00   7.08576393   0.05759662
5398.00   7.09846544   0.05770399
5400.00   7.01547766   0.05753402
5402.00   7.12038231   0.05799503
5404.00   7.05508709   0.05802547
5406.00   7.00131512   0.05800783
5408.00   7.09088898   0.05850429
5410.00   6.94440651   0.05823409
5412.00   6.85420370   0.05825936
5414.00   6.83985806   0.05850818
5416.00   6.82041168   0.05871768
5418.00   6.91645575   0.05932863
5420.00   6.80252028   0.05902768
5422.00   6.71166563   0.05880563
5424.00   6.64101267   0.05862914
5426.00   6.65064907   0.05877604
5428.00   6.62038565   0.05874318
5430.00   6.51205111   0.05847533
5432.00   6.59868431   0.05888028
5434.00   6.44243050   0.05844995
5436.00   6.38164186   0.05826581
5438.00   6.49966574   0.05895478
5440.00   6.34213400   0.05840742
5442.00   6.30415344   0.05846030
5444.00   6.23470497   0.05841979
5446.00   6.14799452   0.05823565
5448.00   5.92889166   0.05745929
5450.00   6.07109880   0.05820552
5452.00   5.90295172   0.05765433
5454.00   5.95995808   0.05793178
5456.00   5.90426397   0.05927347
5458.00   5.93591070   0.02738752
5460.00   5.84465837   0.02748832
5462.00   5.69293499   0.02603798
5464.00   5.64381218   0.02495408
5466.00   5.68920612   0.02317230
5468.00   5.68995810   0.02187578
5470.00   5.65039444   0.02105794
5472.00   5.60861874   0.02052005
5474.00   5.58368969   0.02012846
5476.00   5.56559181   0.01996299
5478.00   5.57073832   0.02031608
5480.00   5.59499836   0.02182419
5482.00   5.63349533   0.02198658
5484.00   5.70446777   0.02087654
5486.00   5.76367712   0.01982179
5488.00   5.78402901   0.01933699
5490.00   5.78804493   0.01917847
5492.00   5.83084869   0.01968098
5494.00   5.89408445   0.02076536
5496.00   5.97140312   0.02208151
5498.00   6.09521389   0.02438659
5500.00   6.18037462   0.02560855
5502.00   6.19326067   0.02523920
5504.00   6.18281603   0.02421845
5506.00   6.22618723   0.02397579
5508.00   6.30424261   0.02408373
5510.00   6.36240768   0.02394358
5512.00   6.41151381   0.02379588
5514.00   6.46977377   0.02347407
5516.00   6.53560019   0.02291595
5518.00   6.60999107   0.02224516
5520.00   6.69966125   0.02154737
5522.00   6.80682564   0.02069092
5524.00   6.88819551   0.02039122
5526.00   6.97008991   0.02050855
5528.00   7.01442528   0.02082025
5530.00   6.99153471   0.02132021
5532.00   6.98686552   0.02206904
5534.00   7.06940508   0.02302548
5536.00   7.20471859   0.02416894
5538.00   7.28311682   0.02586661
5540.00   7.33739328   0.02938013
5542.00   7.38444424   0.02978109
5544.00   7.41036081   0.02730031
5546.00   7.44073629   0.02458476
5548.00   7.49491167   0.02258880
5550.00   7.55382013   0.02090915
5552.00   7.56285334   0.02078453
5554.00   7.50723124   0.02290691
5556.00   7.51422977   0.02330357
5558.00   7.57219172   0.02259202
5560.00   7.60674429   0.02249353
5562.00   7.60020828   0.02368956
5564.00   7.57871151   0.02501712
5566.00   7.56941652   0.02485493
5568.00   7.55423117   0.02308129
5570.00   7.56942940   0.02364726
5572.00   7.64294767   0.02645226
5574.00   7.65720463   0.02774820
5576.00   7.59206390   0.02754520
5578.00   7.51014137   0.02684254
5580.00   7.45827198   0.02632675
5582.00   7.40490103   0.02563716
5584.00   7.45025778   0.02518041
5586.00   7.64171696   0.02491326
5588.00   7.72579765   0.02457799
5590.00   7.71620560   0.02340992
5592.00   7.68727636   0.02336419
5594.00   7.66568089   0.02661589
5596.00   7.63782024   0.03120383
5598.00   7.67849684   0.03067345
5600.00   7.81306934   0.02383121
5602.00   7.87140512   0.02136147
5604.00   7.86050701   0.02283726
5606.00   7.87728214   0.02406953
5608.00   7.97116041   0.02361342
5610.00   8.09389877   0.02279224
5612.00   8.14527607   0.02365468
5614.00   8.15708733   0.02653764
5616.00   8.15087509   0.02682338
5618.00   8.09728336   0.02492465
5620.00   8.06137085   0.02376045
5622.00   8.06152248   0.02411485
5624.00   8.06648731   0.02488476
5626.00   8.03213120   0.02496182
5628.00   7.95606136   0.02477957
5630.00   7.94867420   0.02447859
5632.00   8.01260185   0.02394872
5634.00   8.03483772   0.02335704
5636.00   8.00784111   0.02260926
5638.00   7.97115278   0.02185317
5640.00   7.95352173   0.02126064
5642.00   7.94133902   0.02075326
5644.00   7.93914080   0.02047009
5646.00   7.93682432   0.02006280
5648.00   7.96169090   0.02052910
5650.00   8.03125763   0.02211711
5652.00   8.08979607   0.02354106
5654.00   8.10515594   0.02428086
5656.00   8.09536552   0.02469835
5658.00   8.07509613   0.02475168
5660.00   8.00999928   0.02437301
5662.00   7.99717426   0.02385345
5664.00   8.03778839   0.02289120
5666.00   8.05921364   0.02201448
5668.00   8.03131771   0.02122531
5670.00   7.98420620   0.02066074
5672.00   7.96754313   0.02120329
5674.00   7.96756029   0.02327701
5676.00   7.96440744   0.02363158
5678.00   7.95737600   0.02250947
5680.00   7.96577597   0.02218389
5682.00   7.99992895   0.02339635
5684.00   8.04036045   0.02472298
5686.00   8.06017494   0.02455574
5688.00   8.07182217   0.02327285
5690.00   8.06769657   0.02261348
5692.00   8.04298019   0.02186494
5694.00   8.01967430   0.02154486
5696.00   7.98393965   0.02162701
5698.00   7.96135521   0.02208284
5700.00   7.98728991   0.02318561
5702.00   8.05295372   0.02491414
5704.00   8.05148315   0.02460737
5706.00   7.99624681   0.02192942
5708.00   7.95897627   0.02057423
5710.00   7.92510939   0.02022192
5712.00   7.89502716   0.02021647
5714.00   7.87467337   0.02036893
5716.00   7.85943794   0.02075978
5718.00   7.82180262   0.02088677
5720.00   7.77200222   0.02102151
5722.00   7.70855522   0.02086193
5724.00   7.61645603   0.02023931
5726.00   7.53750753   0.01981194
5728.00   7.49682665   0.01985090
5730.00   7.46331930   0.02008398
5732.00   7.36964369   0.02009091
5734.00   7.22062874   0.01983157
5736.00   7.10292721   0.02013734
5738.00   6.98853445   0.02144682
5740.00   6.88197851   0.02168691
5742.00   6.79039907   0.02023734
5744.00   6.69971418   0.01824793
5746.00   6.58851624   0.01754294
5748.00   6.46208858   0.01757698
5750.00   6.34401894   0.01775793
5752.00   6.22158766   0.01848933
5754.00   6.11063528   0.01906791
5756.00   6.00592804   0.01983951
5758.00   5.91492939   0.02022754
5760.00   5.84807587   0.01954727
5762.00   5.80207634   0.01794122
5764.00   5.74655390   0.01732419
5766.00   5.69323826   0.01706537
5768.00   5.63739491   0.01731222
5770.00   5.57257795   0.01825202
5772.00   5.51765299   0.01923407
5774.00   5.48204851   0.02015055
5776.00   5.45983934   0.02101638
5778.00   5.44546747   0.02104521
5780.00   5.44610786   0.02022597
5782.00   5.44430017   0.01958176
5784.00   5.44276810   0.01846893
5786.00   5.44782352   0.01778025
5788.00   5.45886135   0.01801504
5790.00   5.47774649   0.01859653
5792.00   5.51273918   0.01848473
5794.00   5.56587696   0.01763260
5796.00   5.61440563   0.01797799
5798.00   5.67296982   0.01936040
5800.00   5.71919298   0.02034998
5802.00   5.75070190   0.02112932
5804.00   5.77371836   0.02155047
5806.00   5.78893328   0.02108715
5808.00   5.78690100   0.01964469
5810.00   5.83109093   0.01914170
5812.00   5.92755508   0.01939217
5814.00   5.99433899   0.01918433
5816.00   6.02866507   0.01826751
5818.00   6.06318569   0.01755217
5820.00   6.12250137   0.01798320
5822.00   6.19586992   0.01914527
5824.00   6.24887800   0.01919134
5826.00   6.28774738   0.01835284
5828.00   6.33033419   0.01795048
5830.00   6.36456537   0.01770103
5832.00   6.41108561   0.01760154
5834.00   6.48856926   0.01769656
5836.00   6.58082914   0.01794451
5838.00   6.63123512   0.01818459
5840.00   6.64574718   0.01856127
5842.00   6.67434406   0.01876985
5844.00   6.69045973   0.01856144
5846.00   6.72674656   0.01888694
5848.00   6.80785513   0.02019830
5850.00   6.89670992   0.02169779
5852.00   6.91586065   0.02228082
5854.00   6.86210918   0.02252123
5856.00   6.88937902   0.02210559
5858.00   6.97392082   0.02049046
5860.00   7.04529953   0.01938385
5862.00   7.10842037   0.01875704
5864.00   7.16035604   0.01869974
5866.00   7.18510914   0.01957977
5868.00   7.18464231   0.02122055
5870.00   7.19754314   0.02287182
5872.00   7.20094109   0.02606499
5874.00   7.22698021   0.02655697
5876.00   7.29231119   0.02366970
5878.00   7.34613705   0.02041116
5880.00   7.34695482   0.01982297
5882.00   7.31440687   0.02075075
5884.00   7.30801105   0.02172185
5886.00   7.30135250   0.02363561
5888.00   7.31389141   0.02487428
5890.00   7.33306789   0.02565724
5892.00   7.37952471   0.02656553
5894.00   7.47428036   0.02818008
5896.00   7.59659624   0.02982402
5898.00   7.67609978   0.02943761
5900.00   7.74576426   0.02689421
5902.00   7.78026485   0.02510252
5904.00   7.75561905   0.02263888
5906.00   7.76001978   0.02090714
5908.00   7.82762909   0.02083068
5910.00   7.90740299   0.02138022
5912.00   7.92007637   0.02073748
5914.00   7.88412952   0.01908898
5916.00   7.86301661   0.01874882
5918.00   7.81288433   0.01930576
5920.00   7.80536366   0.01997380
5922.00   7.85865831   0.02092994
5924.00   7.92438745   0.02185365
5926.00   7.95623446   0.02238530
5928.00   7.97568464   0.02275131
5930.00   7.97471142   0.02263239
5932.00   7.93843699   0.02203663
5934.00   7.92177868   0.02123479
5936.00   7.91942835   0.01967543
5938.00   7.92228031   0.01842226
5940.00   7.92548561   0.01849443
5942.00   7.93153000   0.01942737
5944.00   7.94797659   0.02020417
5946.00   7.98478508   0.02140947
5948.00   8.00055981   0.02217267
5950.00   7.99920654   0.02301953
5952.00   7.99748135   0.02322217
5954.00   8.00440311   0.02222523
5956.00   8.01156807   0.02049773
5958.00   7.99945784   0.01974128
5960.00   7.95755339   0.01932057
5962.00   7.95126295   0.01951326
5964.00   7.96397972   0.02041086
5966.00   7.98725128   0.02144445
5968.00   8.03768539   0.02299505
5970.00   8.08495617   0.02427633
5972.00   8.06299782   0.02373444
5974.00   7.97051620   0.02113660
5976.00   7.95196009   0.02057356
5978.00   7.99844694   0.02141935
5980.00   8.00061321   0.02196906
5982.00   7.94657421   0.02241392
5984.00   7.88135672   0.02267697
5986.00   7.83815145   0.02252381
5988.00   7.79814816   0.02205857
5990.00   7.79923105   0.02125393
5992.00   7.86211348   0.01962561
5994.00   7.88180113   0.01851541
5996.00   7.86403608   0.01752557
5998.00   7.84063482   0.01721841
6000.00   7.83421659   0.01821538
6002.00   7.83197498   0.02002610
6004.00   7.78336954   0.02104120
6006.00   7.67173815   0.02227030
6008.00   7.61087799   0.02241679
6010.00   7.57866049   0.02124994
6012.00   7.55541801   0.02029923
6014.00   7.54150867   0.02022318
6016.00   7.53300095   0.02052001
6018.00   7.50211382   0.02062532
6020.00   7.44012213   0.02093853
6022.00   7.42046738   0.02073830
6024.00   7.44340658   0.01951928
6026.00   7.44500589   0.01929528
6028.00   7.42155933   0.02096440
6030.00   7.37809944   0.02278188
6032.00   7.30298376   0.02271733
6034.00   7.18343019   0.02125633
6036.00   7.11653137   0.02059676
6038.00   7.09391069   0.01996776
6040.00   7.04805803   0.01964994
6042.00   6.96838379   0.01955978
6044.00   6.89277506   0.01985671
6046.00   6.86271954   0.02090665
6048.00   6.86865139   0.02262265
6050.00   6.79636574   0.02284234
6052.00   6.63825893   0.02157205
6054.00   6.53958893   0.02122108
6056.00   6.51137400   0.02200457
6058.00   6.45742893   0.02229969
6060.00   6.31073236   0.02105281
6062.00   6.11251450   0.01871405
6064.00   5.99049520   0.01721421
6066.00   5.93141556   0.01560939
6068.00   5.82894707   0.01505259
6070.00   5.70238924   0.01601711
6072.00   5.57712364   0.01666657
6074.00   5.46821070   0.01657019
6076.00   5.35800505   0.01612271
6078.00   5.20587587   0.01545850
6080.00   5.00877905   0.01414198
6082.00   4.84069443   0.01348855
6084.00   4.67862606   0.01334824
6086.00   4.52409172   0.01318152
6088.00   4.37865829   0.01282774
6090.00   4.23931742   0.01259115
6092.00   4.10183048   0.01288719
6094.00   3.96850371   0.01362542
6096.00   3.83610606   0.01416321
6098.00   3.69618654   0.01520618
6100.00   3.57764864   0.01522451
6102.00   3.48608398   0.01371699
6104.00   3.40157843   0.01198699
6106.00   3.30696845   0.01166210
6108.00   3.20929551   0.01220694
6110.00   3.12429523   0.01256703
6112.00   3.03916979   0.01347427
6114.00   2.97800970   0.01364981
6116.00   2.95007086   0.01316210
6118.00   2.91979289   0.01252908
6120.00   2.86733484   0.01196914
6122.00   2.80506039   0.01135931
6124.00   2.75181270   0.01091327
6126.00   2.69445086   0.01044606
6128.00   2.65450978   0.01038760
6130.00   2.62816405   0.01084424
6132.00   2.60937285   0.01120825
6134.00   2.59784365   0.01137039
6136.00   2.59308290   0.01143374
6138.00   2.59093070   0.01136044
6140.00   2.59535146   0.01102391
6142.00   2.59642339   0.01100469
6144.00   2.59046364   0.01135781
6146.00   2.59699202   0.01140926
6148.00   2.62043762   0.01095674
6150.00   2.65128803   0.01040391
6152.00   2.67857122   0.01028406
6154.00   2.70511293   0.01037153
6156.00   2.74272609   0.01077671
6158.00   2.79609919   0.01159956
6160.00   2.83917570   0.01228395
6162.00   2.87285161   0.01301832
6164.00   2.90270996   0.01356218
6166.00   2.92871022   0.01372501
6168.00   2.94942927   0.01362540
6170.00   2.99284863   0.01326075
6172.00   3.05776286   0.01220188
6174.00   3.11746621   0.01171372
6176.00   3.18039536   0.01173877
6178.00   3.23983693   0.01185106
6180.00   3.29193759   0.01191418
6182.00   3.33920550   0.01199534
6184.00   3.38454700   0.01189480
6186.00   3.40948057   0.01129705
6188.00   3.47292089   0.01149708
6190.00   3.57084107   0.01254073
6192.00   3.66716981   0.01315989
6194.00   3.75814414   0.01309238
6196.00   3.84490347   0.01271282
6198.00   3.91332054   0.01242125
6200.00   3.95959210   0.01194239
6202.00   4.02475071   0.01177347
6204.00   4.10102129   0.01146204
6206.00   4.17415428   0.01191680
6208.00   4.24190569   0.01364200
6210.00   4.30990601   0.01518168
6212.00   4.38274384   0.01521505
6214.00   4.45702410   0.01420121
6216.00   4.54290199   0.01363119
6218.00   4.65014172   0.01278037
6220.00   4.73833752   0.01237278
6222.00   4.80350208   0.01245351
6224.00   4.86833715   0.01276782
6226.00   4.95068550   0.01311260
6228.00   5.04256296   0.01356336
6230.00   5.11874628   0.01445440
6232.00   5.19056702   0.01610709
6234.00   5.24919653   0.01683985
6236.00   5.28644466   0.01715224
6238.00   5.32859802   0.01699470
6240.00   5.39011002   0.01606896
6242.00   5.45993185   0.01455737
6244.00   5.51525640   0.01387170
6246.00   5.55830526   0.01291044
6248.00   5.61013317   0.01398059
6250.00   5.65550184   0.01755597
6252.00   5.71941996   0.01931512
6254.00   5.82048655   0.01877202
6256.00   5.93016815   0.01717257
6258.00   5.99205017   0.01608884
6260.00   6.01477814   0.01461444
6262.00   6.06173611   0.01395983
6264.00   6.12020397   0.01416875
6266.00   6.16967249   0.01429177
6268.00   6.19967985   0.01421703
6270.00   6.23426437   0.01428898
6272.00   6.30726862   0.01489534
6274.00   6.41627502   0.01597945
6276.00   6.46221066   0.01623137
6278.00   6.46346092   0.01571965
6280.00   6.46340036   0.01566316
6282.00   6.43865585   0.01618889
6284.00   6.42855453   0.01653876
6286.00   6.46901894   0.01604290
6288.00   6.54272985   0.01496447
6290.00   6.59138155   0.01532007
6292.00   6.61780739   0.01730192
6294.00   6.67853403   0.01779940
6296.00   6.77973223   0.01724938
6298.00   6.86987638   0.01666282
6300.00   6.93354559   0.01645925
6302.00   6.97942972   0.01635027
6304.00   6.99337244   0.01606118
6306.00   6.94811916   0.01555329
6308.00   6.96010780   0.01530357
6310.00   7.01681757   0.01525354
6312.00   7.05592489   0.01519319
6314.00   7.06423187   0.01507728
6316.00   7.05970621   0.01496650
6318.00   7.05977535   0.01492310
6320.00   7.06189823   0.01495036
6322.00   7.04419565   0.01491253
6324.00   6.98972988   0.01478810
6326.00   6.96940041   0.01476684
6328.00   6.99174595   0.01486076
6330.00   7.02792168   0.01501519
6332.00   7.05774593   0.01520954
6334.00   7.09579754   0.01547539
6336.00   7.09165716   0.01558745
6338.00   7.04133177   0.01532173
6340.00   7.00944138   0.01562360
6342.00   6.99416304   0.01634008
6344.00   6.97343254   0.01735243
6346.00   6.92748308   0.01899313
6348.00   6.86673546   0.02093565
6350.00   6.85257673   0.02056098
6352.00   6.89745855   0.01660047
6354.00   6.88993359   0.01584607
6356.00   6.82844877   0.01860817
6358.00   6.79114437   0.02000418
6360.00   6.81306839   0.01831620
6362.00   6.86328506   0.01492554
6364.00   6.88914776   0.01408275
6366.00   6.91934013   0.01522932
6368.00   6.92002249   0.01571631
6370.00   6.88232088   0.01637223
6372.00   6.86017942   0.01705205
6374.00   6.86347771   0.01768338
6376.00   6.87706518   0.01838735
6378.00   6.88644886   0.01945271
6380.00   6.89239168   0.02118748
6382.00   6.92186117   0.02108682
6384.00   6.98348856   0.01896859
6386.00   7.02580261   0.01764094
6388.00   7.04086828   0.01742745
6390.00   7.05564928   0.01745475
6392.00   7.09792185   0.01704200
6394.00   7.16047716   0.01644631
6396.00   7.18601084   0.01607316
6398.00   7.18161726   0.01589093
6400.00   7.18492270   0.01560729
6402.00   7.18730593   0.01495202
6404.00   7.19299555   0.01470338
6406.00   7.20704174   0.01550720
6408.00   7.22649670   0.01689247
6410.00   7.24017763   0.01762617
6412.00   7.25986719   0.01825939
6414.00   7.25948906   0.01854869
6416.00   7.24208355   0.01825573
6418.00   7.21782780   0.01823959
6420.00   7.18307114   0.01902747
6422.00   7.14477682   0.01999037
6424.00   7.13401031   0.01985427
6426.00   7.15684843   0.01877536
6428.00   7.14422512   0.01798147
6430.00   7.10654449   0.01678629
6432.00   7.07377434   0.01602642
6434.00   7.04907274   0.01580628
6436.00   7.02707863   0.01608880
6438.00   7.00481558   0.01713952
6440.00   6.98039341   0.01929818
6442.00   6.97144413   0.01925755
6444.00   6.98914671   0.01709307
6446.00   6.98266554   0.01568625
6448.00   6.94993782   0.01506238
6450.00   6.90710115   0.01490503
6452.00   6.86242867   0.01521950
6454.00   6.80970955   0.01605229
6456.00   6.77871084   0.01648939
6458.00   6.76866722   0.01690920
6460.00   6.75031662   0.01711486
6462.00   6.73345375   0.01717319
6464.00   6.70800447   0.01703555
6466.00   6.65879822   0.01664234
6468.00   6.59663391   0.01601274
6470.00   6.58265400   0.01528685
6472.00   6.62431955   0.01393926
6474.00   6.62426662   0.01343914
6476.00   6.60321236   0.01365815
6478.00   6.57711840   0.01404297
6480.00   6.54719067   0.01444879
6482.00   6.51424551   0.01497978
6484.00   6.48912239   0.01568855
6486.00   6.46391058   0.01692216
6488.00   6.45395279   0.01707748
6490.00   6.46362019   0.01642440
6492.00   6.46680546   0.01565886
6494.00   6.45461512   0.01452288
6496.00   6.44464588   0.01342122
6498.00   6.46227169   0.01340881
6500.00   6.50706625   0.01428125
6502.00   6.51664543   0.01483452
6504.00   6.51324320   0.01556185
6506.00   6.48977327   0.01609636
6508.00   6.43093348   0.01661025
6510.00   6.37319851   0.01685545
6512.00   6.34987783   0.01653868
6514.00   6.34654713   0.01573902
6516.00   6.34048462   0.01507419
6518.00   6.34595633   0.01409835
6520.00   6.34170341   0.01352157
6522.00   6.33042812   0.01317151
6524.00   6.31648588   0.01322648
6526.00   6.30317974   0.01388930
6528.00   6.28802156   0.01492980
6530.00   6.26096392   0.01562136
6532.00   6.20965910   0.01659863
6534.00   6.18774605   0.01666889
6536.00   6.18917179   0.01587225
6538.00   6.18888760   0.01503124
6540.00   6.18251228   0.01427356
6542.00   6.17309093   0.01354952
6544.00   6.15616465   0.01323463
6546.00   6.13013029   0.01338663
6548.00   6.10914040   0.01328873
6550.00   6.09138680   0.01272155
6552.00   6.06950092   0.01296197
6554.00   6.03793001   0.01454433
6556.00   6.00808716   0.01606484
6558.00   5.99480772   0.01622416
6560.00   5.99196291   0.01554000
6562.00   5.99833775   0.01490310
6564.00   6.03230858   0.01351890
6566.00   6.03847361   0.01277465
6568.00   6.01395512   0.01288416
6570.00   5.98227215   0.01315582
6572.00   5.95588684   0.01308235
6574.00   5.92745113   0.01289180
6576.00   5.92436695   0.01299156
6578.00   5.96083307   0.01345693
6580.00   5.96079493   0.01358033
6582.00   5.92575312   0.01341730
6584.00   5.89469624   0.01323870
6586.00   5.88742447   0.01312079
6588.00   5.89010620   0.01303335
6590.00   5.87849283   0.01317418
6592.00   5.85970974   0.01349551
6594.00   5.83932972   0.01389182
6596.00   5.80897045   0.01452861
6598.00   5.78723526   0.01499484
6600.00   5.78132629   0.01531652
6602.00   5.78187656   0.01543737
6604.00   5.77389860   0.01500590
6606.00   5.76059723   0.01381730
6608.00   5.75387001   0.01317725
6610.00   5.75298309   0.01250414
6612.00   5.74929905   0.01242721
6614.00   5.74503946   0.01336125
6616.00   5.73642826   0.01433758
6618.00   5.71543026   0.01433542
6620.00   5.68177462   0.01364639
6622.00   5.66315031   0.01362227
6624.00   5.65103245   0.01408845
6626.00   5.64402485   0.01423272
6628.00   5.64854240   0.01407883
6630.00   5.65003586   0.01386376
6632.00   5.63546085   0.01374316
6634.00   5.61074924   0.01364441
6636.00   5.59626389   0.01342462
6638.00   5.57990932   0.01303966
6640.00   5.57837105   0.01277355
6642.00   5.60213470   0.01255311
6644.00   5.61407375   0.01240948
6646.00   5.59468222   0.01238962
6648.00   5.55909538   0.01245094
6650.00   5.53658438   0.01242801
6652.00   5.51326609   0.01223353
6654.00   5.50027084   0.01238322
6656.00   5.49924994   0.01285725
6658.00   5.49639130   0.01325143
6660.00   5.48931170   0.01359663
6662.00   5.48065662   0.01381974
6664.00   5.47098827   0.01359886
6666.00   5.45852995   0.01284475
6668.00   5.45064926   0.01249864
6670.00   5.45138407   0.01220408
6672.00   5.44197083   0.01219659
6674.00   5.41506767   0.01267089
6676.00   5.38836622   0.01316868
6678.00   5.38199425   0.01320557
6680.00   5.38954544   0.01295989
6682.00   5.39060736   0.01281612
6684.00   5.38886261   0.01237770
6686.00   5.39365053   0.01248796
6688.00   5.40962458   0.01343851
6690.00   5.42212534   0.01413240
6692.00   5.42139482   0.01370631
6694.00   5.41241932   0.01254484
6696.00   5.39813519   0.01310603
6698.00   5.37077808   0.01568545
6700.00   5.35249233   0.01609249
6702.00   5.33765316   0.01473261
6704.00   5.32684183   0.01344303
6706.00   5.31949854   0.01316922
6708.00   5.31653786   0.01332352
6710.00   5.32305622   0.01322424
6712.00   5.34723139   0.01293116
6714.00   5.35255814   0.01313920
6716.00   5.34764147   0.01409120
6718.00   5.33896971   0.01445270
6720.00   5.32246494   0.01386535
6722.00   5.30582190   0.01288851
6724.00   5.30859041   0.01240220
6726.00   5.33483076   0.01208579
6728.00   5.32454586   0.01193369
6730.00   5.28576899   0.01196957
6732.00   5.25063515   0.01215820
6734.00   5.21248770   0.01257897
6736.00   5.18033838   0.01303844
6738.00   5.17030191   0.01339093
6740.00   5.17891693   0.01376015
6742.00   5.17043829   0.01365189
6744.00   5.15599823   0.01285613
6746.00   5.13760757   0.01250807
6748.00   5.10920715   0.01264206
6750.00   5.08461571   0.01275730
6752.00   5.07669067   0.01251438
6754.00   5.07841492   0.01208566
6756.00   5.05748796   0.01204871
6758.00   5.01608229   0.01234255
6760.00   4.98424625   0.01251526
6762.00   4.94764376   0.01280897
6764.00   4.92393351   0.01288804
6766.00   4.92402935   0.01252185
6768.00   4.93686104   0.01193289
6770.00   4.93650818   0.01176920
6772.00   4.92917156   0.01173883
6774.00   4.92800713   0.01208249
6776.00   4.93602705   0.01298322
6778.00   4.93341684   0.01360227
6780.00   4.91419601   0.01399057
6782.00   4.88850451   0.01411263
6784.00   4.86974192   0.01361310
6786.00   4.85402727   0.01227007
6788.00   4.83285379   0.01167721
6790.00   4.79902363   0.01124456
6792.00   4.78232431   0.01142251
6794.00   4.78626680   0.01236902
6796.00   4.79719448   0.01349603
6798.00   4.80740833   0.01453374
6800.00   4.82367849   0.01573423
6802.00   4.81011295   0.01562494
6804.00   4.75605774   0.01380501
6806.00   4.73314953   0.01301298
6808.00   4.74094772   0.01329744
6810.00   4.74758673   0.01356251
6812.00   4.73338032   0.01322445
6814.00   4.70976114   0.01259439
6816.00   4.70338106   0.01215101
6818.00   4.70843124   0.01159406
6820.00   4.71301317   0.01137549
6822.00   4.72086096   0.01126545
6824.00   4.73045397   0.01160589
6826.00   4.74749756   0.01278423
6828.00   4.76354408   0.01411911
6830.00   4.74916458   0.01424082
6832.00   4.69727755   0.01339059
6834.00   4.67955780   0.01288962
6836.00   4.67985916   0.01218479
6838.00   4.68221474   0.01168161
6840.00   4.68590117   0.01148256
6842.00   4.69215679   0.01146466
6844.00   4.70059061   0.01152092
6846.00   4.71493673   0.01176041
6848.00   4.71450615   0.01179895
6850.00   4.69187450   0.01159493
6852.00   4.68957806   0.01164939
6854.00   4.71360588   0.01206637
6856.00   4.74041796   0.01247153
6858.00   4.74834108   0.01252861
6860.00   4.74497509   0.01235575
6862.00   4.76471281   0.01261597
6864.00   4.82173538   0.01332710
6866.00   4.83389664   0.01366175
6868.00   4.81493616   0.01381531
6870.00   4.77154207   0.01376375
6872.00   4.68793964   0.01337955
6874.00   4.57794905   0.01273517
6876.00   4.55428600   0.01245477
6878.00   4.60873318   0.01211310
6880.00   4.63459492   0.01244621
6882.00   4.67658854   0.01384127
6884.00   4.69355822   0.01452705
6886.00   4.66334724   0.01388675
6888.00   4.61233854   0.01265630
6890.00   4.59274197   0.01242849
6892.00   4.58449793   0.01277222
6894.00   4.58794403   0.01314039
6896.00   4.62034941   0.01413929
6898.00   4.63140678   0.01442423
6900.00   4.61404943   0.01344486
6902.00   4.58338881   0.01228153
6904.00   4.55096054   0.01281787
6906.00   4.50784826   0.01458584
6908.00   4.47960043   0.01507910
6910.00   4.45576620   0.01523494
6912.00   4.44331646   0.01487019
6914.00   4.44716930   0.01349167
6916.00   4.45420456   0.01202666
6918.00   4.45405483   0.01166649
6920.00   4.45180511   0.01203181
6922.00   4.44549561   0.01213565
6924.00   4.42972040   0.01244897
6926.00   4.42401743   0.01251882
6928.00   4.42454195   0.01238250
6930.00   4.43052816   0.01219442
6932.00   4.44240522   0.01188775
6934.00   4.45974827   0.01154387
6936.00   4.47977638   0.01198382
6938.00   4.52858591   0.01364956
6940.00   4.52157879   0.01383004
6942.00   4.45129776   0.01245156
6944.00   4.40467930   0.01192373
6946.00   4.41156960   0.01341854
6948.00   4.43734264   0.01531978
6950.00   4.43273544   0.01575588
6952.00   4.40984774   0.01541844
6954.00   4.39889193   0.01504900
6956.00   4.38527584   0.01423959
6958.00   4.38452530   0.01341259
6960.00   4.40033913   0.01235274
6962.00   4.42433786   0.01142765
6964.00   4.44873095   0.01140025
6966.00   4.47939301   0.01205092
6968.00   4.49880743   0.01291766
6970.00   4.52570868   0.01488376
6972.00   4.51968956   0.01537595
6974.00   4.46504211   0.01400919
6976.00   4.41093683   0.01262932
6978.00   4.39956379   0.01332374
6980.00   4.41253567   0.01512577
6982.00   4.39281607   0.01493599
6984.00   4.34548759   0.01280555
6986.00   4.31704283   0.01181098
6988.00   4.29690170   0.01167470
6990.00   4.28544617   0.01174569
6992.00   4.28746080   0.01185299
6994.00   4.29813671   0.01206501
6996.00   4.29442835   0.01197847
6998.00   4.27872705   0.01144053
7000.00   4.27140951   0.01145670
7002.00   4.27276373   0.01174074
7004.00   4.26532555   0.01225252
7006.00   4.23718786   0.01319515
7008.00   4.20595837   0.01413412
7010.00   4.20770550   0.01422943
7012.00   4.24329805   0.01355533
7014.00   4.24425125   0.01344243
7016.00   4.21808243   0.01381485
7018.00   4.20506430   0.01369977
7020.00   4.21013975   0.01255165
7022.00   4.21915817   0.01145133
7024.00   4.21668434   0.01224178
7026.00   4.20351696   0.01441361
7028.00   4.22486162   0.01458795
7030.00   4.28867865   0.01321528
7032.00   4.32449961   0.01250384
7034.00   4.33638525   0.01216594
7036.00   4.33983994   0.01226874
7038.00   4.33907986   0.01320284
7040.00   4.33126640   0.01468010
7042.00   4.34612989   0.01470866
7044.00   4.40046453   0.01327026
7046.00   4.40607977   0.01272564
7048.00   4.36115980   0.01290390
7050.00   4.32442951   0.01295227
7052.00   4.31848335   0.01234596
7054.00   4.32795954   0.01149311
7056.00   4.34513044   0.01172925
7058.00   4.39571238   0.01315690
7060.00   4.39880323   0.01355626
7062.00   4.35998201   0.01345742
7064.00   4.33093786   0.01336207
7066.00   4.32085991   0.01330537
7068.00   4.31873894   0.01327471
7070.00   4.31978703   0.01346415
7072.00   4.33075809   0.01406124
7074.00   4.32825375   0.01375068
7076.00   4.30989170   0.01220337
7078.00   4.30441809   0.01140874
7080.00   4.31554461   0.01156988
7082.00   4.33153296   0.01227019
7084.00   4.34448671   0.01346080
7086.00   4.36119890   0.01528665
7088.00   4.35332632   0.01537196
7090.00   4.31020832   0.01345247
7092.00   4.29436159   0.01290850
7094.00   4.30930758   0.01415903
7096.00   4.32195187   0.01504148
7098.00   4.31222439   0.01415912
7100.00   4.29049683   0.01205095
7102.00   4.26413631   0.01194926
7104.00   4.20461702   0.01400307
7106.00   4.19733858   0.01420211
7108.00   4.24502754   0.01297121
7110.00   4.28501225   0.01184558
7112.00   4.29244328   0.01160409
7114.00   4.28686476   0.01176250
7116.00   4.29103756   0.01176549
7118.00   4.29708004   0.01186461
7120.00   4.30294371   0.01189127
7122.00   4.31587601   0.01164141
7124.00   4.31714439   0.01183476
7126.00   4.29859161   0.01284415
7128.00   4.27362871   0.01391095
7130.00   4.26222897   0.01404701
7132.00   4.25554132   0.01348111
7134.00   4.25763512   0.01334421
7136.00   4.27694082   0.01322735
7138.00   4.28435850   0.01330385
7140.00   4.27700996   0.01385427
7142.00   4.26616859   0.01422140
7144.00   4.26020527   0.01364372
7146.00   4.25459385   0.01221197
7148.00   4.25668192   0.01158947
7150.00   4.27456093   0.01124414
7152.00   4.27501774   0.01134674
7154.00   4.25660610   0.01223872
7156.00   4.23723316   0.01293889
7158.00   4.22915506   0.01292077
7160.00   4.22558498   0.01250547
7162.00   4.20730877   0.01216525
7164.00   4.17401266   0.01152456
7166.00   4.14898968   0.01123776
7168.00   4.11899948   0.01118718
7170.00   4.10322475   0.01128977
7172.00   4.11254740   0.01156314
7174.00   4.13585663   0.01195323
7176.00   4.14923239   0.01226265
7178.00   4.16574001   0.01270945
7180.00   4.16973019   0.01274851
7182.00   4.16924000   0.01220473
7184.00   4.15480709   0.01205211
7186.00   4.11218500   0.01269670
7188.00   4.06745768   0.01339613
7190.00   4.06664944   0.01319546
7192.00   4.10234308   0.01221882
7194.00   4.11167383   0.01186300
7196.00   4.10429859   0.01161245
7198.00   4.11107159   0.01176959
7200.00   4.13859320   0.01267774
7202.00   4.16578484   0.01342612
7204.00   4.17473602   0.01315565
7206.00   4.17363787   0.01210333
7208.00   4.16338062   0.01202786
7210.00   4.12852287   0.01283880
7212.00   4.11724424   0.01300244
7214.00   4.13225412   0.01253039
7216.00   4.14413309   0.01214164
7218.00   4.13313818   0.01232663
7220.00   4.11122608   0.01279199
7222.00   4.11252260   0.01287587
7224.00   4.14383507   0.01282255
7226.00   4.14230251   0.01261518
7228.00   4.12055540   0.01189210
7230.00   4.09016657   0.01159719
7232.00   4.04404211   0.01231075
7234.00   3.99443603   0.01332712
7236.00   3.98799586   0.01340252
7238.00   4.03334236   0.01244777
7240.00   4.02544308   0.01281361
7242.00   3.97866321   0.01436567
7244.00   3.94341087   0.01521078
7246.00   3.92738938   0.01522291
7248.00   3.91576266   0.01489318
7250.00   3.89184189   0.01458478
7252.00   3.85112000   0.01402148
7254.00   3.86151171   0.01387907
7256.00   3.93740797   0.01438097
7258.00   3.96908498   0.01422086
7260.00   3.95208240   0.01312251
7262.00   3.92398071   0.01187446
7264.00   3.90527463   0.01131724
7266.00   3.88273597   0.01116107
7268.00   3.90766716   0.01122473
7270.00   4.01049471   0.01184104
7272.00   4.03855896   0.01211861
7274.00   3.99700379   0.01220261
7276.00   3.95083332   0.01221960
7278.00   3.93083167   0.01222159
7280.00   3.91876245   0.01217640
7282.00   3.90277910   0.01203185
7284.00   3.89097333   0.01167798
7286.00   3.87037277   0.01153054
7288.00   3.84140468   0.01093396
7290.00   3.81277966   0.01137109
7292.00   3.77707648   0.01378383
7294.00   3.74705529   0.01626060
7296.00   3.76444960   0.01626740
7298.00   3.83283854   0.01413559
7300.00   3.87027073   0.01314597
7302.00   3.91210985   0.01228914
7304.00   3.92839742   0.01174086
7306.00   3.90642047   0.01170819
7308.00   3.87230229   0.01188031
7310.00   3.85892153   0.01178510
7312.00   3.85331297   0.01153760
7314.00   3.84947252   0.01166950
7316.00   3.85582709   0.01233435
7318.00   3.85241008   0.01250373
7320.00   3.83672571   0.01212959
7322.00   3.82027197   0.01163865
7324.00   3.81248713   0.01134002
7326.00   3.80941939   0.01108700
7328.00   3.79956961   0.01097971
7330.00   3.78363109   0.01075217
7332.00   3.77192450   0.01116967
7334.00   3.76210999   0.01255567
7336.00   3.75446725   0.01344109
7338.00   3.75132489   0.01320051
7340.00   3.75046468   0.01233134
7342.00   3.73969316   0.01196355
7344.00   3.72014022   0.01173898
7346.00   3.70282912   0.01154679
7348.00   3.67856598   0.01149818
7350.00   3.66382146   0.01139112
7352.00   3.66842794   0.01085363
7354.00   3.67887425   0.01043198
7356.00   3.66629863   0.01161183
7358.00   3.62152600   0.01440001
7360.00   3.63417697   0.01486786
7362.00   3.70972300   0.01384668
7364.00   3.75131965   0.01296329
7366.00   3.75134015   0.01218405
7368.00   3.73231506   0.01151082
7370.00   3.70704556   0.01129718
7372.00   3.66522360   0.01148155
7374.00   3.64096260   0.01169007
7376.00   3.62964749   0.01215434
7378.00   3.61144066   0.01249509
7380.00   3.58058476   0.01286004
7382.00   3.55700374   0.01304661
7384.00   3.55874372   0.01278078
7386.00   3.57813740   0.01214486
7388.00   3.57975078   0.01214541
7390.00   3.57040834   0.01263777
7392.00   3.56724405   0.01297990
7394.00   3.56444573   0.01342455
7396.00   3.56691527   0.01369681
7398.00   3.58223677   0.01362885
7400.00   3.60304713   0.01336213
7402.00   3.59900618   0.01325779
7404.00   3.57864952   0.01283312
7406.00   3.55063558   0.01330167
7408.00   3.49668860   0.01492290
7410.00   3.46042991   0.01573781
7412.00   3.45120764   0.01544123
7414.00   3.45827127   0.01453950
7416.00   3.47553921   0.01345082
7418.00   3.51560307   0.01131758
7420.00   3.53119707   0.01069647
7422.00   3.53056479   0.01150621
7424.00   3.53263807   0.01215994
7426.00   3.54159236   0.01277898
7428.00   3.54668617   0.01331753
7430.00   3.53621888   0.01356923
7432.00   3.51346278   0.01365847
7434.00   3.49303651   0.01348150
7436.00   3.46557856   0.01284701
7438.00   3.44543529   0.01240734
7440.00   3.43275666   0.01215947
7442.00   3.42191291   0.01190518
7444.00   3.41156244   0.01144362
7446.00   3.40267611   0.01084409
7448.00   3.37968445   0.01081320
7450.00   3.34716225   0.01135433
7452.00   3.30768776   0.01168128
7454.00   3.25395083   0.01204420
7456.00   3.20338154   0.01228842
7458.00   3.16418934   0.01230734
7460.00   3.12995076   0.01220758
7462.00   3.09075022   0.01227241
7464.00   3.05318236   0.01247973
7466.00   3.00671220   0.01253108
7468.00   2.94989920   0.01248517
7470.00   2.89559078   0.01243022
7472.00   2.84735727   0.01237688
7474.00   2.80005407   0.01231390
7476.00   2.74743032   0.01227182
7478.00   2.69247317   0.01236530
7480.00   2.63277626   0.01196722
7482.00   2.56453991   0.01089026
7484.00   2.50132895   0.01010327
7486.00   2.44063759   0.00967086
7488.00   2.38577032   0.00947627
7490.00   2.34229326   0.00954557
7492.00   2.30821180   0.00995013
7494.00   2.27915359   0.00994557
7496.00   2.26130128   0.00935249
7498.00   2.23973918   0.00950173
7500.00   2.21186590   0.01063117
7502.00   2.19000268   0.01147360
7504.00   2.18218422   0.01142268
7506.00   2.18420601   0.01085015
7508.00   2.19006276   0.01020405
7510.00   2.21418142   0.00865543
7512.00   2.21590400   0.00814983
7514.00   2.19597888   0.00879402
7516.00   2.17932940   0.00933065
7518.00   2.17126942   0.00934255
7520.00   2.16965771   0.00921434
7522.00   2.18746185   0.00945750
7524.00   2.23639941   0.01000717
7526.00   2.25499463   0.01032776
7528.00   2.25735903   0.01068478
7530.00   2.25577545   0.01080813
7532.00   2.24431729   0.01054179
7534.00   2.23437023   0.01015386
7536.00   2.25178432   0.01013579
7538.00   2.29214263   0.01039841
7540.00   2.32367611   0.01039214
7542.00   2.36724591   0.01018531
7544.00   2.39017296   0.01009060
7546.00   2.38217950   0.01006665
7548.00   2.37162971   0.01015069
7550.00   2.38384247   0.01047186
7552.00   2.40647292   0.01102086
7554.00   2.44811320   0.01108411
7556.00   2.53569889   0.01085270
7558.00   2.57497025   0.01049369
7560.00   2.56466460   0.00966038
7562.00   2.54982281   0.00903627
7564.00   2.55464125   0.00923878
7566.00   2.56592178   0.00993221
7568.00   2.57686329   0.01038501
7570.00   2.59969473   0.01104000
7572.00   2.60176277   0.01127222
7574.00   2.58548117   0.01123490
7576.00   2.56722713   0.01101697
7578.00   2.54972577   0.01042903
7580.00   2.53219056   0.00969375
7582.00   2.52364731   0.00985540
7584.00   2.52844810   0.01065622
7586.00   2.51658797   0.01149142
7588.00   2.48255014   0.01275232
7590.00   2.46802616   0.01365069
7592.00   2.47000146   0.01351930
7594.00   2.49499774   0.01377457
7596.00   2.57495856   0.01660965
7598.00   2.73574018   0.02109923
7600.00   2.75795841   0.02272404
7602.00   2.65849376   0.02316266
7604.00   2.59673142   0.02317401
7606.00   2.56711888   0.02269161
7608.00   2.54615402   0.02167520
7610.00   2.51962876   0.01993257
7612.00   2.49004054   0.01713997
7614.00   2.50836897   0.01515597
7616.00   2.58630681   0.01323464
7618.00   2.63234162   0.01227114
7620.00   2.67044616   0.01273728
7622.00   2.68544173   0.01359121
7624.00   2.65794468   0.01453630
7626.00   2.60102606   0.01562965
7628.00   2.57658124   0.01559234
7630.00   2.55523205   0.01425531
7632.00   2.56186461   0.01370715
7634.00   2.59633780   0.01354218
7636.00   2.64072490   0.01342507
7638.00   2.69181800   0.01325202
7640.00   2.75127196   0.01311953
7642.00   2.81448770   0.01311669
7644.00   2.89373565   0.01313320
7646.00   2.94645643   0.01347826
7648.00   2.99065733   0.01448187
7650.00   3.01173282   0.01483909
7652.00   2.99682927   0.01435453
7654.00   2.97092032   0.01346555
7656.00   2.97005320   0.01260856
7658.00   2.98050761   0.01138484
7660.00   2.99411249   0.01083768
7662.00   3.01909208   0.01100290
7664.00   3.03828907   0.01100998
7666.00   3.05113721   0.01092472
7668.00   3.06343055   0.01083017
7670.00   3.07759690   0.01071476
7672.00   3.09157944   0.01056746
7674.00   3.11941242   0.01063421
7676.00   3.15039325   0.01071683
7678.00   3.20372820   0.01117315
7680.00   3.29656315   0.01220675
7682.00   3.37576056   0.01297188
7684.00   3.41577291   0.01317419
7686.00   3.43162823   0.01304552
7688.00   3.42701769   0.01260883
7690.00   3.36646080   0.01125367
7692.00   3.36480975   0.01081224
7694.00   3.41259384   0.01113441
7696.00   3.44695020   0.01139587
7698.00   3.44811678   0.01133812
7700.00   3.43719769   0.01125423
7702.00   3.43985915   0.01156532
7704.00   3.44823217   0.01235783
7706.00   3.45371580   0.01247851
7708.00   3.46001387   0.01197040
7710.00   3.46401143   0.01177644
7712.00   3.46466303   0.01198182
7714.00   3.46419334   0.01238924
7716.00   3.46575737   0.01300087
7718.00   3.46931672   0.01402516
7720.00   3.46622896   0.01383783
7722.00   3.44398499   0.01226090
7724.00   3.44964743   0.01127691
7726.00   3.48553991   0.01064610
7728.00   3.53210759   0.01060542
7730.00   3.57931042   0.01120758
7732.00   3.63327074   0.01225149
7734.00   3.66807914   0.01519406
7736.00   3.68553042   0.02099535
7738.00   3.70825386   0.02224467
7740.00   3.72090888   0.01971138
7742.00   3.74991870   0.01711136
7744.00   3.83087230   0.01714884
7746.00   3.93195963   0.01824471
7748.00   3.91367602   0.01763061
7750.00   3.75866294   0.01549968
7752.00   3.69632864   0.01413818
7754.00   3.66600609   0.01281229
7756.00   3.64943004   0.01183032
7758.00   3.64583349   0.01145506
7760.00   3.65409136   0.01150917
7762.00   3.66407681   0.01153018
7764.00   3.68112469   0.01154369
7766.00   3.69907546   0.01222712
7768.00   3.73063660   0.01388728
7770.00   3.74405718   0.01469341
7772.00   3.72493792   0.01456290
7774.00   3.70529270   0.01409786
7776.00   3.72831774   0.01380063
7778.00   3.78793073   0.01337867
7780.00   3.79190111   0.01335878
7782.00   3.73932862   0.01382624
7784.00   3.72569466   0.01399230
7786.00   3.74594474   0.01387013
7788.00   3.77936554   0.01371385
7790.00   3.82089138   0.01373201
7792.00   3.87448025   0.01383542
7794.00   3.89344382   0.01355097
7796.00   3.87899780   0.01259972
7798.00   3.87923551   0.01233967
7800.00   3.88719249   0.01283356
7802.00   3.89209127   0.01317096
7804.00   3.89004850   0.01286248
7806.00   3.88362384   0.01230191
7808.00   3.87388015   0.01254687
7810.00   3.85429573   0.01373271
7812.00   3.84625745   0.01394076
7814.00   3.83864045   0.01332956
7816.00   3.84475398   0.01311488
7818.00   3.87920403   0.01387291
7820.00   3.91856313   0.01472459
7822.00   3.91447449   0.01437545
7824.00   3.87332082   0.01285987
7826.00   3.85528588   0.01219336
7828.00   3.84308815   0.01171046
7830.00   3.83254266   0.01170641
7832.00   3.81696463   0.01239893
7834.00   3.81081533   0.01324024
7836.00   3.83575916   0.01378770
7838.00   3.89030004   0.01435260
7840.00   3.90848851   0.01415861
7842.00   3.91093206   0.01289005
7844.00   3.90051794   0.01220810
7846.00   3.86564612   0.01202414
7848.00   3.83282089   0.01208829
7850.00   3.82045674   0.01229931
7852.00   3.81915784   0.01269949
7854.00   3.82453012   0.01320350
7856.00   3.85125375   0.01401359
7858.00   3.85616350   0.01449079
7860.00   3.84196949   0.01494359
7862.00   3.82902431   0.01503614
7864.00   3.82462716   0.01439799
7866.00   3.82362008   0.01335929
7868.00   3.82314897   0.01332440
7870.00   3.82170725   0.01414713
7872.00   3.82855701   0.01453922
7874.00   3.84769678   0.01490142
7876.00   3.86009598   0.01520358
7878.00   3.86739874   0.01533827
7880.00   3.86526752   0.01550323
7882.00   3.83771873   0.01617613
7884.00   3.78337121   0.01764476
7886.00   3.74129057   0.01726045
7888.00   3.68733764   0.01460048
7890.00   3.65712762   0.01293162
7892.00   3.66558123   0.01304556
7894.00   3.67514658   0.01352332
7896.00   3.64494014   0.01314684
7898.00   3.58851290   0.01236004
7900.00   3.55068207   0.01183517
7902.00   3.50637245   0.01090406
7904.00   3.48810482   0.01100528
7906.00   3.50055957   0.01233044
7908.00   3.51881719   0.01361941
7910.00   3.53145957   0.01447095
7912.00   3.54442453   0.01516800
7914.00   3.53715014   0.01502461
7916.00   3.50850821   0.01361950
7918.00   3.48589134   0.01305465
7920.00   3.45870113   0.01311850
7922.00   3.43654490   0.01310435
7924.00   3.42364740   0.01274514
7926.00   3.41635704   0.01224440
7928.00   3.40940809   0.01186145
7930.00   3.40521097   0.01137475
7932.00   3.40209460   0.01127023
7934.00   3.40582085   0.01164734
7936.00   3.40145063   0.01183333
7938.00   3.38215852   0.01164553
7940.00   3.35976791   0.01140135
7942.00   3.35178328   0.01152429
7944.00   3.35166025   0.01184846
7946.00   3.35628176   0.01230447
7948.00   3.38225865   0.01308883
7950.00   3.38249922   0.01359858
7952.00   3.34834170   0.01386818
7954.00   3.30800819   0.01401050
7956.00   3.28403330   0.01410564
7958.00   3.26457810   0.01414691
7960.00   3.26628256   0.01383550
7962.00   3.30234241   0.01297976
7964.00   3.31338120   0.01240623
7966.00   3.30222297   0.01201461
7968.00   3.28907037   0.01173757
7970.00   3.28653765   0.01155053
7972.00   3.28727198   0.01147760
7974.00   3.27122903   0.01159075
7976.00   3.22836041   0.01184594
7978.00   3.21551919   0.01228191
7980.00   3.23075104   0.01306619
7982.00   3.23891544   0.01364654
7984.00   3.22653675   0.01388789
7986.00   3.20637989   0.01394570
7988.00   3.19692874   0.01394025
7990.00   3.19290853   0.01385445
7992.00   3.18762112   0.01357664
7994.00   3.18979764   0.01293164
7996.00   3.18021727   0.01246678
7998.00   3.14575648   0.01233326
8000.00   3.11098814   0.01230460
8002.00   3.11439586   0.01210160
8004.00   3.14814138   0.01176882
8006.00   3.16576409   0.01168912
8008.00   3.18643498   0.01183223
8010.00   3.19671917   0.01193363
8012.00   3.18728590   0.01207623
8014.00   3.18209052   0.01213875
8016.00   3.20863366   0.01187328
8018.00   3.25909567   0.01128349
8020.00   3.26671481   0.01163509
8022.00   3.25674915   0.01308529
8024.00   3.21984792   0.01358142
8026.00   3.13548875   0.01351670
8028.00   3.05941129   0.01311204
8030.00   3.02045751   0.01216829
8032.00   3.00213671   0.01072653
8034.00   3.00007629   0.01058410
8036.00   3.04462647   0.01168055
8038.00   3.03941226   0.01225655
8040.00   2.99663401   0.01306663
8042.00   2.95525074   0.01339575
8044.00   2.92046356   0.01288403
8046.00   2.89090228   0.01194824
8048.00   2.88507581   0.01160808
8050.00   2.90840578   0.01146267
8052.00   2.90960383   0.01169685
8054.00   2.89624715   0.01256737
8056.00   2.89165258   0.01308042
8058.00   2.90227246   0.01321962
8060.00   2.91499949   0.01313275
8062.00   2.91440630   0.01282094
8064.00   2.90641928   0.01219001
8066.00   2.89448929   0.01168355
8068.00   2.86690974   0.01094770
8070.00   2.85614538   0.01061892
8072.00   2.86299300   0.01076594
8074.00   2.87671137   0.01112980
8076.00   2.89233494   0.01163858
8078.00   2.91338491   0.01235427
8080.00   2.92053771   0.01232388
8082.00   2.91230106   0.01141265
8084.00   2.91445637   0.01108071
8086.00   2.92165685   0.01118113
8088.00   2.93364358   0.01138053
8090.00   2.95428896   0.01162951
8092.00   2.98000097   0.01192223
8094.00   2.98907042   0.01179519
8096.00   2.99652505   0.01103770
8098.00   2.97798443   0.01088035
8100.00   2.93568277   0.01114186
8102.00   2.88260770   0.01139144
8104.00   2.81356549   0.01149986
8106.00   2.73866320   0.01161755
8108.00   2.68984461   0.01191073
8110.00   2.65250182   0.01215125
8112.00   2.63629770   0.01298232
8114.00   2.66811395   0.01495214
8116.00   2.66079640   0.01557596
8118.00   2.59353900   0.01451326
8120.00   2.51314187   0.01272358
8122.00   2.47062492   0.01143892
8124.00   2.44622707   0.01000727
8126.00   2.42610860   0.00937380
8128.00   2.41638613   0.00978098
8130.00   2.41194630   0.01002316
8132.00   2.42360520   0.01027849
8134.00   2.42796159   0.01051783
8136.00   2.40545368   0.01063271
8138.00   2.36524987   0.01066988
8140.00   2.31739259   0.01089147
8142.00   2.23787236   0.01153103
8144.00   2.19343209   0.01151480
8146.00   2.18142009   0.01067319
8148.00   2.17045999   0.00999996
8150.00   2.14810872   0.01019220
8152.00   2.12207723   0.01076440
8154.00   2.09349298   0.01070513
8156.00   2.05814981   0.00993426
8158.00   2.02897263   0.00995973
8160.00   2.00483322   0.01075322
8162.00   1.97829413   0.01113464
8164.00   1.94446838   0.01070672
8166.00   1.91050768   0.01002469
8168.00   1.89087784   0.01014080
8170.00   1.88517010   0.01090202
8172.00   1.86949372   0.01110919
8174.00   1.83901858   0.01084396
8176.00   1.82972550   0.01100474
8178.00   1.85424232   0.01188174
8180.00   1.88319445   0.01269198
8182.00   1.88421011   0.01270278
8184.00   1.87069774   0.01217956
8186.00   1.84764957   0.01175116
8188.00   1.79465938   0.01078984
8190.00   1.77014041   0.01054631
8192.00   1.78323925   0.01140471
8194.00   1.79183555   0.01205466
8196.00   1.76430905   0.01162098
8198.00   1.71568418   0.01046736
8200.00   1.68152869   0.00990150
8202.00   1.63837957   0.00934332
8204.00   1.62296724   0.00936219
8206.00   1.63811445   0.01034334
8208.00   1.65411377   0.01088916
8210.00   1.66015697   0.01039659
8212.00   1.66316974   0.00932985
8214.00   1.66300607   0.00889076
8216.00   1.65487576   0.00874259
8218.00   1.65585649   0.00870078
8220.00   1.67346609   0.00896525
8222.00   1.67251658   0.00913958
8224.00   1.64053667   0.00914398
8226.00   1.59560323   0.00909046
8228.00   1.56235087   0.00908149
8230.00   1.52255297   0.00906516
8232.00   1.51673555   0.00909523
8234.00   1.55402029   0.00916526
8236.00   1.56982517   0.00924323
8238.00   1.55803466   0.00934586
8240.00   1.54013002   0.00944129
8242.00   1.53351843   0.00947595
8244.00   1.53082514   0.00945270
8246.00   1.52923143   0.00955625
8248.00   1.53705132   0.00988691
8250.00   1.53112626   0.00993060
8252.00   1.49978364   0.00954903
8254.00   1.48000252   0.00926920
8256.00   1.50214911   0.00953926
8258.00   1.55091584   0.01011377
8260.00   1.57100475   0.01031291
8262.00   1.57696235   0.01031147
8264.00   1.58392990   0.01035474
8266.00   1.59663248   0.01042399
8268.00   1.59287190   0.01041098
8270.00   1.55604422   0.01025911
8272.00   1.50285161   0.01001409
8274.00   1.47997952   0.00977573
8276.00   1.46494091   0.00931156
8278.00   1.47673702   0.00932544
8280.00   1.51988566   0.00977036
8282.00   1.56559312   0.01017252
8284.00   1.61569190   0.01054489
8286.00   1.66501164   0.01085012
8288.00   1.69464123   0.01088565
8290.00   1.70930111   0.01066436
8292.00   1.72382200   0.01057036
8294.00   1.73093355   0.01047670
8296.00   1.73848689   0.01040372
8298.00   1.74402165   0.01033541
8300.00   1.75148106   0.01030390
8302.00   1.76746178   0.01034852
8304.00   1.79092908   0.01045449
8306.00   1.80286741   0.01058557
8308.00   1.81504405   0.01095659
8310.00   1.81011724   0.01092055
8312.00   1.78472853   0.01042983
8314.00   1.75449705   0.00984125
8316.00   1.72513592   0.00932619
8318.00   1.69382668   0.00879554
8320.00   1.68271792   0.00865862
8322.00   1.69039965   0.00901104
8324.00   1.69591606   0.00913122
8326.00   1.70864677   0.00915689
8328.00   1.71802747   0.00922344
8330.00   1.71661055   0.00937437
8332.00   1.71241987   0.00956960
8334.00   1.72597229   0.00976889
8336.00   1.75951588   0.00997950
8338.00   1.77519500   0.01022422
8340.00   1.78284466   0.01052515
8342.00   1.78694463   0.01079093
8344.00   1.78596735   0.01108553
8346.00   1.78288651   0.01129340
8348.00   1.78429294   0.01115975
8350.00   1.78856134   0.01062604
8352.00   1.78983617   0.01054018
8354.00   1.79309773   0.01079617
8356.00   1.78888774   0.01092497
8358.00   1.77094936   0.01095668
8360.00   1.75500703   0.01093138
8362.00   1.75895929   0.01074350
8364.00   1.77772260   0.01033227
8366.00   1.77476025   0.01086285
8368.00   1.75528240   0.01255624
8370.00   1.74136019   0.01314492
8372.00   1.71717417   0.01303836
8374.00   1.71138024   0.01256253
8376.00   1.74897647   0.01163026
8378.00   1.81442726   0.01018434
8380.00   1.84741402   0.00961167
8382.00   1.86607444   0.00994570
8384.00   1.88090670   0.00983756
8386.00   1.87675416   0.00940219
8388.00   1.88675570   0.00929491
8390.00   1.92679787   0.00981744
8392.00   1.97991991   0.01060450
8394.00   2.01451468   0.01115095
8396.00   2.04675341   0.01187965
8398.00   2.05997944   0.01192398
8400.00   2.04774761   0.01125786
8402.00   2.04312372   0.01072405
8404.00   2.04707050   0.01040941
8406.00   2.05776238   0.01020645
8408.00   2.08095145   0.01011157
8410.00   2.11937165   0.01008386
8412.00   2.14281368   0.01040393
8414.00   2.16390109   0.01114132
8416.00   2.17346168   0.01170636
8418.00   2.16409087   0.01222045
8420.00   2.15465546   0.01260084
8422.00   2.16119194   0.01268480
8424.00   2.17599392   0.01251830
8426.00   2.20122790   0.01271977
8428.00   2.25349927   0.01341155
8430.00   2.27730250   0.01350181
8432.00   2.27179027   0.01305940
8434.00   2.26723695   0.01246890
8436.00   2.27848244   0.01177586
8438.00   2.29674292   0.01096353
8440.00   2.31578135   0.01097519
8442.00   2.33507442   0.01193749
8444.00   2.36383247   0.01231603
8446.00   2.40531039   0.01269436
8448.00   2.44368410   0.01270655
8450.00   2.47712278   0.01196753
8452.00   2.50585437   0.01091792
8454.00   2.52110219   0.01096833
8456.00   2.51555729   0.01182297
8458.00   2.53367805   0.01250389
8460.00   2.57193136   0.01366324
8462.00   2.60115814   0.01418604
8464.00   2.61951804   0.01381913
8466.00   2.63163424   0.01321586
8468.00   2.63889742   0.01329958
8470.00   2.64054489   0.01391474
8472.00   2.63770437   0.01356851
8474.00   2.61722016   0.01196969
8476.00   2.61836195   0.01125933
8478.00   2.64606023   0.01174908
8480.00   2.67778563   0.01237952
8482.00   2.69709897   0.01244132
8484.00   2.71178150   0.01226496
8486.00   2.72452784   0.01238135
8488.00   2.72970819   0.01274194
8490.00   2.74254203   0.01290881
8492.00   2.76521826   0.01297095
8494.00   2.78388453   0.01295466
8496.00   2.78720617   0.01272673
8498.00   2.78405976   0.01241401
8500.00   2.80653548   0.01285616
8502.00   2.86909294   0.01453830
8504.00   2.88391447   0.01460102
8506.00   2.86546016   0.01328267
8508.00   2.84381509   0.01218326
8510.00   2.81639433   0.01191359
8512.00   2.79154229   0.01196550
8514.00   2.80581141   0.01177461
8516.00   2.86308813   0.01148717
8518.00   2.88421607   0.01141308
8520.00   2.88635874   0.01129312
8522.00   2.89055419   0.01161748
8524.00   2.89635777   0.01264193
8526.00   2.90317774   0.01366204
8528.00   2.91431141   0.01402702
8530.00   2.93009138   0.01409340
8532.00   2.93820167   0.01374890
8534.00   2.94076180   0.01245938
8536.00   2.94352055   0.01182697
8538.00   2.94452786   0.01196926
8540.00   2.94644213   0.01227935
8542.00   2.95083547   0.01241286
8544.00   2.95669413   0.01254775
8546.00   2.97037673   0.01251112
8548.00   2.99852276   0.01225876
8550.00   3.01252079   0.01212123
8552.00   3.01611996   0.01201641
8554.00   3.01638198   0.01196731
8556.00   3.01732969   0.01202942
8558.00   3.01574087   0.01214767
8560.00   3.00305867   0.01208851
8562.00   2.96974969   0.01182107
8564.00   2.95931530   0.01173726
8566.00   2.95880747   0.01160012
8568.00   2.96842766   0.01175148
8570.00   2.99933934   0.01247948
8572.00   3.03289008   0.01326916
8574.00   3.02457023   0.01322565
8576.00   2.97633600   0.01235823
8578.00   2.96005869   0.01230364
8580.00   2.95481992   0.01267131
8582.00   2.95664644   0.01313104
8584.00   2.97091794   0.01396481
8586.00   2.98693848   0.01457866
8588.00   2.99112916   0.01418843
8590.00   2.98955560   0.01288601
8592.00   2.98118687   0.01228576
8594.00   2.95428252   0.01164315
8596.00   2.94648147   0.01177859
8598.00   2.95813537   0.01305876
8600.00   2.97468519   0.01415161
8602.00   2.98939848   0.01436780
8604.00   3.00597548   0.01413438
8606.00   3.01023602   0.01374595
8608.00   3.00325632   0.01252936
8610.00   2.99748015   0.01223210
8612.00   2.98725748   0.01289143
8614.00   2.97955942   0.01341769
8616.00   2.97994781   0.01341898
8618.00   2.98319101   0.01321024
8620.00   2.97383714   0.01314882
8622.00   2.95634103   0.01310118
8624.00   2.93507504   0.01307651
8626.00   2.89729953   0.01293859
8628.00   2.87506533   0.01306211
8630.00   2.87884307   0.01364015
8632.00   2.89319444   0.01432195
8634.00   2.89793372   0.01461706
8636.00   2.90653253   0.01479254
8638.00   2.89249325   0.01460412
8640.00   2.84560704   0.01386976
8642.00   2.82090831   0.01329689
8644.00   2.81956935   0.01277454
8646.00   2.83111835   0.01247842
8648.00   2.85322547   0.01275144
8650.00   2.89150572   0.01348395
8652.00   2.90534163   0.01410446
8654.00   2.90492892   0.01519162
8656.00   2.90009546   0.01547196
8658.00   2.88664412   0.01492030
8660.00   2.87069440   0.01417324
8662.00   2.85511518   0.01358201
8664.00   2.83838582   0.01296094
8666.00   2.83078957   0.01269880
8668.00   2.83240294   0.01288404
8670.00   2.83121037   0.01285811
8672.00   2.83093786   0.01276474
8674.00   2.82968593   0.01265851
8676.00   2.82641172   0.01252600
8678.00   2.82204485   0.01239235
8680.00   2.81829596   0.01239918
8682.00   2.81386375   0.01258479
8684.00   2.81121278   0.01261287
8686.00   2.80816984   0.01259097
8688.00   2.80879331   0.01250170
8690.00   2.81533527   0.01221391
8692.00   2.82395935   0.01195478
8694.00   2.82784629   0.01220395
8696.00   2.82636333   0.01290054
8698.00   2.83720899   0.01324718
8700.00   2.86608267   0.01325276
8702.00   2.87915993   0.01367922
8704.00   2.87725401   0.01476503
8706.00   2.86480236   0.01572038
8708.00   2.83910537   0.01596672
8710.00   2.79686260   0.01583524
8712.00   2.78453183   0.01516530
8714.00   2.79952145   0.01307090
8716.00   2.80142522   0.01212692
8718.00   2.79465985   0.01267878
8720.00   2.78631353   0.01319612
8722.00   2.77936029   0.01277892
8724.00   2.77219296   0.01190016
8726.00   2.76459885   0.01177403
8728.00   2.75972462   0.01232763
8730.00   2.74738455   0.01245602
8732.00   2.72650552   0.01233507
8734.00   2.70703554   0.01228011
8736.00   2.69039321   0.01230706
8738.00   2.67647409   0.01245166
8740.00   2.67232633   0.01306520
8742.00   2.68225718   0.01443490
8744.00   2.67941523   0.01471079
8746.00   2.66131139   0.01429829
8748.00   2.65822268   0.01376718
8750.00   2.68182993   0.01293705
8752.00   2.71106029   0.01209989
8754.00   2.71734691   0.01208594
8756.00   2.71265721   0.01272362
8758.00   2.69571447   0.01319909
8760.00   2.65207624   0.01385532
8762.00   2.62670231   0.01438633
8764.00   2.62748384   0.01493211
8766.00   2.62701774   0.01527986
8768.00   2.59947705   0.01509061
8770.00   2.55386496   0.01439873
8772.00   2.52661109   0.01462074
8774.00   2.49528265   0.01593684
8776.00   2.49265790   0.01618019
8778.00   2.53058076   0.01537906
8780.00   2.56396222   0.01454889
8782.00   2.56309295   0.01432605
8784.00   2.54607940   0.01437956
8786.00   2.55733633   0.01429152
8788.00   2.59000087   0.01338678
8790.00   2.61449814   0.01440401
8792.00   2.64317656   0.01780578
8794.00   2.66442490   0.01941406
8796.00   2.67606091   0.01824390
8798.00   2.67920327   0.01554740
8800.00   2.66982031   0.01402839
8802.00   2.64596128   0.01268778
8804.00   2.62167835   0.01186309
8806.00   2.58913922   0.01188951
8808.00   2.55861068   0.01191221
8810.00   2.52848077   0.01189478
8812.00   2.50174427   0.01191644
8814.00   2.48590589   0.01189144
8816.00   2.48011732   0.01176473
8818.00   2.47057247   0.01208165
8820.00   2.46289086   0.01276677
8822.00   2.45335674   0.01342347
8824.00   2.44303131   0.01421852
8826.00   2.43049002   0.01486492
8828.00   2.41295624   0.01507265
8830.00   2.39092326   0.01497042
8832.00   2.37695384   0.01515270
8834.00   2.37507439   0.01553621
8836.00   2.35880494   0.01573168
8838.00   2.32361627   0.01604046
8840.00   2.29462814   0.01592169
8842.00   2.28540874   0.01476192
8844.00   2.28743792   0.01281734
8846.00   2.28818345   0.01236847
8848.00   2.30398822   0.01346960
8850.00   2.29498768   0.01362876
8852.00   2.26033330   0.01348665
8854.00   2.23301125   0.01324794
8856.00   2.22763467   0.01254328
8858.00   2.22668195   0.01193949
8860.00   2.19877195   0.01337086
8862.00   2.14967346   0.01690160
8864.00   2.10609484   0.01739702
8866.00   2.06554723   0.01580737
8868.00   2.01148129   0.01455327
8870.00   1.93292630   0.01383864
8872.00   1.85235274   0.01338107
8874.00   1.79975867   0.01329843
8876.00   1.76466668   0.01373285
8878.00   1.73224962   0.01353331
8880.00   1.70935023   0.01270478
8882.00   1.68957233   0.01230540
8884.00   1.68114686   0.01248662
8886.00   1.66708732   0.01265829
8888.00   1.62959230   0.01237711
8890.00   1.57560539   0.01182197
8892.00   1.53994310   0.01138103
8894.00   1.50737870   0.01074937
8896.00   1.48896670   0.01047708
8898.00   1.49104190   0.01061299
8900.00   1.49131632   0.01078674
8902.00   1.47771251   0.01086416
8904.00   1.45859015   0.01092114
8906.00   1.44892836   0.01087169
8908.00   1.43926299   0.01051931
8910.00   1.44330966   0.01062866
8912.00   1.46906734   0.01083882
8914.00   1.48345232   0.01149442
8916.00   1.47881758   0.01299207
8918.00   1.46317554   0.01446478
8920.00   1.44057727   0.01453811
8922.00   1.39997828   0.01352157
8924.00   1.38345790   0.01275111
8926.00   1.38167179   0.01146079
8928.00   1.38397062   0.01051092
8930.00   1.38863122   0.01008804
8932.00   1.40002894   0.00999143
8934.00   1.42577136   0.01004680
8936.00   1.46952260   0.01034325
8938.00   1.48077691   0.01076700
8940.00   1.47288346   0.01167260
8942.00   1.45515013   0.01198799
8944.00   1.41586876   0.01169619
8946.00   1.37925518   0.01128019
8948.00   1.36233532   0.01100683
8950.00   1.35628724   0.01072908
8952.00   1.37165380   0.01097897
8954.00   1.42729521   0.01162030
8956.00   1.45007968   0.01239682
8958.00   1.45125937   0.01378206
8960.00   1.44533026   0.01456133
8962.00   1.43059146   0.01424240
8964.00   1.41143465   0.01324624
8966.00   1.42440116   0.01245300
8968.00   1.47366118   0.01112484
8970.00   1.49833894   0.01057747
8972.00   1.51492536   0.01069735
8974.00   1.52777040   0.01096744
8976.00   1.53373134   0.01137710
8978.00   1.53859711   0.01186185
8980.00   1.55789948   0.01211807
8982.00   1.59309280   0.01213214
8984.00   1.60849881   0.01258428
8986.00   1.61247885   0.01356680
8988.00   1.61307216   0.01407355
8990.00   1.60259938   0.01412056
8992.00   1.59609950   0.01390062
8994.00   1.61466873   0.01340149
8996.00   1.65246344   0.01240184
8998.00   1.68162072   0.01240908
9000.00   1.71366274   0.01349328
9002.00   1.74099505   0.01389779
9004.00   1.75933242   0.01373271
9006.00   1.78171849   0.01349304
9008.00   1.81890571   0.01346928
9010.00   1.86564648   0.01351647
9012.00   1.90392530   0.01350661
9014.00   1.94546354   0.01335785
9016.00   1.97222400   0.01348301
9018.00   1.98986566   0.01388825
9020.00   1.99502099   0.01427269
9022.00   1.98371994   0.01470981
9024.00   1.96009946   0.01505756
9026.00   1.93745923   0.01445597
9028.00   1.89585805   0.01218467
9030.00   1.88952887   0.01150465
9032.00   1.90714931   0.01196657
9034.00   1.93503380   0.01252595
9036.00   1.98165166   0.01321045
9038.00   2.03102779   0.01386774
9040.00   2.04627252   0.01395563
9042.00   2.03775668   0.01359345
9044.00   2.02750874   0.01337262
9046.00   1.99797952   0.01296285
9048.00   1.98100984   0.01278706
9050.00   1.98311615   0.01301442
9052.00   1.98541212   0.01323229
9054.00   1.96912026   0.01299971
9056.00   1.94072402   0.01243383
9058.00   1.91806638   0.01215123
9060.00   1.89092135   0.01194480
9062.00   1.87300527   0.01185792
9064.00   1.86644804   0.01192720
9066.00   1.86040926   0.01205317
9068.00   1.84626162   0.01217787
9070.00   1.82861853   0.01233066
9072.00   1.82529604   0.01249833
9074.00   1.84233391   0.01286210
9076.00   1.83931816   0.01283533
9078.00   1.82249951   0.01234298
9080.00   1.80243731   0.01195934
9082.00   1.77489126   0.01188241
9084.00   1.74742472   0.01199366
9086.00   1.75677156   0.01233111
9088.00   1.80817056   0.01317737
9090.00   1.83057284   0.01333298
9092.00   1.84776366   0.01293139
9094.00   1.85284328   0.01266471
9096.00   1.83252895   0.01261317
9098.00   1.81072497   0.01268392
9100.00   1.83470583   0.01293412
9102.00   1.90869939   0.01349252
9104.00   1.90781069   0.01349060
9106.00   1.84093487   0.01301679
9108.00   1.79972923   0.01262541
9110.00   1.77873278   0.01223077
9112.00   1.77196872   0.01191984
9114.00   1.78358483   0.01182151
9116.00   1.81355274   0.01186007
9118.00   1.84171462   0.01230610
9120.00   1.89527857   0.01329732
9122.00   1.90916681   0.01395815
9124.00   1.87305999   0.01465140
9126.00   1.84180474   0.01495875
9128.00   1.85302615   0.01447850
9130.00   1.88494313   0.01340884
9132.00   1.87836373   0.01296172
9134.00   1.84411144   0.01296494
9136.00   1.81538308   0.01269324
9138.00   1.76261199   0.01213945
9140.00   1.74139357   0.01181055
9142.00   1.78025365   0.01194775
9144.00   1.84930086   0.01232953
9146.00   1.88836169   0.01260178
9148.00   1.91306293   0.01282030
9150.00   1.95109856   0.01327893
9152.00   2.00022197   0.01375086
9154.00   2.04285884   0.01456453
9156.00   2.08113742   0.01611801
9158.00   2.11081243   0.01746968
9160.00   2.11998749   0.01738435
9162.00   2.11048675   0.01603479
9164.00   2.09998345   0.01559152
9166.00   2.07477760   0.01565819
9168.00   2.05943823   0.01543806
9170.00   2.05410242   0.01485130
9172.00   2.05272889   0.01421795
9174.00   2.05003691   0.01380483
9176.00   2.04722977   0.01349979
9178.00   2.06075072   0.01335749
9180.00   2.09972548   0.01351724
9182.00   2.11745429   0.01350025
9184.00   2.11642408   0.01332617
9186.00   2.11344910   0.01317941
9188.00   2.11582685   0.01316338
9190.00   2.11952472   0.01321732
9192.00   2.12658191   0.01324054
9194.00   2.12908983   0.01309247
9196.00   2.15108156   0.01336207
9198.00   2.20346022   0.01421238
9200.00   2.23885369   0.01469342
9202.00   2.23958635   0.01448426
9204.00   2.22407007   0.01396280
9206.00   2.21865773   0.01376059
9208.00   2.20816708   0.01353897
9210.00   2.21352553   0.01372268
9212.00   2.23368788   0.01432162
9214.00   2.25323915   0.01488111
9216.00   2.26436448   0.01547009
9218.00   2.28255892   0.01597255
9220.00   2.33111715   0.01612655
9222.00   2.40817308   0.01597467
9224.00   2.46470284   0.01602814
9226.00   2.53067803   0.01624178
9228.00   2.56233096   0.01625187
9230.00   2.55436945   0.01585010
9232.00   2.53070259   0.01560117
9234.00   2.50847125   0.01612602
9236.00   2.47928500   0.01716367
9238.00   2.44645619   0.01739682
9240.00   2.40528679   0.01730272
9242.00   2.36729741   0.01685658
9244.00   2.32649851   0.01567339
9246.00   2.29188275   0.01458433
9248.00   2.26561880   0.01412188
9250.00   2.24724078   0.01404550
9252.00   2.25032401   0.01419988
9254.00   2.29139996   0.01500407
9256.00   2.29840708   0.01519305
9258.00   2.28596067   0.01504732
9260.00   2.27035594   0.01482409
9262.00   2.25360131   0.01452656
9264.00   2.23493123   0.01417979
9266.00   2.21964359   0.01399201
9268.00   2.20266175   0.01389152
9270.00   2.19697976   0.01386475
9272.00   2.19453692   0.01374471
9274.00   2.20722270   0.01403305
9276.00   2.24790025   0.01491450
9278.00   2.29022145   0.01588512
9280.00   2.29789710   0.01648876
9282.00   2.28228879   0.01702794
9284.00   2.27131248   0.01699759
9286.00   2.22936749   0.01579942
9288.00   2.23852038   0.01576906
9290.00   2.32241535   0.01715286
9292.00   2.40094447   0.01853627
9294.00   2.41478705   0.01922127
9296.00   2.39249325   0.01964444
9298.00   2.34529352   0.01940652
9300.00   2.21229291   0.01750057
9302.00   2.17838526   0.01752854
9304.00   2.24027014   0.01924378
9306.00   2.30120325   0.02106609
9308.00   2.32590055   0.02262862
9310.00   2.33454204   0.02413791
9312.00   2.30977988   0.02509707
9314.00   2.24726009   0.02588885
9316.00   2.18309927   0.02606320
9318.00   2.08752298   0.02557958
9320.00   2.01334071   0.02495551
9322.00   1.96551657   0.02420177
9324.00   1.94250298   0.02334266
9326.00   1.96567380   0.02267222
9328.00   2.05165100   0.02186947
9330.00   2.08745956   0.02192145
9332.00   2.11138439   0.02280545
9334.00   2.11346579   0.02366660
9336.00   2.08285403   0.02478432
9338.00   2.04270101   0.02565193
9340.00   2.01560283   0.02544975
9342.00   1.98166871   0.02425566
9344.00   2.01665092   0.02417266
9346.00   2.14283156   0.02529495
9348.00   2.21456432   0.02523055
9350.00   2.24602342   0.02365450
9352.00   2.25485539   0.02203105
9354.00   2.24357438   0.02169921
9356.00   2.21015024   0.02211521
9358.00   2.18342614   0.02189414
9360.00   2.14649606   0.02080480
9362.00   2.12223363   0.02112475
9364.00   2.10168481   0.02273858
9366.00   2.09415865   0.02435459
9368.00   2.10843444   0.02542604
9370.00   2.13625979   0.02645550
9372.00   2.15069008   0.02836313
9374.00   2.17683554   0.03138864
9376.00   2.16109753   0.03299103
9378.00   2.11428714   0.03379703
9380.00   2.05068874   0.03457430
9382.00   1.93641233   0.03628237
9384.00   1.83097959   0.03731617
9386.00   1.87411189   0.03427254
9388.00   2.05667043   0.02482471
9390.00   2.15707660   0.02031164
9392.00   2.26286554   0.02079514
9394.00   2.31882095   0.02056519
9396.00   2.30336285   0.01944586
9398.00   2.26898861   0.01853368
9400.00   2.27388167   0.01858797
9402.00   2.29795647   0.01945805
9404.00   2.29366446   0.01977089
9406.00   2.27042770   0.01976298
9408.00   2.24744081   0.02012537
9410.00   2.21297050   0.02099694
9412.00   2.18758011   0.02171784
9414.00   2.19259501   0.02173396
9416.00   2.21749043   0.02133789
9418.00   2.20691657   0.02210286
9420.00   2.15070152   0.02400716
9422.00   2.14518452   0.02504555
9424.00   2.18389177   0.02588336
9426.00   2.22172523   0.02623501
9428.00   2.24253011   0.02581047
9430.00   2.25806737   0.02490686
9432.00   2.27688980   0.02451607
9434.00   2.31942129   0.02396231
9436.00   2.29956388   0.02441698
9438.00   2.21143389   0.02647955
9440.00   2.14423990   0.02730066
9442.00   2.10726118   0.02620083
9444.00   2.09007096   0.02428826
9446.00   2.10243630   0.02314409
9448.00   2.15736556   0.02177296
9450.00   2.16870213   0.02221760
9452.00   2.15640616   0.02503917
9454.00   2.14154863   0.02633199
9456.00   2.11682558   0.02611725
9458.00   2.09436321   0.02543046
9460.00   2.09298778   0.02488589
9462.00   2.10875106   0.02402700
9464.00   2.09775829   0.02448062
9466.00   2.05777574   0.02663445
9468.00   2.04150248   0.02738350
9470.00   2.03542757   0.02689344
9472.00   2.04981160   0.02628225
9474.00   2.10181332   0.02615326
9476.00   2.18167496   0.02619397
9478.00   2.22117662   0.02642230
9480.00   2.23854089   0.02731699
9482.00   2.25232148   0.02725122
9484.00   2.26641369   0.02640138
9486.00   2.25783658   0.02536921
9488.00   2.21339917   0.02423950
9490.00   2.14655590   0.02298211
9492.00   2.08586860   0.02207181
9494.00   1.98530567   0.02102661
9496.00   1.97908676   0.02114842
9498.00   2.05691099   0.02199141
9500.00   2.13302493   0.02363666
9502.00   2.22647309   0.02686920
9504.00   2.29903841   0.02970679
9506.00   2.25038409   0.02955324
9508.00   2.07753873   0.02700353
9510.00   2.01969957   0.02515964
9512.00   2.02315354   0.02217096
9514.00   2.02212954   0.02029698
9516.00   2.02516127   0.02006797
9518.00   2.02714014   0.02056920
9520.00   2.01467657   0.02119811
9522.00   1.99137950   0.02234180
9524.00   1.98630321   0.02227007
9526.00   1.98593819   0.02076473
9528.00   2.00252700   0.02032048
9530.00   2.04518747   0.02080990
9532.00   2.08576059   0.02147702
9534.00   2.10804749   0.02212607
9536.00   2.12116933   0.02283096
9538.00   2.13265491   0.02272321
9540.00   2.12464285   0.02151650
9542.00   2.14776182   0.02115662
9544.00   2.21451592   0.02098622
9546.00   2.25496173   0.02143281
9548.00   2.24631882   0.02302176
9550.00   2.20876813   0.02487913
9552.00   2.15973115   0.02513855
9554.00   2.06844950   0.02416679
9556.00   2.03067684   0.02360012
9558.00   2.03480697   0.02260777
9560.00   2.03075552   0.02211640
9562.00   2.01311231   0.02242707
9564.00   1.99202073   0.02302286
9566.00   1.97165692   0.02333286
9568.00   1.94598782   0.02367468
9570.00   1.94022310   0.02359900
9572.00   1.94989979   0.02311157
9574.00   1.96420527   0.02261533
9576.00   1.99201584   0.02203883
9578.00   2.01612735   0.02142862
9580.00   2.02173543   0.02076914
9582.00   2.01690674   0.01998920
9584.00   1.98625743   0.02010515
9586.00   1.90901041   0.02120008
9588.00   1.86817181   0.02187834
9590.00   1.85512471   0.02256825
9592.00   1.84953642   0.02294269
9594.00   1.84015810   0.02271586
9596.00   1.83423197   0.02208229
9598.00   1.84968555   0.02177327
9600.00   1.88778496   0.02161100
9602.00   1.92288506   0.02133462
9604.00   1.97661126   0.02098157
9606.00   2.00964785   0.02064005
9608.00   2.01247787   0.02032049
9610.00   1.99307609   0.02002400
9612.00   1.95007753   0.01979838
9614.00   1.85774577   0.01958858
9616.00   1.82502806   0.01955990
9618.00   1.84382069   0.01959701
9620.00   1.84116125   0.01989032
9622.00   1.80443645   0.02066513
9624.00   1.76067913   0.02142551
9626.00   1.73554182   0.02155371
9628.00   1.71643043   0.02132091
9630.00   1.71468234   0.02077795
9632.00   1.74835110   0.01941082
9634.00   1.75091779   0.01860387
9636.00   1.70460033   0.01842035
9638.00   1.66883886   0.01847341
9640.00   1.69872153   0.01854908
9642.00   1.77291334   0.01876467
9644.00   1.79793441   0.01883329
9646.00   1.78831291   0.01876271
9648.00   1.79906917   0.01884342
9650.00   1.83152437   0.01917551
9652.00   1.85248089   0.01934187
9654.00   1.84099758   0.01894301
9656.00   1.81215954   0.01828604
9658.00   1.80698490   0.01875647
9660.00   1.80405378   0.02022084
9662.00   1.82585311   0.02124035
9664.00   1.89213967   0.02262631
9666.00   1.93090951   0.02330139
9668.00   1.91180849   0.02277521
9670.00   1.87302423   0.02174706
9672.00   1.88013995   0.02169050
9674.00   1.92310047   0.02237503
9676.00   1.93476367   0.02236791
9678.00   1.93433428   0.02193610
9680.00   1.92601848   0.02158395
9682.00   1.90613544   0.02140035
9684.00   1.88180590   0.02118203
9686.00   1.86370099   0.02068324
9688.00   1.84815264   0.01989358
9690.00   1.82882226   0.01949593
9692.00   1.81042552   0.01930093
9694.00   1.78470993   0.01926593
9696.00   1.74585950   0.01953129
9698.00   1.71004033   0.01978424
9700.00   1.68999112   0.01977768
9702.00   1.67971992   0.01963009
9704.00   1.67160130   0.01948154
9706.00   1.66733301   0.01904653
9708.00   1.66984355   0.01909116
9710.00   1.68572402   0.01969522
9712.00   1.69635713   0.02018919
9714.00   1.69362843   0.02019890
9716.00   1.68282175   0.02003394
9718.00   1.66703475   0.02047267
9720.00   1.63946819   0.02142985
9722.00   1.61958587   0.02212660
9724.00   1.59090936   0.02305635
9726.00   1.58315587   0.02349907
9728.00   1.61267233   0.02321189
9730.00   1.65568447   0.02255065
9732.00   1.67002141   0.02208840
9734.00   1.67553699   0.02161229
9736.00   1.65721238   0.02105447
9738.00   1.59759104   0.02013147
9740.00   1.56192183   0.01971659
9742.00   1.55562115   0.01989085
9744.00   1.56067336   0.02045027
9746.00   1.56636584   0.02145901
9748.00   1.58230650   0.02315887
9750.00   1.57015312   0.02289769
9752.00   1.52485192   0.02024457
9754.00   1.50099885   0.01900949
9756.00   1.49140370   0.01938541
9758.00   1.49329579   0.01998644
9760.00   1.51413548   0.02001459
9762.00   1.55135882   0.01987436
9764.00   1.54758072   0.01989661
9766.00   1.49251616   0.02019910
9768.00   1.48431456   0.02002393
9770.00   1.51643944   0.01899611
9772.00   1.54519582   0.01850917
9774.00   1.55633080   0.01960126
9776.00   1.55860293   0.02123884
9778.00   1.54683566   0.02111037
9780.00   1.50210631   0.01894000
9782.00   1.49846196   0.01871803
9784.00   1.53092003   0.01964847
9786.00   1.55168808   0.02071209
9788.00   1.55081379   0.02199887
9790.00   1.54130650   0.02322338
9792.00   1.53392196   0.02362370
9794.00   1.52222776   0.02344667
9796.00   1.51666737   0.02323387
9798.00   1.51642764   0.02260427
9800.00   1.51423538   0.02216046
9802.00   1.51049995   0.02186956
9804.00   1.50539100   0.02174034
9806.00   1.49389851   0.02181113
9808.00   1.47199714   0.02200673
9810.00   1.49460828   0.02281880
9812.00   1.58554542   0.02514457
9814.00   1.61355543   0.02544500
9816.00   1.57265770   0.02337047
9818.00   1.52977490   0.02110469
9820.00   1.53250432   0.02048162
9822.00   1.55627704   0.02073214
9824.00   1.52810693   0.02078182
9826.00   1.42718530   0.02143802
9828.00   1.40539551   0.02126448
9830.00   1.44054306   0.02007543
9832.00   1.49142551   0.01922011
9834.00   1.55939364   0.01938392
9836.00   1.63508260   0.02004204
9838.00   1.64824104   0.02043530
9840.00   1.60663676   0.02102165
9842.00   1.57796431   0.02114845
9844.00   1.51781523   0.02043272
9846.00   1.49438238   0.02052979
9848.00   1.52990937   0.02216086
9850.00   1.58836401   0.02393705
9852.00   1.62268054   0.02416235
9854.00   1.65810823   0.02338808
9856.00   1.66239560   0.02271446
9858.00   1.62886357   0.02112865
9860.00   1.60796511   0.02051442
9862.00   1.58838582   0.02003727
9864.00   1.58547723   0.02133109
9866.00   1.63259268   0.02665705
9868.00   1.72880244   0.03418550
9870.00   1.73016346   0.03508537
9872.00   1.64472735   0.03076250
9874.00   1.59745657   0.02803070
9876.00   1.56641054   0.02591988
9878.00   1.55018651   0.02421275
9880.00   1.55619180   0.02313799
9882.00   1.57996202   0.02270180
9884.00   1.58881605   0.02240530
9886.00   1.59558129   0.02256304
9888.00   1.59569383   0.02278046
9890.00   1.59745646   0.02343359
9892.00   1.58192480   0.02377298
9894.00   1.53245509   0.02345148
9896.00   1.46839881   0.02281397
9898.00   1.44268072   0.02257186
9900.00   1.44493628   0.02255206
9902.00   1.43854415   0.02242147
9904.00   1.42988300   0.02197060
9906.00   1.43229747   0.02208392
9908.00   1.45632041   0.02302510
9910.00   1.48270023   0.02424711
9912.00   1.47904968   0.02519364
9914.00   1.44915438   0.02625528
9916.00   1.44590127   0.02659412
9918.00   1.45744205   0.02643555
9920.00   1.46900046   0.02598629
9922.00   1.48462546   0.02497892
9924.00   1.49861431   0.02388053
9926.00   1.50429082   0.02321371
9928.00   1.50474858   0.02275350
9930.00   1.49996579   0.02268006
9932.00   1.47318411   0.02281885
9934.00   1.47780013   0.02355087
9936.00   1.52210426   0.02415482
9938.00   1.56007755   0.02606902
9940.00   1.56653309   0.03056312
9942.00   1.55592024   0.03584379
9944.00   1.54150414   0.03718988
9946.00   1.51102829   0.03569553
9948.00   1.48972976   0.03491080
9950.00   1.46311772   0.03332752
9952.00   1.45179474   0.03233529
9954.00   1.46890020   0.03275783
9956.00   1.49887848   0.03373002
9958.00   1.50741363   0.03360350
9960.00   1.51102936   0.03278149
9962.00   1.49574959   0.03214904
9964.00   1.45046639   0.03119670
9966.00   1.41942811   0.03059272
9968.00   1.40800905   0.03065309
9970.00   1.40555358   0.03081284
9972.00   1.40428531   0.03029617
9974.00   1.40692496   0.02932320
9976.00   1.41660202   0.02836430
9978.00   1.42996168   0.02695140
9980.00   1.45419574   0.02597982
9982.00   1.50464189   0.02552542
9984.00   1.54493308   0.02530815
9986.00   1.53720963   0.02514593
9988.00   1.49517691   0.02514019
9990.00   1.48202312   0.02513144
9992.00   1.47104359   0.02497890
9994.00   1.47979343   0.02530601
9996.00   1.52103198   0.02623059
9998.00   1.55368364   0.02707222
10000.00   1.55527258   0.02737903
10002.00   1.53972912   0.02749374
10004.00   1.52560234   0.02848860
10006.00   1.50019658   0.03000689
10008.00   1.48389733   0.03170594
10010.00   1.46294522   0.03421678
10012.00   1.45917761   0.03589642
10014.00   1.49165189   0.03647638
10016.00   1.53441501   0.03637085
10018.00   1.52594161   0.03574895
10020.00   1.46860683   0.03407618
10022.00   1.45210528   0.03314597
10024.00   1.45425797   0.03260164
10026.00   1.45975518   0.03196197
10028.00   1.48232830   0.03099691
10030.00   1.49551415   0.03015835
10032.00   1.44960260   0.03015739
10034.00   1.34310651   0.03094639
10036.00   1.32364190   0.03094709
10038.00   1.37228656   0.03017557
10040.00   1.40147769   0.03014042
10042.00   1.41698813   0.03109856
10044.00   1.43150353   0.03198678
10046.00   1.45132697   0.03210734
10048.00   1.47395718   0.03181988
10050.00   1.48834336   0.03109417
10052.00   1.50186443   0.02898533
10054.00   1.50278020   0.02841445
10056.00   1.49046075   0.02947921
10058.00   1.47301531   0.03044460
10060.00   1.45586693   0.03038106
10062.00   1.43490398   0.02999206
10064.00   1.39806950   0.03097654
10066.00   1.30757213   0.03348758
10068.00   1.30590045   0.03460193
10070.00   1.38239026   0.03526811
10072.00   1.45196629   0.03543937
10074.00   1.50445414   0.03470600
10076.00   1.54485178   0.03370325
10078.00   1.54655659   0.03416548
10080.00   1.50339544   0.03603852
10082.00   1.48862195   0.03643548
10084.00   1.48701620   0.03616056
10086.00   1.47701478   0.03555049
10088.00   1.45694113   0.03434944
10090.00   1.43190408   0.03297034
10092.00   1.40013063   0.03205338
10094.00   1.35175383   0.03126352
10096.00   1.36344409   0.03124683
10098.00   1.44098580   0.03205995
10100.00   1.48958528   0.03288423
10102.00   1.53256595   0.03416095
10104.00   1.54723823   0.03509267
10106.00   1.49892068   0.03502036
10108.00   1.40110004   0.03426355
10110.00   1.36699927   0.03363765
10112.00   1.36529899   0.03206570
10114.00   1.37196589   0.03210122
10116.00   1.40271807   0.03355777
10118.00   1.43128443   0.03532787
10120.00   1.44724357   0.03729607
10122.00   1.45702088   0.03935245
10124.00   1.45931780   0.04016950
10126.00   1.45131803   0.04025288
10128.00   1.44443035   0.03981508
10130.00   1.43689942   0.03839415
10132.00   1.42420256   0.03699626
10134.00   1.39371896   0.03563257
10136.00   1.36627126   0.03442204
10138.00   1.38972795   0.03412585
10140.00   1.46672356   0.03472995
10142.00   1.49651253   0.03505696
10144.00   1.50768316   0.03541319
10146.00   1.50813878   0.03596161
10148.00   1.49350154   0.03691410
10150.00   1.47195530   0.03777854
10152.00   1.45152771   0.03771266
10154.00   1.42400813   0.03655762
10156.00   1.42715633   0.03859203
10158.00   1.46796954   0.04338089
10160.00   1.48615682   0.04675180
10162.00   1.49186897   0.05054886
10164.00   1.48354363   0.05240844
10166.00   1.44336033   0.04961934
10168.00   1.37862444   0.04288091
10170.00   1.40359569   0.04277866
10172.00   1.53291464   0.04885475
10174.00   1.58950806   0.05091636
10176.00   1.62243354   0.05175013
10178.00   1.61521399   0.05116815
10180.00   1.54052234   0.04805823
10182.00   1.42772329   0.04323718
10184.00   1.38177276   0.04186535
10186.00   1.38088751   0.04356307
10188.00   1.36426723   0.04385200
10190.00   1.34045696   0.04418742
10192.00   1.33641398   0.04424591
10194.00   1.36286962   0.04373140
10196.00   1.40314102   0.04313037
10198.00   1.43151462   0.04332276
10200.00   1.45472467   0.04381967
10202.00   1.49045217   0.04526401
10204.00   1.56515408   0.04842559
10206.00   1.58337831   0.05008781
10208.00   1.52405024   0.05014260
10210.00   1.44671381   0.04962470
10212.00   1.40545714   0.04930469
10214.00   1.37432539   0.04880847
10216.00   1.36945450   0.04836984
10218.00   1.41232383   0.04788818
10220.00   1.41868377   0.04743555
10222.00   1.38604152   0.04681744
10224.00   1.35515666   0.04647404
10226.00   1.34686232   0.04683473
10228.00   1.35021913   0.04766396
10230.00   1.37749112   0.04789077
10232.00   1.47256088   0.04809050
10234.00   1.47660029   0.04761358
10236.00   1.38434088   0.04610813
10238.00   1.31568348   0.04485434
10240.00   1.32474291   0.04431079
10242.00   1.36321962   0.04420055
10244.00   1.34442973   0.04454726
10246.00   1.23779893   0.04589221
10248.00   1.27846503   0.04612841
10250.00   1.48134708   0.04560681
10252.00   1.60378838   0.04515644
10254.00   1.59580767   0.04486601
10256.00   1.53645241   0.04462260
10258.00   1.50171590   0.04440876
10260.00   1.44691288   0.04408787
10262.00   1.44522536   0.04442510
10264.00   1.48999357   0.04541457
10266.00   1.53193998   0.04630316
10268.00   1.58712542   0.04718542
10270.00   1.63008177   0.04800486
10272.00   1.62494051   0.04845063
10274.00   1.58229661   0.04847115
10276.00   1.56368339   0.05022808
10278.00   1.54659212   0.05277582
10280.00   1.53774261   0.05634541
10282.00   1.53619182   0.06172501
10284.00   1.54121792   0.06620645
10286.00   1.56325150   0.06885967
10288.00   1.59510851   0.07046533
10290.00   1.56225955   0.07009521
10292.00   1.43411887   0.06680311
10294.00   1.39923096   0.06470073
10296.00   1.43275940   0.06272994
10298.00   1.46825111   0.06085645
10300.00   1.48790371   0.05877184
10302.00   1.50480258   0.05692096
10304.00   1.51895654   0.05693963
10306.00   1.53987265   0.05888203
10308.00   1.53048277   0.06019318
10310.00   1.46803129   0.06310339
10312.00   1.44977450   0.06339285
10314.00   1.50944054   0.05905633
10316.00   1.58519685   0.05330912
10318.00   1.59752071   0.05237727
10320.00   1.58305049   0.05491861
10322.00   1.51990569   0.05575399
10324.00   1.35374212   0.05732128
10326.00   1.27048421   0.05722037
10328.00   1.27517867   0.05428809
10330.00   1.31376004   0.05146864
10332.00   1.35641360   0.05224431
10334.00   1.42193878   0.05537469
10336.00   1.44754994   0.05599411
10338.00   1.43453813   0.05419334
10340.00   1.44573331   0.05503307
10342.00   1.48672879   0.05810054
10344.00   1.51286626   0.06157602
10346.00   1.49147642   0.06553008
10348.00   1.44373763   0.06962365
10350.00   1.44174373   0.06916769
10352.00   1.47090971   0.06181761
10354.00   1.49448037   0.06079940
10356.00   1.51469934   0.06482858
10358.00   1.55275083   0.06790485
10360.00   1.60640144   0.06801780
10362.00   1.68255818   0.06757244
10364.00   1.82230830   0.07065050
10366.00   2.11123157   0.07844570
10368.00   2.13670754   0.07846656
10370.00   1.90979755   0.07113000
10372.00   1.76164114   0.06604023
10374.00   1.72285533   0.06534857
10376.00   1.72803915   0.06600370
10378.00   1.74727416   0.06521787
10380.00   1.80701506   0.06405244
10382.00   1.82147837   0.06306215
10384.00   1.80875432   0.06158223
10386.00   1.79732001   0.06110327
10388.00   1.77782691   0.06158775
10390.00   1.76377118   0.06275398
10392.00   1.77296996   0.06491329
10394.00   1.79953766   0.06808015
10396.00   1.80118990   0.06792068
10398.00   1.77103615   0.06378540
10400.00   1.77702582   0.06241560
10402.00   1.81712925   0.06265303
10404.00   1.86059201   0.06412278
10406.00   1.88067198   0.06707549
10408.00   1.89778781   0.07101908
10410.00   1.99508393   0.07372462
10412.00   2.26367593   0.07725765
10414.00   2.29662251   0.07762662
10416.00   2.10217714   0.07430351
10418.00   1.97434723   0.07189700
10420.00   2.01138616   0.07187127
10422.00   2.10353184   0.07288338
10424.00   2.10288191   0.07381268
10426.00   2.05829859   0.07594560
10428.00   2.00516295   0.07555728
10430.00   1.87623775   0.07274263
10432.00   1.83595407   0.07042755
10434.00   1.95487428   0.06853515
10436.00   2.08357596   0.06718173
10438.00   2.01265430   0.06725260
10440.00   1.76469123   0.06880745
10442.00   1.78831851   0.06900612
10444.00   2.07673407   0.06808825
10446.00   2.20585799   0.06815165
10448.00   2.19127631   0.06895348
10450.00   2.12766314   0.07038254
10452.00   2.04540610   0.07303838
10454.00   1.92136407   0.07672643
10456.00   1.93956065   0.07639542
10458.00   2.12477064   0.07116209
10460.00   2.19432855   0.06932534
10462.00   2.19444370   0.07032879
10464.00   2.16708255   0.07128346
10466.00   2.11164236   0.07073428
10468.00   2.03497434   0.06973360
10470.00   2.02152014   0.07050741
10472.00   2.09706926   0.07432028
10474.00   2.07067800   0.07401241
10476.00   1.93596721   0.06950115
10478.00   1.86601210   0.06663313
10480.00   1.93320143   0.06734110
10482.00   2.04082441   0.06964064
10484.00   2.02291536   0.07170129
10486.00   1.88798726   0.07566568
10488.00   1.89007366   0.07487642
10490.00   2.01705766   0.06863569
10492.00   2.07384038   0.06449902
10494.00   2.01913881   0.06296001
10496.00   1.95500922   0.06325353
10498.00   1.99717903   0.06565578
10500.00   2.12066817   0.07029782
10502.00   2.13795066   0.07350849
10504.00   2.10130763   0.07850826
10506.00   2.03726220   0.07914320
10508.00   1.89769614   0.07394371
10510.00   1.78630245   0.06827848
10512.00   1.79655910   0.06708381
10514.00   1.88567972   0.06832674
10516.00   1.90713298   0.06834295
10518.00   1.92104673   0.06850794
10520.00   1.89515162   0.06843127
10522.00   1.79594922   0.06794748
10524.00   1.72958422   0.06771722
10526.00   1.75344598   0.06814807
10528.00   1.82207620   0.06889450
10530.00   1.84208632   0.06910066
10532.00   1.83477962   0.06768475
10534.00   1.84525955   0.06954281
10536.00   1.87250769   0.07447071
10538.00   1.88199520   0.07834305
10540.00   1.85133827   0.08115481
10542.00   1.81534553   0.08292878
10544.00   1.83741963   0.08198887
10546.00   1.89751482   0.07682098
10548.00   1.97135115   0.07749669
10550.00   2.14358687   0.08504764
10552.00   2.18542790   0.08676460
10554.00   2.03706002   0.08042777
10556.00   1.85300756   0.07212132
10558.00   1.78968322   0.06971896
10560.00   1.78289282   0.07076540
10562.00   1.79213643   0.07158718
10564.00   1.86351860   0.07404308
10566.00   1.89418507   0.07591591
10568.00   1.88873684   0.07798216
10570.00   1.87586212   0.07929043
10572.00   1.87972641   0.07896738
10574.00   1.88861012   0.07745769
10576.00   1.83073199   0.07643928
10578.00   1.69578993   0.07523860
10580.00   1.59911525   0.07414261
10582.00   1.48407614   0.07165240
10584.00   1.42503011   0.07151148
10586.00   1.47803247   0.07602166
10588.00   1.58814001   0.08251731
10590.00   1.60196316   0.08608872
10592.00   1.53877282   0.09044129
10594.00   1.53489280   0.08954995
10596.00   1.54532540   0.08116131
10598.00   1.58200240   0.07597186
10600.00   1.67132533   0.07803541
10602.00   1.76726115   0.08219929
10604.00   1.78180432   0.08238594
10606.00   1.74091971   0.08044481
10608.00   1.69232643   0.07968105
10610.00   1.56089747   0.07860833
10612.00   1.52671170   0.07859614
10614.00   1.62551272   0.08014712
10616.00   1.75088227   0.08191628
10618.00   1.80759346   0.08267016
10620.00   1.83934331   0.08297451
10622.00   1.83805227   0.08297524
10624.00   1.76825786   0.08217021
10626.00   1.75016081   0.08199162
10628.00   1.77411985   0.08236903
10630.00   1.81249130   0.08286951
10632.00   1.86400712   0.08338796
10634.00   1.92868745   0.08397234
10636.00   1.92142117   0.08383760
10638.00   1.81716800   0.08272998
10640.00   1.79690826   0.08238494
10642.00   1.83606029   0.08255667
10644.00   1.87694108   0.08273280
10646.00   1.91196740   0.08285542
10648.00   1.94069731   0.08290903
10650.00   1.91644955   0.08243809
10652.00   1.80265570   0.08109072
10654.00   1.80387890   0.08081160
10656.00   1.90745533   0.08153265
10658.00   1.97423887   0.08180217
10660.00   1.97919726   0.08134372
10662.00   1.96291733   0.08061121
10664.00   1.95974779   0.08004000
10666.00   1.94718838   0.07939537
10668.00   1.97114491   0.07898532
10670.00   2.05795121   0.07906753
10672.00   2.08446884   0.07858198
10674.00   2.02783298   0.07723670
10676.00   1.96320331   0.07584363
10678.00   1.95966613   0.07524936
10680.00   1.99096954   0.07517516
10682.00   1.99555075   0.07460979
10684.00   1.98750746   0.07393143
10686.00   1.98701262   0.07298694
10688.00   1.99944580   0.07141627
10690.00   2.00223422   0.07013345
10692.00   1.97856987   0.06991743
10694.00   1.93855155   0.07032315
10696.00   1.91569102   0.06972453
10698.00   1.90009749   0.06870973
10700.00   1.88538301   0.06716656
10702.00   1.87422001   0.06452185
10704.00   1.86401510   0.06221956
10706.00   1.84894097   0.06086895
10708.00   1.83686113   0.06000851
10710.00   1.85142374   0.05899554
10712.00   1.88954246   0.05759739
10714.00   1.92805934   0.05772473
10716.00   1.98824477   0.06010406
10718.00   2.02917457   0.06094514
10720.00   2.05392790   0.05939183
10722.00   2.05643559   0.05708192
10724.00   2.01307368   0.05609610
10726.00   1.91794169   0.05567273
10728.00   1.86245668   0.05550746
10730.00   1.81329596   0.05682680
10732.00   1.78345013   0.05621028
10734.00   1.76248145   0.05283245
10736.00   1.77055597   0.04896794
10738.00   1.84429979   0.04683756
10740.00   1.97942603   0.04554377
10742.00   1.99932075   0.04577396
10744.00   1.93289721   0.04907629
10746.00   1.87689555   0.04968673
10748.00   1.77892017   0.04812335
10750.00   1.72123230   0.04608579
10752.00   1.76705885   0.04405984
10754.00   1.87469530   0.04181452
10756.00   1.91557419   0.04152263
10758.00   1.94792438   0.04335679
10760.00   1.92995095   0.04431580
10762.00   1.83495665   0.04570730
10764.00   1.76678789   0.04625076
10766.00   1.76394975   0.04520898
10768.00   1.78531039   0.04346970
10770.00   1.76726663   0.04314743
10772.00   1.69818699   0.04409424
10774.00   1.72685826   0.04369674
10776.00   1.85717285   0.04243745
10778.00   1.94627357   0.04114899
10780.00   1.98464036   0.03963807
10782.00   1.99505627   0.03823804
10784.00   1.98099566   0.03775883
10786.00   1.93122864   0.03808730
10788.00   1.90754461   0.03807303
10790.00   1.86822653   0.03740101
10792.00   1.88051462   0.03816607
10794.00   1.97717535   0.04157564
10796.00   2.06470418   0.04392884
10798.00   2.05380535   0.04224844
10800.00   1.97906756   0.03742736
10802.00   1.98711979   0.03505041
10804.00   2.07812524   0.03348185
10806.00   2.09198427   0.03257558
10808.00   2.03805304   0.03224963
10810.00   1.97905123   0.03300612
10812.00   1.94084084   0.03563378
10814.00   1.90817118   0.03908398
10816.00   1.88157701   0.03978606
10818.00   1.86872315   0.03871828
10820.00   1.84311163   0.03744493
10822.00   1.78420663   0.03473274
10824.00   1.76920569   0.03235816
10826.00   1.85565698   0.03066573
10828.00   1.96317410   0.02966791
10830.00   1.91133487   0.03033910
10832.00   1.67601359   0.03318193
10834.00   1.66573358   0.03403058
10836.00   1.87201703   0.03440906
10838.00   1.95260596   0.03384702
10840.00   1.83927774   0.03172650
10842.00   1.69133711   0.02901950
10844.00   1.68066490   0.02737633
10846.00   1.75612438   0.02622424
10848.00   1.76192284   0.02552881
10850.00   1.72771478   0.02536534
10852.00   1.71716177   0.02572919
10854.00   1.75078869   0.02666410
10856.00   1.76064599   0.02797358
10858.00   1.67170477   0.02982701
10860.00   1.51167858   0.03213448
